%OpenBCI Raw EEG Data
%
%Sample Rate = 250.0 Hz
%First Column = SampleIndex
%Last Column = Timestamp 
%Other Columns = EEG data in microvolts followed by Accel Data (in G) interleaved with Aux Data
106, -28.70, -21.84, -26.96, -19.92, -18.86, -25.21, -23.83, -20.16, -21.46, -19.65, -22.71, -23.29, -31.11, -23.58, -24.50, -20.05, 0.000, 0.000, 0.000, 15:37:21.766
107, -28.90, -21.99, -27.07, -20.03, -19.02, -25.08, -23.51, -20.43, -21.46, -19.65, -22.71, -23.29, -31.11, -23.58, -24.50, -20.05, 0.000, 0.000, 0.000, 15:37:21.766
108, -28.90, -21.99, -27.07, -20.03, -19.02, -25.08, -23.51, -20.43, -21.39, -19.58, -22.87, -23.38, -30.98, -23.67, -24.56, -19.94, 0.000, 0.000, 0.000, 15:37:21.766
109, -28.86, -22.13, -27.07, -19.96, -19.07, -25.24, -23.65, -20.43, -21.39, -19.58, -22.87, -23.38, -30.98, -23.67, -24.56, -19.94, 0.000, 0.000, 0.000, 15:37:21.767
110, -28.86, -22.13, -27.07, -19.96, -19.07, -25.24, -23.65, -20.43, -21.41, -19.65, -22.75, -23.20, -30.78, -23.42, -24.63, -20.07, 0.000, 0.000, 0.000, 15:37:21.767
111, -28.83, -21.99, -26.98, -19.96, -18.91, -25.26, -23.89, -20.43, -21.41, -19.65, -22.75, -23.20, -30.78, -23.42, -24.63, -20.07, 0.000, 0.000, 0.000, 15:37:21.767
112, -28.83, -21.99, -26.98, -19.96, -18.91, -25.26, -23.89, -20.43, -21.44, -19.67, -22.91, -23.13, -30.91, -23.60, -24.56, -19.94, 0.000, 0.000, 0.000, 15:37:21.767
113, -28.83, -21.97, -26.96, -19.89, -18.84, -25.35, -23.78, -20.56, -21.44, -19.67, -22.91, -23.13, -30.91, -23.60, -24.56, -19.94, 0.000, 0.000, 0.000, 15:37:21.768
114, -28.83, -21.97, -26.96, -19.89, -18.84, -25.35, -23.78, -20.56, -21.46, -19.60, -22.91, -23.34, -30.78, -23.51, -24.32, -19.85, 0.000, 0.000, 0.000, 15:37:21.768
115, -28.99, -22.02, -27.07, -20.03, -18.91, -25.41, -23.92, -20.56, -21.46, -19.60, -22.91, -23.34, -30.78, -23.51, -24.32, -19.85, -0.018, 0.940, -0.224, 15:37:21.768
116, -28.99, -22.02, -27.07, -20.03, -18.91, -25.41, -23.92, -20.56, -21.50, -19.65, -22.89, -23.49, -30.76, -23.60, -24.25, -19.98, 0.000, 0.000, 0.000, 15:37:21.768
117, -28.68, -21.95, -27.05, -20.07, -18.84, -25.39, -23.83, -20.34, -21.50, -19.65, -22.89, -23.49, -30.76, -23.60, -24.25, -19.98, 0.000, 0.000, 0.000, 15:37:21.768
118, -28.68, -21.95, -27.05, -20.07, -18.84, -25.39, -23.83, -20.34, -21.39, -19.65, -23.02, -23.42, -30.93, -23.56, -24.45, -19.83, 0.000, 0.000, 0.000, 15:37:21.769
119, -28.79, -21.93, -27.07, -20.00, -18.93, -25.28, -23.78, -20.45, -21.39, -19.65, -23.02, -23.42, -30.93, -23.56, -24.45, -19.83, 0.000, 0.000, 0.000, 15:37:21.769
120, -28.79, -21.93, -27.07, -20.00, -18.93, -25.28, -23.78, -20.45, -21.44, -19.76, -23.02, -23.25, -30.98, -23.58, -24.45, -20.09, 0.000, 0.000, 0.000, 15:37:21.769
121, -28.83, -21.93, -26.96, -20.07, -19.00, -25.28, -23.67, -20.09, -21.44, -19.76, -23.02, -23.25, -30.98, -23.58, -24.45, -20.09, 0.000, 0.000, 0.000, 15:37:21.769
122, -28.83, -21.93, -26.96, -20.07, -19.00, -25.28, -23.67, -20.09, -21.44, -19.76, -22.58, -23.40, -31.20, -23.69, -24.39, -20.09, 0.000, 0.000, 0.000, 15:37:21.769
123, -28.99, -21.97, -26.93, -19.89, -18.91, -25.41, -23.74, -20.23, -21.44, -19.76, -22.58, -23.40, -31.20, -23.69, -24.39, -20.09, 0.000, 0.000, 0.000, 15:37:21.770
124, -28.99, -21.97, -26.93, -19.89, -18.91, -25.41, -23.74, -20.23, -21.44, -19.60, -22.71, -23.36, -30.71, -23.65, -24.72, -20.00, 0.000, 0.000, 0.000, 15:37:21.770
125, -28.86, -21.90, -26.96, -20.12, -18.80, -25.30, -23.56, -20.54, -21.44, -19.60, -22.71, -23.36, -30.71, -23.65, -24.72, -20.00, -0.018, 0.932, -0.228, 15:37:21.770
126, -28.86, -21.90, -26.96, -20.12, -18.80, -25.30, -23.56, -20.54, -21.41, -19.47, -22.69, -23.18, -30.73, -23.63, -24.45, -20.03, 0.000, 0.000, 0.000, 15:37:21.770
127, -28.97, -21.82, -26.91, -19.78, -18.95, -25.12, -23.58, -20.52, -21.41, -19.47, -22.69, -23.18, -30.73, -23.63, -24.45, -20.03, 0.000, 0.000, 0.000, 15:37:21.770
128, -28.97, -21.82, -26.91, -19.78, -18.95, -25.12, -23.58, -20.52, -21.55, -19.65, -22.89, -23.29, -30.96, -23.65, -24.68, -20.12, 0.000, 0.000, 0.000, 15:37:21.771
129, -28.77, -21.88, -27.05, -20.00, -19.09, -25.37, -23.63, -20.56, -21.55, -19.65, -22.89, -23.29, -30.96, -23.65, -24.68, -20.12, 0.000, 0.000, 0.000, 15:37:21.771
130, -28.77, -21.88, -27.05, -20.00, -19.09, -25.37, -23.63, -20.56, -21.50, -19.47, -22.60, -23.36, -30.93, -23.51, -24.56, -19.92, 0.000, 0.000, 0.000, 15:37:21.771
131, -29.01, -21.79, -27.09, -20.00, -18.89, -25.44, -23.65, -20.54, -21.50, -19.47, -22.60, -23.36, -30.93, -23.51, -24.56, -19.92, 0.000, 0.000, 0.000, 15:37:21.771
132, -29.01, -21.79, -27.09, -20.00, -18.89, -25.44, -23.65, -20.54, -21.46, -19.71, -22.75, -23.29, -30.67, -23.56, -24.52, -19.76, 0.000, 0.000, 0.000, 15:37:21.771
133, -28.74, -21.97, -26.89, -20.07, -18.78, -25.46, -23.65, -20.27, -21.46, -19.71, -22.75, -23.29, -30.67, -23.56, -24.52, -19.76, 0.000, 0.000, 0.000, 15:37:21.772
134, -28.74, -21.97, -26.89, -20.07, -18.78, -25.46, -23.65, -20.27, -21.17, -19.60, -22.73, -23.29, -30.76, -23.58, -24.48, -19.65, -0.022, 0.920, -0.240, 15:37:21.772
135, -28.83, -21.86, -26.80, -19.85, -18.86, -25.21, -23.72, -20.21, -21.17, -19.60, -22.73, -23.29, -30.76, -23.58, -24.48, -19.65, 0.000, 0.000, 0.000, 15:37:21.772
136, -28.83, -21.86, -26.80, -19.85, -18.86, -25.21, -23.72, -20.21, -21.32, -19.69, -22.84, -23.22, -31.00, -23.49, -24.50, -20.03, 0.000, 0.000, 0.000, 15:37:21.772
137, -28.81, -21.68, -27.02, -19.94, -18.91, -24.97, -23.80, -20.36, -21.32, -19.69, -22.84, -23.22, -31.00, -23.49, -24.50, -20.03, 0.000, 0.000, 0.000, 15:37:21.773
138, -28.81, -21.68, -27.02, -19.94, -18.91, -24.97, -23.80, -20.36, -21.39, -19.71, -22.55, -23.34, -30.96, -23.58, -24.52, -20.07, 0.000, 0.000, 0.000, 15:37:21.773
139, -29.06, -21.64, -26.93, -19.98, -18.80, -25.32, -23.80, -20.36, -21.39, -19.71, -22.55, -23.34, -30.96, -23.58, -24.52, -20.07, 0.000, 0.000, 0.000, 15:37:21.773
140, -29.06, -21.64, -26.93, -19.98, -18.80, -25.32, -23.80, -20.36, -21.37, -19.65, -22.80, -23.20, -30.80, -23.54, -24.59, -19.71, 0.000, 0.000, 0.000, 15:37:21.774
141, -28.95, -21.68, -26.67, -20.00, -18.89, -25.57, -23.78, -20.43, -21.37, -19.65, -22.80, -23.20, -30.80, -23.54, -24.59, -19.71, 0.000, 0.000, 0.000, 15:37:21.774
142, -28.95, -21.68, -26.67, -20.00, -18.89, -25.57, -23.78, -20.43, -21.55, -19.67, -23.04, -23.38, -31.09, -23.60, -24.54, -20.03, 0.000, 0.000, 0.000, 15:37:21.774
143, -29.03, -21.77, -26.89, -19.83, -18.86, -25.21, -23.51, -20.43, -21.55, -19.67, -23.04, -23.38, -31.09, -23.60, -24.54, -20.03, 0.000, 0.000, 0.000, 15:37:21.775
144, -29.03, -21.77, -26.89, -19.83, -18.86, -25.21, -23.51, -20.43, -21.52, -19.78, -22.80, -23.22, -30.89, -23.65, -24.36, -19.87, -0.016, 0.928, -0.250, 15:37:21.775
145, -28.74, -22.13, -26.96, -19.80, -19.04, -25.48, -23.60, -20.65, -21.52, -19.78, -22.80, -23.22, -30.89, -23.65, -24.36, -19.87, 0.000, 0.000, 0.000, 15:37:21.775
146, -28.74, -22.13, -26.96, -19.80, -19.04, -25.48, -23.60, -20.65, -21.30, -19.71, -22.73, -23.38, -30.93, -23.54, -24.39, -20.05, 0.000, 0.000, 0.000, 15:37:21.775
147, -28.88, -22.04, -26.98, -19.83, -19.00, -25.66, -23.60, -20.43, -21.30, -19.71, -22.73, -23.38, -30.93, -23.54, -24.39, -20.05, 0.000, 0.000, 0.000, 15:37:21.776
148, -28.88, -22.04, -26.98, -19.83, -19.00, -25.66, -23.60, -20.43, -21.21, -19.67, -22.75, -23.20, -30.91, -23.54, -24.59, -19.65, 0.000, 0.000, 0.000, 15:37:21.776
149, -28.90, -21.84, -26.80, -19.89, -18.84, -25.19, -23.69, -20.41, -21.21, -19.67, -22.75, -23.20, -30.91, -23.54, -24.59, -19.65, 0.000, 0.000, 0.000, 15:37:21.776
150, -28.90, -21.84, -26.80, -19.89, -18.84, -25.19, -23.69, -20.41, -21.35, -19.62, -22.71, -23.42, -30.96, -23.56, -24.70, -19.92, 0.000, 0.000, 0.000, 15:37:21.777
151, -29.01, -21.86, -26.89, -20.05, -19.02, -25.26, -23.69, -20.36, -21.35, -19.62, -22.71, -23.42, -30.96, -23.56, -24.70, -19.92, 0.000, 0.000, 0.000, 15:37:21.777
152, -29.01, -21.86, -26.89, -20.05, -19.02, -25.26, -23.69, -20.36, -21.23, -19.51, -22.78, -23.22, -30.96, -23.67, -24.39, -19.78, 0.000, 0.000, 0.000, 15:37:21.777
153, -29.06, -21.97, -26.84, -19.87, -18.95, -25.28, -23.72, -20.36, -21.23, -19.51, -22.78, -23.22, -30.96, -23.67, -24.39, -19.78, 0.000, 0.000, 0.000, 15:37:21.777
154, -29.06, -21.97, -26.84, -19.87, -18.95, -25.28, -23.72, -20.36, -21.21, -19.56, -22.73, -23.69, -30.73, -23.54, -24.30, -19.80, -0.016, 0.922, -0.264, 15:37:21.778
155, -28.83, -21.99, -27.09, -20.00, -18.84, -25.44, -23.74, -20.52, -21.21, -19.56, -22.73, -23.69, -30.73, -23.54, -24.30, -19.80, 0.000, 0.000, 0.000, 15:37:21.778
156, -28.83, -21.99, -27.09, -20.00, -18.84, -25.44, -23.74, -20.52, -21.23, -19.85, -22.82, -23.40, -30.87, -23.51, -24.48, -19.96, 0.000, 0.000, 0.000, 15:37:21.778
157, -28.88, -21.84, -27.00, -19.94, -18.80, -25.19, -23.92, -20.59, -21.23, -19.85, -22.82, -23.40, -30.87, -23.51, -24.48, -19.96, 0.000, 0.000, 0.000, 15:37:21.778
158, -28.88, -21.84, -27.00, -19.94, -18.80, -25.19, -23.92, -20.59, -21.26, -19.60, -22.66, -23.31, -30.82, -23.63, -24.56, -19.96, 0.000, 0.000, 0.000, 15:37:21.779
159, -28.88, -21.82, -26.91, -20.07, -19.02, -25.37, -23.74, -20.21, -21.26, -19.60, -22.66, -23.31, -30.82, -23.63, -24.56, -19.96, 0.000, 0.000, 0.000, 15:37:21.779
160, -28.88, -21.82, -26.91, -20.07, -19.02, -25.37, -23.74, -20.21, -21.28, -19.56, -22.71, -23.38, -30.89, -23.65, -24.54, -20.00, 0.000, 0.000, 0.000, 15:37:21.779
161, -28.90, -21.95, -26.93, -19.85, -18.89, -25.48, -23.78, -20.50, -21.28, -19.56, -22.71, -23.38, -30.89, -23.65, -24.54, -20.00, 0.000, 0.000, 0.000, 15:37:21.779
162, -28.90, -21.95, -26.93, -19.85, -18.89, -25.48, -23.78, -20.50, -21.32, -19.58, -22.89, -23.31, -30.71, -23.42, -24.41, -19.78, 0.000, 0.000, 0.000, 15:37:21.779
163, -28.77, -21.79, -26.96, -19.98, -18.91, -25.35, -23.76, -20.45, -21.32, -19.58, -22.89, -23.31, -30.71, -23.42, -24.41, -19.78, 0.000, 0.000, 0.000, 15:37:21.779
164, -28.77, -21.79, -26.96, -19.98, -18.91, -25.35, -23.76, -20.45, -21.50, -19.49, -22.93, -23.49, -31.02, -23.49, -24.50, -19.83, -0.016, 0.930, -0.272, 15:37:21.780
165, -28.74, -21.95, -27.02, -19.85, -18.73, -25.37, -23.87, -20.38, -21.50, -19.49, -22.93, -23.49, -31.02, -23.49, -24.50, -19.83, 0.000, 0.000, 0.000, 15:37:21.780
166, -28.74, -21.95, -27.02, -19.85, -18.73, -25.37, -23.87, -20.38, -21.35, -19.69, -22.91, -23.47, -30.98, -23.45, -24.59, -19.74, 0.000, 0.000, 0.000, 15:37:21.780
167, -28.90, -21.84, -27.07, -20.03, -18.89, -25.24, -23.80, -20.34, -21.35, -19.69, -22.91, -23.47, -30.98, -23.45, -24.59, -19.74, 0.000, 0.000, 0.000, 15:37:21.780
168, -28.90, -21.84, -27.07, -20.03, -18.89, -25.24, -23.80, -20.34, -21.23, -19.69, -22.82, -23.25, -31.00, -23.65, -24.54, -19.92, 0.000, 0.000, 0.000, 15:37:21.780
169, -28.92, -21.88, -27.20, -19.89, -18.93, -25.19, -23.58, -20.50, -21.23, -19.69, -22.82, -23.25, -31.00, -23.65, -24.54, -19.92, 0.000, 0.000, 0.000, 15:37:21.780
170, -28.92, -21.88, -27.20, -19.89, -18.93, -25.19, -23.58, -20.50, -21.41, -19.71, -22.71, -23.18, -30.93, -23.67, -24.43, -19.85, 0.000, 0.000, 0.000, 15:37:21.781
171, -28.97, -22.02, -27.31, -19.74, -19.11, -25.19, -23.67, -20.43, -21.41, -19.71, -22.71, -23.18, -30.93, -23.67, -24.43, -19.85, 0.000, 0.000, 0.000, 15:37:21.781
172, -28.97, -22.02, -27.31, -19.74, -19.11, -25.19, -23.67, -20.43, -21.41, -19.62, -22.64, -23.31, -30.89, -23.54, -24.61, -19.94, 0.000, 0.000, 0.000, 15:37:21.781
173, -29.08, -21.86, -27.00, -20.16, -18.80, -25.21, -23.78, -20.36, -21.41, -19.62, -22.64, -23.31, -30.89, -23.54, -24.61, -19.94, 0.000, 0.000, 0.000, 15:37:21.781
174, -29.08, -21.86, -27.00, -20.16, -18.80, -25.21, -23.78, -20.36, -21.32, -19.62, -22.82, -23.20, -30.91, -23.47, -24.48, -20.07, -0.024, 0.934, -0.280, 15:37:21.781
175, -28.92, -21.86, -27.29, -20.12, -18.89, -25.35, -23.92, -20.38, -21.32, -19.62, -22.82, -23.20, -30.91, -23.47, -24.48, -20.07, 0.000, 0.000, 0.000, 15:37:21.781
176, -28.92, -21.86, -27.29, -20.12, -18.89, -25.35, -23.92, -20.38, -21.32, -19.67, -22.84, -23.16, -30.85, -23.40, -24.50, -19.87, 0.000, 0.000, 0.000, 15:37:21.782
177, -28.86, -21.95, -27.07, -20.03, -18.82, -25.53, -23.69, -20.52, -21.32, -19.67, -22.84, -23.16, -30.85, -23.40, -24.50, -19.87, 0.000, 0.000, 0.000, 15:37:21.782
178, -28.86, -21.95, -27.07, -20.03, -18.82, -25.53, -23.69, -20.52, -21.41, -19.69, -22.73, -23.42, -31.02, -23.54, -24.39, -19.65, 0.000, 0.000, 0.000, 15:37:21.782
179, -28.86, -21.79, -27.07, -20.14, -18.86, -25.28, -23.85, -20.54, -21.41, -19.69, -22.73, -23.42, -31.02, -23.54, -24.39, -19.65, 0.000, 0.000, 0.000, 15:37:21.782
180, -28.86, -21.79, -27.07, -20.14, -18.86, -25.28, -23.85, -20.54, -21.28, -19.67, -22.73, -23.22, -30.89, -23.49, -24.50, -19.94, 0.000, 0.000, 0.000, 15:37:21.782
181, -28.83, -21.75, -27.05, -20.00, -18.91, -25.46, -23.69, -20.47, -21.28, -19.67, -22.73, -23.22, -30.89, -23.49, -24.50, -19.94, 0.000, 0.000, 0.000, 15:37:21.782
182, -28.83, -21.75, -27.05, -20.00, -18.91, -25.46, -23.69, -20.47, -21.23, -19.76, -22.84, -23.27, -31.02, -23.56, -24.48, -20.03, 0.000, 0.000, 0.000, 15:37:21.783
183, -28.83, -21.86, -27.05, -20.00, -18.91, -25.39, -23.76, -20.34, -21.23, -19.76, -22.84, -23.27, -31.02, -23.56, -24.48, -20.03, 0.000, 0.000, 0.000, 15:37:21.783
184, -28.83, -21.86, -27.05, -20.00, -18.91, -25.39, -23.76, -20.34, -21.26, -19.89, -22.87, -23.36, -31.05, -23.60, -24.56, -19.74, -0.034, 0.930, -0.286, 15:37:21.783
185, -29.10, -21.88, -26.98, -19.92, -19.00, -25.26, -23.67, -20.36, -21.26, -19.89, -22.87, -23.36, -31.05, -23.60, -24.56, -19.74, 0.000, 0.000, 0.000, 15:37:21.783
186, -29.10, -21.88, -26.98, -19.92, -19.00, -25.26, -23.67, -20.36, -21.26, -19.87, -22.87, -23.34, -31.05, -23.45, -24.43, -19.89, 0.000, 0.000, 0.000, 15:37:21.783
187, -28.90, -21.79, -26.89, -19.83, -18.71, -25.24, -23.56, -20.43, -21.26, -19.87, -22.87, -23.34, -31.05, -23.45, -24.43, -19.89, 0.000, 0.000, 0.000, 15:37:21.784
188, -28.90, -21.79, -26.89, -19.83, -18.71, -25.24, -23.56, -20.43, -21.21, -19.65, -22.78, -23.13, -30.98, -23.42, -24.39, -20.12, 0.000, 0.000, 0.000, 15:37:21.784
189, -28.68, -21.75, -27.09, -20.32, -18.69, -25.08, -23.87, -20.45, -21.21, -19.65, -22.78, -23.13, -30.98, -23.42, -24.39, -20.12, 0.000, 0.000, 0.000, 15:37:21.785
190, -28.68, -21.75, -27.09, -20.32, -18.69, -25.08, -23.87, -20.45, -21.32, -19.69, -22.62, -23.13, -30.73, -23.58, -24.36, -20.09, 0.000, 0.000, 0.000, 15:37:21.785
191, -28.97, -21.77, -27.14, -20.09, -18.91, -25.26, -23.76, -20.65, -21.32, -19.69, -22.62, -23.13, -30.73, -23.58, -24.36, -20.09, 0.000, 0.000, 0.000, 15:37:21.786
192, -28.97, -21.77, -27.14, -20.09, -18.91, -25.26, -23.76, -20.65, -21.44, -19.74, -22.62, -23.34, -30.93, -23.56, -24.36, -19.80, 0.000, 0.000, 0.000, 15:37:21.786
193, -29.03, -21.90, -27.29, -19.94, -18.89, -25.32, -23.80, -20.52, -21.44, -19.74, -22.62, -23.34, -30.93, -23.56, -24.36, -19.80, -0.032, 0.932, -0.294, 15:37:21.786
194, -29.03, -21.90, -27.29, -19.94, -18.89, -25.32, -23.80, -20.52, -21.37, -19.69, -22.73, -23.34, -30.80, -23.58, -24.34, -20.14, 0.000, 0.000, 0.000, 15:37:21.786
195, -29.03, -21.97, -27.22, -19.94, -18.86, -25.03, -23.63, -20.32, -21.37, -19.69, -22.73, -23.34, -30.80, -23.58, -24.34, -20.14, 0.000, 0.000, 0.000, 15:37:21.787
196, -29.03, -21.97, -27.22, -19.94, -18.86, -25.03, -23.63, -20.32, -21.48, -19.62, -22.91, -23.27, -30.64, -23.51, -24.39, -19.94, 0.000, 0.000, 0.000, 15:37:21.787
197, -28.90, -21.97, -26.89, -19.80, -19.00, -25.19, -23.69, -20.47, -21.48, -19.62, -22.91, -23.27, -30.64, -23.51, -24.39, -19.94, 0.000, 0.000, 0.000, 15:37:21.787
198, -28.90, -21.97, -26.89, -19.80, -19.00, -25.19, -23.69, -20.47, -21.26, -19.54, -22.58, -23.27, -30.62, -23.63, -24.48, -20.00, 0.000, 0.000, 0.000, 15:37:21.787
199, -28.97, -22.06, -26.93, -19.96, -18.71, -25.37, -23.67, -20.25, -21.26, -19.54, -22.58, -23.27, -30.62, -23.63, -24.48, -20.00, 0.000, 0.000, 0.000, 15:37:21.788
200, -28.97, -22.06, -26.93, -19.96, -18.71, -25.37, -23.67, -20.25, -21.64, -19.80, -22.60, -23.49, -30.80, -23.65, -24.43, -19.98, 0.000, 0.000, 0.000, 15:37:21.788
201, -28.83, -21.88, -26.91, -20.03, -18.95, -25.26, -23.63, -20.47, -21.64, -19.80, -22.60, -23.49, -30.80, -23.65, -24.43, -19.98, 0.000, 0.000, 0.000, 15:37:21.788
202, -28.83, -21.88, -26.91, -20.03, -18.95, -25.26, -23.63, -20.47, -21.48, -19.65, -22.82, -23.27, -30.85, -23.67, -24.48, -19.78, 0.000, 0.000, 0.000, 15:37:21.788
203, -29.12, -21.86, -27.02, -20.12, -18.89, -25.28, -23.87, -20.38, -21.48, -19.65, -22.82, -23.27, -30.85, -23.67, -24.48, -19.78, -0.038, 0.932, -0.294, 15:37:21.788
204, -29.12, -21.86, -27.02, -20.12, -18.89, -25.28, -23.87, -20.38, -21.21, -19.71, -22.62, -23.31, -30.93, -23.69, -24.52, -19.83, 0.000, 0.000, 0.000, 15:37:21.788
205, -28.90, -21.82, -26.98, -20.00, -18.84, -25.21, -23.80, -20.50, -21.21, -19.71, -22.62, -23.31, -30.93, -23.69, -24.52, -19.83, 0.000, 0.000, 0.000, 15:37:21.789
206, -28.90, -21.82, -26.98, -20.00, -18.84, -25.21, -23.80, -20.50, -21.26, -19.76, -22.89, -23.25, -31.11, -23.63, -24.54, -20.07, 0.000, 0.000, 0.000, 15:37:21.789
207, -28.70, -21.93, -26.96, -20.05, -18.80, -25.39, -23.67, -20.43, -21.26, -19.76, -22.89, -23.25, -31.11, -23.63, -24.54, -20.07, 0.000, 0.000, 0.000, 15:37:21.789
208, -28.70, -21.93, -26.96, -20.05, -18.80, -25.39, -23.67, -20.43, -21.52, -19.67, -22.82, -23.13, -31.11, -23.63, -24.68, -20.05, 0.000, 0.000, 0.000, 15:37:21.789
209, -28.95, -21.86, -26.91, -20.14, -18.89, -25.28, -23.78, -20.34, -21.52, -19.67, -22.82, -23.13, -31.11, -23.63, -24.68, -20.05, 0.000, 0.000, 0.000, 15:37:21.789
210, -28.95, -21.86, -26.91, -20.14, -18.89, -25.28, -23.78, -20.34, -21.37, -19.69, -22.69, -23.20, -30.87, -23.40, -24.45, -20.07, 0.000, 0.000, 0.000, 15:37:21.789
211, -28.59, -21.97, -27.05, -19.94, -18.98, -25.53, -23.78, -20.23, -21.37, -19.69, -22.69, -23.20, -30.87, -23.40, -24.45, -20.07, 0.000, 0.000, 0.000, 15:37:21.790
212, -28.59, -21.97, -27.05, -19.94, -18.98, -25.53, -23.78, -20.23, -21.39, -19.80, -22.82, -23.31, -30.78, -23.40, -24.43, -20.09, 0.000, 0.000, 0.000, 15:37:21.790
213, -29.01, -21.90, -27.14, -19.87, -19.09, -25.24, -23.56, -20.56, -21.39, -19.80, -22.82, -23.31, -30.78, -23.40, -24.43, -20.09, -0.032, 0.936, -0.288, 15:37:21.790
214, -29.01, -21.90, -27.14, -19.87, -19.09, -25.24, -23.56, -20.56, -21.30, -19.65, -22.78, -23.25, -30.91, -23.34, -24.50, -19.74, 0.000, 0.000, 0.000, 15:37:21.790
215, -29.01, -21.86, -26.89, -20.00, -18.86, -25.28, -23.69, -20.12, -21.30, -19.65, -22.78, -23.25, -30.91, -23.34, -24.50, -19.74, 0.000, 0.000, 0.000, 15:37:21.790
216, -29.01, -21.86, -26.89, -20.00, -18.86, -25.28, -23.69, -20.12, -21.41, -19.51, -22.87, -23.31, -30.80, -23.54, -24.41, -19.80, 0.000, 0.000, 0.000, 15:37:21.790
217, -28.74, -21.86, -27.11, -20.03, -18.78, -25.08, -23.47, -20.47, -21.41, -19.51, -22.87, -23.31, -30.80, -23.54, -24.41, -19.80, 0.000, 0.000, 0.000, 15:37:21.791
218, -28.74, -21.86, -27.11, -20.03, -18.78, -25.08, -23.47, -20.47, -21.32, -19.42, -22.89, -23.54, -30.93, -23.60, -24.36, -19.96, 0.000, 0.000, 0.000, 15:37:21.791
219, -28.97, -21.97, -27.07, -19.92, -19.07, -25.17, -23.54, -20.63, -21.32, -19.42, -22.89, -23.54, -30.93, -23.60, -24.36, -19.96, 0.000, 0.000, 0.000, 15:37:21.791
220, -28.97, -21.97, -27.07, -19.92, -19.07, -25.17, -23.54, -20.63, -21.50, -19.42, -22.82, -23.49, -30.96, -23.74, -24.48, -19.80, 0.000, 0.000, 0.000, 15:37:21.791
221, -28.83, -21.90, -27.20, -20.00, -18.95, -25.32, -23.76, -20.43, -21.50, -19.42, -22.82, -23.49, -30.96, -23.74, -24.48, -19.80, 0.000, 0.000, 0.000, 15:37:21.792
222, -28.83, -21.90, -27.20, -20.00, -18.95, -25.32, -23.76, -20.43, -21.50, -19.71, -22.84, -23.27, -31.02, -23.54, -24.54, -20.03, 0.000, 0.000, 0.000, 15:37:21.792
223, -28.90, -21.79, -27.00, -20.03, -18.86, -25.21, -23.56, -20.32, -21.50, -19.71, -22.84, -23.27, -31.02, -23.54, -24.54, -20.03, -0.038, 0.914, -0.292, 15:37:21.792
224, -28.90, -21.79, -27.00, -20.03, -18.86, -25.21, -23.56, -20.32, -21.44, -19.76, -22.73, -23.45, -31.00, -23.58, -24.61, -20.05, 0.000, 0.000, 0.000, 15:37:21.792
225, -28.77, -21.75, -26.96, -20.03, -19.02, -25.30, -23.69, -20.30, -21.44, -19.76, -22.73, -23.45, -31.00, -23.58, -24.61, -20.05, 0.000, 0.000, 0.000, 15:37:21.793
226, -28.77, -21.75, -26.96, -20.03, -19.02, -25.30, -23.69, -20.30, -21.37, -19.69, -22.96, -23.34, -30.91, -23.58, -24.48, -19.98, 0.000, 0.000, 0.000, 15:37:22.248
227, -28.81, -21.52, -27.07, -19.98, -19.02, -25.10, -23.85, -20.47, -21.37, -19.69, -22.96, -23.34, -30.91, -23.58, -24.48, -19.98, 0.000, 0.000, 0.000, 15:37:22.248
228, -28.81, -21.52, -27.07, -19.98, -19.02, -25.10, -23.85, -20.47, -21.59, -19.71, -22.73, -23.22, -30.71, -23.40, -24.56, -19.94, 0.000, 0.000, 0.000, 15:37:22.248
229, -28.74, -21.88, -26.93, -19.89, -18.82, -25.28, -23.78, -20.25, -21.59, -19.71, -22.73, -23.22, -30.71, -23.40, -24.56, -19.94, 0.000, 0.000, 0.000, 15:37:22.249
230, -28.74, -21.88, -26.93, -19.89, -18.82, -25.28, -23.78, -20.25, -21.46, -19.62, -22.82, -23.31, -30.96, -23.65, -24.70, -20.03, 0.000, 0.000, 0.000, 15:37:22.249
231, -28.81, -22.04, -26.80, -19.98, -18.89, -25.19, -23.80, -20.47, -21.46, -19.62, -22.82, -23.31, -30.96, -23.65, -24.70, -20.03, 0.000, 0.000, 0.000, 15:37:22.249
232, -28.81, -22.04, -26.80, -19.98, -18.89, -25.19, -23.80, -20.47, -21.30, -19.87, -22.62, -23.31, -30.78, -23.45, -24.63, -19.98, 0.000, 0.000, 0.000, 15:37:22.249
233, -28.79, -21.88, -26.91, -20.18, -18.89, -25.15, -23.72, -20.36, -21.30, -19.87, -22.62, -23.31, -30.78, -23.45, -24.63, -19.98, -0.040, 0.934, -0.288, 15:37:22.250
234, -28.79, -21.88, -26.91, -20.18, -18.89, -25.15, -23.72, -20.36, -21.41, -19.65, -22.87, -23.11, -30.73, -23.87, -24.43, -19.71, 0.000, 0.000, 0.000, 15:37:22.250
235, -28.86, -21.70, -27.02, -20.14, -18.91, -25.19, -23.78, -20.21, -21.41, -19.65, -22.87, -23.11, -30.73, -23.87, -24.43, -19.71, 0.000, 0.000, 0.000, 15:37:22.250
236, -28.86, -21.70, -27.02, -20.14, -18.91, -25.19, -23.78, -20.21, -21.66, -19.51, -22.69, -23.27, -31.00, -23.54, -24.39, -19.89, 0.000, 0.000, 0.000, 15:37:22.250
237, -29.01, -21.86, -26.84, -20.16, -18.93, -25.26, -23.78, -20.32, -21.66, -19.51, -22.69, -23.27, -31.00, -23.54, -24.39, -19.89, 0.000, 0.000, 0.000, 15:37:22.251
238, -29.01, -21.86, -26.84, -20.16, -18.93, -25.26, -23.78, -20.32, -21.41, -19.76, -22.60, -23.22, -30.76, -23.72, -24.34, -19.96, 0.000, 0.000, 0.000, 15:37:22.251
239, -28.92, -22.04, -27.14, -19.98, -18.93, -25.37, -23.80, -20.21, -21.41, -19.76, -22.60, -23.22, -30.76, -23.72, -24.34, -19.96, 0.000, 0.000, 0.000, 15:37:22.251
240, -28.92, -22.04, -27.14, -19.98, -18.93, -25.37, -23.80, -20.21, -21.21, -19.71, -22.69, -23.13, -30.82, -23.67, -24.61, -20.18, 0.000, 0.000, 0.000, 15:37:22.251
241, -29.01, -21.93, -27.09, -19.87, -18.91, -25.24, -23.83, -20.56, -21.21, -19.71, -22.69, -23.13, -30.82, -23.67, -24.61, -20.18, 0.000, 0.000, 0.000, 15:37:22.251
242, -29.01, -21.93, -27.09, -19.87, -18.91, -25.24, -23.83, -20.56, -21.26, -19.60, -22.71, -23.09, -30.85, -23.47, -24.52, -19.94, -0.024, 0.928, -0.288, 15:37:22.252
243, -28.97, -21.95, -27.00, -19.98, -18.80, -25.26, -23.63, -20.47, -21.26, -19.60, -22.71, -23.09, -30.85, -23.47, -24.52, -19.94, 0.000, 0.000, 0.000, 15:37:22.252
244, -28.97, -21.95, -27.00, -19.98, -18.80, -25.26, -23.63, -20.47, -21.37, -19.54, -22.60, -23.38, -30.76, -23.65, -24.59, -20.16, 0.000, 0.000, 0.000, 15:37:22.252
245, -28.83, -21.88, -27.09, -19.92, -18.75, -25.39, -23.89, -20.47, -21.37, -19.54, -22.60, -23.38, -30.76, -23.65, -24.59, -20.16, 0.000, 0.000, 0.000, 15:37:22.252
246, -28.83, -21.88, -27.09, -19.92, -18.75, -25.39, -23.89, -20.47, -21.19, -19.76, -22.91, -23.25, -30.76, -23.63, -24.59, -19.92, 0.000, 0.000, 0.000, 15:37:22.252
247, -28.95, -22.02, -26.93, -20.03, -18.89, -25.26, -23.65, -20.52, -21.19, -19.76, -22.91, -23.25, -30.76, -23.63, -24.59, -19.92, 0.000, 0.000, 0.000, 15:37:22.252
248, -28.95, -22.02, -26.93, -20.03, -18.89, -25.26, -23.65, -20.52, -21.41, -19.56, -22.73, -23.27, -30.78, -23.49, -24.50, -19.92, 0.000, 0.000, 0.000, 15:37:22.253
249, -28.97, -22.06, -27.00, -19.94, -18.82, -25.26, -23.85, -20.45, -21.41, -19.56, -22.73, -23.27, -30.78, -23.49, -24.50, -19.92, 0.000, 0.000, 0.000, 15:37:22.253
250, -28.97, -22.06, -27.00, -19.94, -18.82, -25.26, -23.85, -20.45, -21.41, -19.78, -22.71, -23.47, -30.87, -23.65, -24.68, -19.96, 0.000, 0.000, 0.000, 15:37:22.253
251, -28.97, -21.95, -27.07, -19.96, -18.95, -25.21, -23.72, -20.23, -21.41, -19.78, -22.71, -23.47, -30.87, -23.65, -24.68, -19.96, 0.000, 0.000, 0.000, 15:37:22.253
252, -28.97, -21.95, -27.07, -19.96, -18.95, -25.21, -23.72, -20.23, -21.35, -19.80, -22.89, -23.45, -30.85, -23.63, -24.72, -19.87, -0.020, 0.892, -0.278, 15:37:22.253
253, -28.83, -21.90, -27.09, -19.96, -19.02, -25.32, -23.76, -20.50, -21.35, -19.80, -22.89, -23.45, -30.85, -23.63, -24.72, -19.87, 0.000, 0.000, 0.000, 15:37:22.253
254, -28.83, -21.90, -27.09, -19.96, -19.02, -25.32, -23.76, -20.50, -21.41, -19.54, -22.55, -23.36, -30.78, -23.47, -24.52, -19.71, 0.000, 0.000, 0.000, 15:37:22.254
255, -29.01, -21.97, -26.82, -20.03, -18.95, -25.28, -23.72, -20.47, -21.41, -19.54, -22.55, -23.36, -30.78, -23.47, -24.52, -19.71, 0.000, 0.000, 0.000, 15:37:22.254
0, -29.01, -21.97, -26.82, -20.03, -18.95, -25.28, -23.72, -20.47, -21.44, -19.51, -22.96, -23.27, -30.98, -23.49, -24.63, -19.67, 0.000, 0.000, 0.000, 15:37:22.254
1, -28.86, -21.97, -26.78, -20.07, -18.98, -25.21, -23.83, -20.41, -21.44, -19.51, -22.96, -23.27, -30.98, -23.49, -24.63, -19.67, 0.000, 0.000, 0.000, 15:37:22.254
2, -28.86, -21.97, -26.78, -20.07, -18.98, -25.21, -23.83, -20.41, -21.52, -19.51, -22.66, -23.36, -30.80, -23.51, -24.48, -19.67, 0.000, 0.000, 0.000, 15:37:22.254
3, -28.86, -21.82, -27.07, -19.98, -18.71, -25.15, -23.87, -20.30, -21.52, -19.51, -22.66, -23.36, -30.80, -23.51, -24.48, -19.67, 0.000, 0.000, 0.000, 15:37:22.254
4, -28.86, -21.82, -27.07, -19.98, -18.71, -25.15, -23.87, -20.30, -21.35, -19.67, -22.75, -23.31, -30.82, -23.58, -24.68, -20.03, 0.000, 0.000, 0.000, 15:37:22.255
5, -29.06, -21.79, -27.02, -20.03, -18.62, -25.12, -23.80, -20.25, -21.35, -19.67, -22.75, -23.31, -30.82, -23.58, -24.68, -20.03, 0.000, 0.000, 0.000, 15:37:22.255
6, -29.06, -21.79, -27.02, -20.03, -18.62, -25.12, -23.80, -20.25, -21.55, -19.69, -22.75, -23.38, -30.91, -23.58, -24.52, -20.00, -0.016, 0.910, -0.280, 15:37:22.255
7, -28.99, -21.77, -26.98, -20.00, -18.75, -25.41, -23.63, -20.25, -21.55, -19.69, -22.75, -23.38, -30.91, -23.58, -24.52, -20.00, 0.000, 0.000, 0.000, 15:37:22.255
8, -28.99, -21.77, -26.98, -20.00, -18.75, -25.41, -23.63, -20.25, -21.37, -19.49, -22.80, -23.45, -30.80, -23.60, -24.34, -19.85, 0.000, 0.000, 0.000, 15:37:22.255
9, -28.70, -21.93, -27.11, -20.12, -18.93, -25.41, -23.78, -20.38, -21.37, -19.49, -22.80, -23.45, -30.80, -23.60, -24.34, -19.85, 0.000, 0.000, 0.000, 15:37:22.255
10, -28.70, -21.93, -27.11, -20.12, -18.93, -25.41, -23.78, -20.38, -21.48, -19.69, -22.84, -23.20, -30.96, -23.51, -24.50, -19.98, 0.000, 0.000, 0.000, 15:37:22.256
11, -29.10, -21.84, -26.93, -19.83, -19.02, -25.19, -23.83, -20.41, -21.48, -19.69, -22.84, -23.20, -30.96, -23.51, -24.50, -19.98, 0.000, 0.000, 0.000, 15:37:22.256
12, -29.10, -21.84, -26.93, -19.83, -19.02, -25.19, -23.83, -20.41, -21.35, -19.89, -22.82, -23.42, -30.76, -23.60, -24.54, -19.76, 0.000, 0.000, 0.000, 15:37:22.256
13, -28.92, -21.70, -26.82, -20.05, -19.02, -25.30, -23.69, -20.50, -21.35, -19.89, -22.82, -23.42, -30.76, -23.60, -24.54, -19.76, 0.000, 0.000, 0.000, 15:37:22.256
14, -28.92, -21.70, -26.82, -20.05, -19.02, -25.30, -23.69, -20.50, -21.30, -19.65, -22.80, -23.38, -30.82, -23.63, -24.36, -19.87, 0.000, 0.000, 0.000, 15:37:22.256
15, -29.06, -21.77, -26.87, -20.07, -19.00, -25.32, -23.67, -20.52, -21.30, -19.65, -22.80, -23.38, -30.82, -23.63, -24.36, -19.87, 0.000, 0.000, 0.000, 15:37:22.256
16, -29.06, -21.77, -26.87, -20.07, -19.00, -25.32, -23.67, -20.52, -21.30, -19.69, -22.71, -23.02, -30.96, -23.60, -24.68, -20.09, -0.026, 0.938, -0.284, 15:37:22.257
17, -29.12, -22.02, -26.96, -19.78, -18.71, -25.35, -23.63, -20.61, -21.30, -19.69, -22.71, -23.02, -30.96, -23.60, -24.68, -20.09, 0.000, 0.000, 0.000, 15:37:22.257
18, -29.12, -22.02, -26.96, -19.78, -18.71, -25.35, -23.63, -20.61, -21.37, -19.76, -22.58, -23.27, -30.93, -23.51, -24.59, -19.96, 0.000, 0.000, 0.000, 15:37:22.257
19, -28.88, -21.84, -27.02, -19.96, -18.66, -25.30, -23.85, -20.34, -21.37, -19.76, -22.58, -23.27, -30.93, -23.51, -24.59, -19.96, 0.000, 0.000, 0.000, 15:37:22.257
20, -28.88, -21.84, -27.02, -19.96, -18.66, -25.30, -23.85, -20.34, -21.37, -19.67, -22.66, -23.31, -30.85, -23.72, -24.61, -19.94, 0.000, 0.000, 0.000, 15:37:22.257
21, -28.88, -22.11, -27.00, -19.96, -18.86, -25.17, -23.78, -20.61, -21.37, -19.67, -22.66, -23.31, -30.85, -23.72, -24.61, -19.94, 0.000, 0.000, 0.000, 15:37:22.257
22, -28.88, -22.11, -27.00, -19.96, -18.86, -25.17, -23.78, -20.61, -21.14, -19.42, -22.71, -23.38, -31.02, -23.63, -24.52, -20.00, 0.000, 0.000, 0.000, 15:37:22.258
23, -29.03, -21.68, -27.02, -20.03, -18.69, -25.12, -23.96, -20.45, -21.14, -19.42, -22.71, -23.38, -31.02, -23.63, -24.52, -20.00, 0.000, 0.000, 0.000, 15:37:22.258
24, -29.03, -21.68, -27.02, -20.03, -18.69, -25.12, -23.96, -20.45, -21.28, -19.60, -22.73, -23.34, -30.73, -23.63, -24.54, -20.00, 0.000, 0.000, 0.000, 15:37:22.258
25, -29.15, -21.95, -26.98, -19.98, -18.75, -25.30, -23.96, -20.25, -21.28, -19.60, -22.73, -23.34, -30.73, -23.63, -24.54, -20.00, 0.000, 0.000, 0.000, 15:37:22.259
26, -29.15, -21.95, -26.98, -19.98, -18.75, -25.30, -23.96, -20.25, -21.39, -19.58, -22.64, -23.36, -30.85, -23.63, -24.63, -19.60, -0.040, 0.940, -0.284, 15:37:22.259
27, -28.90, -22.13, -27.27, -19.87, -18.86, -25.24, -23.87, -20.41, -21.39, -19.58, -22.64, -23.36, -30.85, -23.63, -24.63, -19.60, 0.000, 0.000, 0.000, 15:37:22.259
28, -28.90, -22.13, -27.27, -19.87, -18.86, -25.24, -23.87, -20.41, -21.41, -19.58, -22.66, -23.31, -30.73, -23.67, -24.54, -19.80, 0.000, 0.000, 0.000, 15:37:22.259
29, -28.83, -22.06, -26.96, -19.87, -18.98, -25.17, -23.92, -20.61, -21.41, -19.58, -22.66, -23.31, -30.73, -23.67, -24.54, -19.80, 0.000, 0.000, 0.000, 15:37:22.260
30, -28.83, -22.06, -26.96, -19.87, -18.98, -25.17, -23.92, -20.61, -21.30, -19.62, -22.78, -23.38, -30.98, -23.49, -24.61, -20.18, 0.000, 0.000, 0.000, 15:37:22.260
31, -28.88, -21.97, -27.00, -19.96, -19.04, -25.26, -23.76, -20.61, -21.30, -19.62, -22.78, -23.38, -30.98, -23.49, -24.61, -20.18, 0.000, 0.000, 0.000, 15:37:22.260
32, -28.88, -21.97, -27.00, -19.96, -19.04, -25.26, -23.76, -20.61, -21.37, -19.74, -22.66, -23.31, -30.76, -23.56, -24.48, -20.00, 0.000, 0.000, 0.000, 15:37:22.260
33, -28.92, -21.93, -27.05, -20.00, -18.84, -25.06, -23.83, -20.32, -21.37, -19.74, -22.66, -23.31, -30.76, -23.56, -24.48, -20.00, 0.000, 0.000, 0.000, 15:37:22.261
34, -28.92, -21.93, -27.05, -20.00, -18.84, -25.06, -23.83, -20.32, -21.32, -19.71, -22.69, -23.31, -31.05, -23.47, -24.52, -19.83, 0.000, 0.000, 0.000, 15:37:22.261
35, -28.81, -21.95, -26.93, -20.07, -18.91, -25.24, -23.78, -20.27, -21.32, -19.71, -22.69, -23.31, -31.05, -23.47, -24.52, -19.83, 0.000, 0.000, 0.000, 15:37:22.261
36, -28.81, -21.95, -26.93, -20.07, -18.91, -25.24, -23.78, -20.27, -21.23, -19.62, -22.78, -23.47, -30.93, -23.54, -24.59, -19.92, -0.042, 0.926, -0.292, 15:37:22.261
37, -28.79, -21.97, -27.20, -20.14, -18.98, -25.37, -23.83, -20.65, -21.23, -19.62, -22.78, -23.47, -30.93, -23.54, -24.59, -19.92, 0.000, 0.000, 0.000, 15:37:22.262
38, -28.79, -21.97, -27.20, -20.14, -18.98, -25.37, -23.83, -20.65, -21.35, -19.67, -22.87, -23.36, -30.76, -23.63, -24.39, -20.16, 0.000, 0.000, 0.000, 15:37:22.262
39, -28.99, -21.68, -27.02, -19.92, -19.00, -25.17, -23.63, -20.45, -21.35, -19.67, -22.87, -23.36, -30.76, -23.63, -24.39, -20.16, 0.000, 0.000, 0.000, 15:37:22.262
40, -28.99, -21.68, -27.02, -19.92, -19.00, -25.17, -23.63, -20.45, -21.35, -19.58, -22.78, -23.25, -30.71, -23.63, -24.61, -20.07, 0.000, 0.000, 0.000, 15:37:22.262
41, -28.81, -21.61, -26.78, -20.03, -19.02, -25.41, -23.89, -20.56, -21.35, -19.58, -22.78, -23.25, -30.71, -23.63, -24.61, -20.07, 0.000, 0.000, 0.000, 15:37:22.262
42, -28.81, -21.61, -26.78, -20.03, -19.02, -25.41, -23.89, -20.56, -21.46, -19.56, -22.69, -23.25, -30.85, -23.49, -24.72, -19.92, 0.000, 0.000, 0.000, 15:37:22.263
43, -28.63, -21.79, -26.91, -20.03, -18.64, -25.26, -23.85, -20.56, -21.46, -19.56, -22.69, -23.25, -30.85, -23.49, -24.72, -19.92, 0.000, 0.000, 0.000, 15:37:22.263
44, -28.63, -21.79, -26.91, -20.03, -18.64, -25.26, -23.85, -20.56, -21.32, -19.51, -22.64, -23.38, -30.96, -23.65, -24.72, -19.89, 0.000, 0.000, 0.000, 15:37:22.263
45, -28.68, -21.88, -27.00, -19.92, -18.98, -25.37, -23.69, -20.27, -21.32, -19.51, -22.64, -23.38, -30.96, -23.65, -24.72, -19.89, -0.062, 0.888, -0.306, 15:37:22.263
46, -28.68, -21.88, -27.00, -19.92, -18.98, -25.37, -23.69, -20.27, -21.26, -19.69, -22.75, -23.22, -30.91, -23.78, -24.36, -19.98, 0.000, 0.000, 0.000, 15:37:22.263
47, -28.81, -21.75, -27.18, -19.89, -18.82, -25.17, -23.67, -20.41, -21.26, -19.69, -22.75, -23.22, -30.91, -23.78, -24.36, -19.98, 0.000, 0.000, 0.000, 15:37:22.263
48, -28.81, -21.75, -27.18, -19.89, -18.82, -25.17, -23.67, -20.41, -21.35, -19.69, -22.71, -23.29, -30.93, -23.54, -24.54, -20.05, 0.000, 0.000, 0.000, 15:37:22.264
49, -29.15, -21.88, -27.14, -19.76, -18.80, -25.21, -23.83, -20.43, -21.35, -19.69, -22.71, -23.29, -30.93, -23.54, -24.54, -20.05, 0.000, 0.000, 0.000, 15:37:22.264
50, -29.15, -21.88, -27.14, -19.76, -18.80, -25.21, -23.83, -20.43, -21.44, -19.54, -22.80, -23.29, -30.76, -23.51, -24.56, -20.00, 0.000, 0.000, 0.000, 15:37:22.264
51, -28.90, -21.90, -27.07, -19.98, -18.89, -25.39, -23.72, -20.36, -21.44, -19.54, -22.80, -23.29, -30.76, -23.51, -24.56, -20.00, 0.000, 0.000, 0.000, 15:37:22.264
52, -28.90, -21.90, -27.07, -19.98, -18.89, -25.39, -23.72, -20.36, -21.32, -19.78, -22.73, -23.42, -30.91, -23.58, -24.50, -20.05, 0.000, 0.000, 0.000, 15:37:22.265
53, -28.63, -21.93, -27.16, -19.98, -18.80, -25.37, -23.89, -20.07, -21.32, -19.78, -22.73, -23.42, -30.91, -23.58, -24.50, -20.05, 0.000, 0.000, 0.000, 15:37:22.265
54, -28.63, -21.93, -27.16, -19.98, -18.80, -25.37, -23.89, -20.07, -21.44, -19.76, -22.82, -23.51, -30.87, -23.58, -24.68, -19.74, 0.000, 0.000, 0.000, 15:37:22.265
55, -28.83, -21.77, -27.22, -19.85, -18.69, -25.10, -23.74, -20.45, -21.44, -19.76, -22.82, -23.51, -30.87, -23.58, -24.68, -19.74, -0.052, 0.924, -0.302, 15:37:22.265
56, -28.83, -21.77, -27.22, -19.85, -18.69, -25.10, -23.74, -20.45, -21.23, -19.58, -22.71, -23.42, -30.71, -23.47, -24.63, -19.85, 0.000, 0.000, 0.000, 15:37:22.266
57, -28.88, -21.86, -26.80, -19.98, -18.84, -25.53, -23.60, -20.47, -21.23, -19.58, -22.71, -23.42, -30.71, -23.47, -24.63, -19.85, 0.000, 0.000, 0.000, 15:37:22.266
58, -28.88, -21.86, -26.80, -19.98, -18.84, -25.53, -23.60, -20.47, -21.39, -19.74, -22.58, -23.34, -30.89, -23.67, -24.79, -20.05, 0.000, 0.000, 0.000, 15:37:22.266
59, -28.88, -21.79, -26.96, -20.14, -18.93, -25.44, -23.76, -20.30, -21.39, -19.74, -22.58, -23.34, -30.89, -23.67, -24.79, -20.05, 0.000, 0.000, 0.000, 15:37:22.266
60, -28.88, -21.79, -26.96, -20.14, -18.93, -25.44, -23.76, -20.30, -21.28, -19.76, -22.82, -23.42, -30.82, -23.63, -24.61, -19.87, 0.000, 0.000, 0.000, 15:37:22.267
61, -28.79, -21.82, -26.87, -19.80, -18.86, -25.24, -23.78, -20.52, -21.28, -19.76, -22.82, -23.42, -30.82, -23.63, -24.61, -19.87, 0.000, 0.000, 0.000, 15:37:22.267
62, -28.79, -21.82, -26.87, -19.80, -18.86, -25.24, -23.78, -20.52, -21.30, -19.74, -22.78, -23.13, -30.85, -23.45, -24.68, -19.87, 0.000, 0.000, 0.000, 15:37:22.267
63, -28.79, -21.82, -26.82, -19.96, -18.86, -25.26, -23.60, -20.38, -21.30, -19.74, -22.78, -23.13, -30.85, -23.45, -24.68, -19.87, 0.000, 0.000, 0.000, 15:37:22.268
64, -28.79, -21.82, -26.82, -19.96, -18.86, -25.26, -23.60, -20.38, -21.30, -19.49, -22.73, -23.38, -30.96, -23.69, -24.50, -19.92, 0.000, 0.000, 0.000, 15:37:22.268
65, -29.08, -21.99, -27.11, -20.16, -18.78, -25.17, -23.58, -20.34, -21.30, -19.49, -22.73, -23.38, -30.96, -23.69, -24.50, -19.92, -0.042, 0.928, -0.298, 15:37:22.268
66, -29.08, -21.99, -27.11, -20.16, -18.78, -25.17, -23.58, -20.34, -21.50, -19.33, -22.84, -23.54, -30.91, -23.87, -24.63, -19.83, 0.000, 0.000, 0.000, 15:37:22.269
67, -28.95, -21.82, -26.91, -20.07, -18.78, -25.12, -23.94, -20.41, -21.50, -19.33, -22.84, -23.54, -30.91, -23.87, -24.63, -19.83, 0.000, 0.000, 0.000, 15:37:22.269
68, -28.95, -21.82, -26.91, -20.07, -18.78, -25.12, -23.94, -20.41, -21.26, -19.89, -22.71, -23.38, -30.76, -23.72, -24.63, -19.92, 0.000, 0.000, 0.000, 15:37:22.269
69, -28.63, -21.82, -27.16, -19.87, -18.93, -25.50, -23.85, -20.30, -21.26, -19.89, -22.71, -23.38, -30.76, -23.72, -24.63, -19.92, 0.000, 0.000, 0.000, 15:37:22.270
70, -28.63, -21.82, -27.16, -19.87, -18.93, -25.50, -23.85, -20.30, -21.32, -19.89, -22.73, -23.13, -30.85, -23.54, -24.52, -19.98, 0.000, 0.000, 0.000, 15:37:22.270
71, -28.97, -21.68, -26.87, -19.78, -19.18, -25.48, -23.78, -20.47, -21.32, -19.89, -22.73, -23.13, -30.85, -23.54, -24.52, -19.98, 0.000, 0.000, 0.000, 15:37:22.270
72, -28.97, -21.68, -26.87, -19.78, -19.18, -25.48, -23.78, -20.47, -21.57, -19.65, -22.80, -23.20, -30.91, -23.47, -24.54, -19.87, 0.000, 0.000, 0.000, 15:37:22.270
73, -28.83, -21.93, -26.98, -19.87, -18.91, -25.35, -23.78, -20.61, -21.57, -19.65, -22.80, -23.20, -30.91, -23.47, -24.54, -19.87, 0.000, 0.000, 0.000, 15:37:22.270
74, -28.83, -21.93, -26.98, -19.87, -18.91, -25.35, -23.78, -20.61, -21.41, -19.62, -22.69, -23.38, -30.96, -23.38, -24.48, -19.98, 0.000, 0.000, 0.000, 15:37:22.271
75, -28.86, -21.90, -26.98, -19.96, -18.84, -25.24, -23.54, -20.56, -21.41, -19.62, -22.69, -23.38, -30.96, -23.38, -24.48, -19.98, -0.022, 0.916, -0.292, 15:37:22.271
76, -28.86, -21.90, -26.98, -19.96, -18.84, -25.24, -23.54, -20.56, -21.30, -19.69, -22.80, -23.49, -30.73, -23.76, -24.56, -19.98, 0.000, 0.000, 0.000, 15:37:22.271
77, -28.95, -21.73, -27.20, -19.83, -18.95, -25.06, -23.72, -20.52, -21.30, -19.69, -22.80, -23.49, -30.73, -23.76, -24.56, -19.98, 0.000, 0.000, 0.000, 15:37:22.271
78, -28.95, -21.73, -27.20, -19.83, -18.95, -25.06, -23.72, -20.52, -21.23, -19.65, -22.91, -23.40, -30.82, -23.72, -24.41, -19.87, 0.000, 0.000, 0.000, 15:37:22.271
79, -28.77, -21.90, -27.14, -19.92, -18.86, -25.35, -23.78, -20.41, -21.23, -19.65, -22.91, -23.40, -30.82, -23.72, -24.41, -19.87, 0.000, 0.000, 0.000, 15:37:22.271
80, -28.77, -21.90, -27.14, -19.92, -18.86, -25.35, -23.78, -20.41, -21.35, -19.65, -22.78, -23.22, -30.89, -23.63, -24.43, -20.03, 0.000, 0.000, 0.000, 15:37:22.272
81, -28.81, -21.95, -27.07, -20.09, -18.98, -25.35, -23.60, -20.47, -21.35, -19.65, -22.78, -23.22, -30.89, -23.63, -24.43, -20.03, 0.000, 0.000, 0.000, 15:37:22.272
82, -28.81, -21.95, -27.07, -20.09, -18.98, -25.35, -23.60, -20.47, -21.46, -19.62, -22.91, -23.18, -31.00, -23.60, -24.43, -19.89, 0.000, 0.000, 0.000, 15:37:22.272
83, -28.83, -21.88, -27.22, -19.89, -18.91, -25.19, -23.60, -20.34, -21.46, -19.62, -22.91, -23.18, -31.00, -23.60, -24.43, -19.89, 0.000, 0.000, 0.000, 15:37:22.272
84, -28.83, -21.88, -27.22, -19.89, -18.91, -25.19, -23.60, -20.34, -21.26, -19.74, -23.00, -23.18, -30.85, -23.54, -24.50, -19.89, 0.000, 0.000, 0.000, 15:37:22.272
85, -28.88, -21.88, -26.98, -19.87, -18.93, -25.28, -23.85, -20.52, -21.26, -19.74, -23.00, -23.18, -30.85, -23.54, -24.50, -19.89, -0.012, 0.920, -0.298, 15:37:22.272
86, -28.88, -21.88, -26.98, -19.87, -18.93, -25.28, -23.85, -20.52, -21.50, -19.60, -22.87, -23.29, -30.82, -23.31, -24.63, -19.89, 0.000, 0.000, 0.000, 15:37:22.273
87, -28.86, -21.86, -26.76, -19.87, -19.13, -25.37, -23.65, -20.52, -21.50, -19.60, -22.87, -23.29, -30.82, -23.31, -24.63, -19.89, 0.000, 0.000, 0.000, 15:37:22.273
88, -28.86, -21.86, -26.76, -19.87, -19.13, -25.37, -23.65, -20.52, -21.35, -19.54, -22.80, -23.38, -30.69, -23.76, -24.43, -20.09, 0.000, 0.000, 0.000, 15:37:22.273
89, -28.95, -21.79, -27.09, -19.98, -18.71, -25.19, -23.69, -20.68, -21.35, -19.54, -22.80, -23.38, -30.69, -23.76, -24.43, -20.09, 0.000, 0.000, 0.000, 15:37:22.273
90, -28.95, -21.79, -27.09, -19.98, -18.71, -25.19, -23.69, -20.68, -21.37, -19.69, -22.87, -23.34, -30.69, -23.58, -24.54, -19.92, 0.000, 0.000, 0.000, 15:37:22.273
91, -28.79, -22.08, -27.18, -20.09, -19.00, -25.35, -23.72, -20.38, -21.37, -19.69, -22.87, -23.34, -30.69, -23.58, -24.54, -19.92, 0.000, 0.000, 0.000, 15:37:22.729
92, -28.79, -22.08, -27.18, -20.09, -19.00, -25.35, -23.72, -20.38, -21.35, -19.76, -22.69, -23.36, -30.80, -23.56, -24.68, -19.78, 0.000, 0.000, 0.000, 15:37:22.729
93, -28.65, -21.93, -27.07, -19.85, -18.78, -25.39, -23.67, -20.61, -21.35, -19.76, -22.69, -23.36, -30.80, -23.56, -24.68, -19.78, 0.000, 0.000, 0.000, 15:37:22.729
94, -28.65, -21.93, -27.07, -19.85, -18.78, -25.39, -23.67, -20.61, -21.50, -19.56, -22.64, -23.18, -30.96, -23.47, -24.68, -19.65, -0.014, 0.946, -0.298, 15:37:22.730
95, -28.95, -21.88, -26.87, -19.89, -18.78, -25.17, -23.69, -20.36, -21.50, -19.56, -22.64, -23.18, -30.96, -23.47, -24.68, -19.65, 0.000, 0.000, 0.000, 15:37:22.730
96, -28.95, -21.88, -26.87, -19.89, -18.78, -25.17, -23.69, -20.36, -21.48, -19.69, -22.82, -23.18, -30.85, -23.49, -24.61, -19.85, 0.000, 0.000, 0.000, 15:37:22.730
97, -28.83, -21.97, -27.05, -20.03, -18.84, -25.08, -23.63, -20.47, -21.48, -19.69, -22.82, -23.18, -30.85, -23.49, -24.61, -19.85, 0.000, 0.000, 0.000, 15:37:22.730
98, -28.83, -21.97, -27.05, -20.03, -18.84, -25.08, -23.63, -20.47, -21.26, -19.71, -22.64, -23.31, -30.69, -23.51, -24.43, -19.96, 0.000, 0.000, 0.000, 15:37:22.730
99, -28.83, -21.88, -27.09, -19.89, -18.95, -25.50, -23.40, -20.56, -21.26, -19.71, -22.64, -23.31, -30.69, -23.51, -24.43, -19.96, 0.000, 0.000, 0.000, 15:37:22.731
100, -28.83, -21.88, -27.09, -19.89, -18.95, -25.50, -23.40, -20.56, -21.26, -19.83, -22.62, -23.40, -30.76, -23.56, -24.39, -19.96, 0.000, 0.000, 0.000, 15:37:22.731
101, -28.97, -22.04, -26.91, -20.03, -18.91, -25.37, -23.78, -20.41, -21.26, -19.83, -22.62, -23.40, -30.76, -23.56, -24.39, -19.96, 0.000, 0.000, 0.000, 15:37:22.731
102, -28.97, -22.04, -26.91, -20.03, -18.91, -25.37, -23.78, -20.41, -21.37, -19.58, -22.73, -23.13, -30.91, -23.76, -24.61, -19.78, 0.000, 0.000, 0.000, 15:37:22.731
103, -29.01, -21.84, -26.89, -20.16, -18.80, -25.10, -23.78, -20.34, -21.37, -19.58, -22.73, -23.13, -30.91, -23.76, -24.61, -19.78, 0.000, 0.000, 0.000, 15:37:22.731
104, -29.01, -21.84, -26.89, -20.16, -18.80, -25.10, -23.78, -20.34, -21.48, -19.60, -22.66, -23.29, -30.87, -23.54, -24.65, -20.14, -0.030, 0.910, -0.306, 15:37:22.731
105, -28.79, -22.02, -27.25, -20.14, -18.71, -25.12, -24.10, -20.27, -21.48, -19.60, -22.66, -23.29, -30.87, -23.54, -24.65, -20.14, 0.000, 0.000, 0.000, 15:37:22.732
106, -28.79, -22.02, -27.25, -20.14, -18.71, -25.12, -24.10, -20.27, -21.37, -19.76, -22.80, -23.02, -30.96, -23.54, -24.48, -19.85, 0.000, 0.000, 0.000, 15:37:22.732
107, -28.79, -22.06, -27.05, -20.03, -18.73, -25.17, -23.69, -20.61, -21.37, -19.76, -22.80, -23.02, -30.96, -23.54, -24.48, -19.85, 0.000, 0.000, 0.000, 15:37:22.732
108, -28.79, -22.06, -27.05, -20.03, -18.73, -25.17, -23.69, -20.61, -21.37, -19.69, -22.71, -23.13, -31.00, -23.51, -24.45, -20.00, 0.000, 0.000, 0.000, 15:37:22.732
109, -29.10, -21.99, -26.91, -19.85, -18.93, -25.24, -23.69, -20.50, -21.37, -19.69, -22.71, -23.13, -31.00, -23.51, -24.45, -20.00, 0.000, 0.000, 0.000, 15:37:22.733
110, -29.10, -21.99, -26.91, -19.85, -18.93, -25.24, -23.69, -20.50, -21.28, -19.58, -22.58, -23.38, -30.69, -23.65, -24.65, -20.05, 0.000, 0.000, 0.000, 15:37:22.733
111, -28.92, -21.97, -26.98, -19.89, -18.95, -25.26, -23.80, -20.52, -21.28, -19.58, -22.58, -23.38, -30.69, -23.65, -24.65, -20.05, 0.000, 0.000, 0.000, 15:37:22.733
112, -28.92, -21.97, -26.98, -19.89, -18.95, -25.26, -23.80, -20.52, -21.23, -19.47, -22.75, -23.54, -30.64, -23.56, -24.65, -20.05, 0.000, 0.000, 0.000, 15:37:22.734
113, -28.95, -21.75, -26.89, -19.85, -18.82, -25.41, -23.65, -20.50, -21.23, -19.47, -22.75, -23.54, -30.64, -23.56, -24.65, -20.05, 0.000, 0.000, 0.000, 15:37:22.734
114, -28.95, -21.75, -26.89, -19.85, -18.82, -25.41, -23.65, -20.50, -21.28, -19.58, -22.69, -23.27, -30.78, -23.74, -24.50, -19.78, -0.018, 0.880, -0.332, 15:37:22.734
115, -28.90, -21.79, -26.89, -20.09, -18.91, -25.44, -23.49, -20.25, -21.28, -19.58, -22.69, -23.27, -30.78, -23.74, -24.50, -19.78, 0.000, 0.000, 0.000, 15:37:22.735
116, -28.90, -21.79, -26.89, -20.09, -18.91, -25.44, -23.49, -20.25, -21.21, -19.49, -22.91, -23.56, -30.91, -23.40, -24.56, -20.07, 0.000, 0.000, 0.000, 15:37:22.735
117, -28.88, -21.75, -27.22, -20.12, -19.09, -25.24, -23.72, -20.30, -21.21, -19.49, -22.91, -23.56, -30.91, -23.40, -24.56, -20.07, 0.000, 0.000, 0.000, 15:37:22.735
118, -28.88, -21.75, -27.22, -20.12, -19.09, -25.24, -23.72, -20.30, -21.26, -19.65, -22.89, -23.22, -30.91, -23.51, -24.63, -19.92, 0.000, 0.000, 0.000, 15:37:22.735
119, -28.92, -22.11, -27.14, -20.00, -19.11, -25.35, -23.69, -20.50, -21.26, -19.65, -22.89, -23.22, -30.91, -23.51, -24.63, -19.92, 0.000, 0.000, 0.000, 15:37:22.735
120, -28.92, -22.11, -27.14, -20.00, -19.11, -25.35, -23.69, -20.50, -21.39, -19.60, -22.69, -23.25, -30.87, -23.63, -24.45, -19.96, 0.000, 0.000, 0.000, 15:37:22.735
121, -28.97, -21.99, -26.96, -20.14, -18.93, -25.12, -23.78, -20.25, -21.39, -19.60, -22.69, -23.25, -30.87, -23.63, -24.45, -19.96, 0.000, 0.000, 0.000, 15:37:22.736
122, -28.97, -21.99, -26.96, -20.14, -18.93, -25.12, -23.78, -20.25, -21.23, -19.76, -22.49, -23.18, -30.91, -23.60, -24.39, -19.85, 0.000, 0.000, 0.000, 15:37:22.736
123, -29.01, -21.84, -27.27, -20.03, -19.00, -25.28, -23.74, -20.38, -21.23, -19.76, -22.49, -23.18, -30.91, -23.60, -24.39, -19.85, 0.000, 0.000, 0.000, 15:37:22.736
124, -29.01, -21.84, -27.27, -20.03, -19.00, -25.28, -23.74, -20.38, -21.35, -19.76, -22.69, -23.16, -30.64, -23.45, -24.41, -19.96, -0.008, 0.874, -0.342, 15:37:22.736
125, -28.90, -21.84, -27.02, -19.94, -19.02, -25.24, -23.83, -20.54, -21.35, -19.76, -22.69, -23.16, -30.64, -23.45, -24.41, -19.96, 0.000, 0.000, 0.000, 15:37:22.736
126, -28.90, -21.84, -27.02, -19.94, -19.02, -25.24, -23.83, -20.54, -21.35, -19.76, -22.89, -23.29, -30.91, -23.27, -24.50, -19.96, 0.000, 0.000, 0.000, 15:37:22.736
127, -28.81, -21.75, -27.11, -19.71, -18.71, -25.17, -23.80, -20.41, -21.35, -19.76, -22.89, -23.29, -30.91, -23.27, -24.50, -19.96, 0.000, 0.000, 0.000, 15:37:22.737
128, -28.81, -21.75, -27.11, -19.71, -18.71, -25.17, -23.80, -20.41, -21.17, -19.65, -22.89, -23.18, -30.85, -23.56, -24.52, -20.09, 0.000, 0.000, 0.000, 15:37:22.737
129, -28.92, -21.93, -27.02, -19.94, -18.86, -25.30, -23.65, -20.38, -21.17, -19.65, -22.89, -23.18, -30.85, -23.56, -24.52, -20.09, 0.000, 0.000, 0.000, 15:37:22.737
130, -28.92, -21.93, -27.02, -19.94, -18.86, -25.30, -23.65, -20.38, -21.39, -19.76, -22.71, -23.29, -30.82, -23.58, -24.34, -20.00, 0.000, 0.000, 0.000, 15:37:22.737
131, -29.03, -21.86, -27.07, -19.94, -18.89, -25.32, -23.63, -20.38, -21.39, -19.76, -22.71, -23.29, -30.82, -23.58, -24.34, -20.00, 0.000, 0.000, 0.000, 15:37:22.737
132, -29.03, -21.86, -27.07, -19.94, -18.89, -25.32, -23.63, -20.38, -21.35, -19.56, -22.84, -23.25, -30.93, -23.58, -24.50, -19.85, 0.000, 0.000, 0.000, 15:37:22.738
133, -28.83, -21.64, -27.11, -19.92, -18.78, -25.28, -23.76, -20.50, -21.35, -19.56, -22.84, -23.25, -30.93, -23.58, -24.50, -19.85, 0.000, 0.000, 0.000, 15:37:22.738
134, -28.83, -21.64, -27.11, -19.92, -18.78, -25.28, -23.76, -20.50, -21.28, -19.67, -22.55, -23.36, -30.82, -23.69, -24.52, -19.76, -0.028, 0.876, -0.364, 15:37:22.738
135, -29.10, -21.95, -26.93, -19.96, -18.78, -25.26, -23.69, -20.47, -21.28, -19.67, -22.55, -23.36, -30.82, -23.69, -24.52, -19.76, 0.000, 0.000, 0.000, 15:37:22.738
136, -29.10, -21.95, -26.93, -19.96, -18.78, -25.26, -23.69, -20.47, -21.21, -19.51, -22.71, -23.31, -30.87, -23.51, -24.52, -19.96, 0.000, 0.000, 0.000, 15:37:22.738
137, -28.95, -21.84, -27.02, -19.94, -18.80, -25.19, -23.80, -20.61, -21.21, -19.51, -22.71, -23.31, -30.87, -23.51, -24.52, -19.96, 0.000, 0.000, 0.000, 15:37:22.738
138, -28.95, -21.84, -27.02, -19.94, -18.80, -25.19, -23.80, -20.61, -21.39, -19.65, -22.82, -23.29, -30.89, -23.60, -24.68, -19.89, 0.000, 0.000, 0.000, 15:37:22.739
139, -28.83, -21.95, -27.11, -19.76, -19.00, -25.21, -23.76, -20.54, -21.39, -19.65, -22.82, -23.29, -30.89, -23.60, -24.68, -19.89, 0.000, 0.000, 0.000, 15:37:22.739
140, -28.83, -21.95, -27.11, -19.76, -19.00, -25.21, -23.76, -20.54, -21.30, -19.60, -22.80, -23.34, -30.82, -23.40, -24.63, -19.89, 0.000, 0.000, 0.000, 15:37:22.739
141, -28.92, -21.99, -26.96, -20.05, -19.04, -25.26, -23.87, -20.52, -21.30, -19.60, -22.80, -23.34, -30.82, -23.40, -24.63, -19.89, 0.000, 0.000, 0.000, 15:37:22.739
142, -28.92, -21.99, -26.96, -20.05, -19.04, -25.26, -23.87, -20.52, -21.28, -19.69, -22.78, -23.27, -30.89, -23.63, -24.52, -20.12, 0.000, 0.000, 0.000, 15:37:22.739
143, -28.54, -21.90, -27.00, -20.12, -18.84, -25.44, -23.89, -20.47, -21.28, -19.69, -22.78, -23.27, -30.89, -23.63, -24.52, -20.12, 0.000, 0.000, 0.000, 15:37:22.740
144, -28.54, -21.90, -27.00, -20.12, -18.84, -25.44, -23.89, -20.47, -21.28, -19.56, -22.84, -23.27, -31.05, -23.36, -24.56, -19.83, -0.032, 0.888, -0.382, 15:37:22.740
145, -28.95, -21.86, -27.02, -19.76, -18.93, -25.15, -23.56, -20.52, -21.28, -19.56, -22.84, -23.27, -31.05, -23.36, -24.56, -19.83, 0.000, 0.000, 0.000, 15:37:22.740
146, -28.95, -21.86, -27.02, -19.76, -18.93, -25.15, -23.56, -20.52, -21.44, -19.74, -22.71, -23.16, -30.85, -23.58, -24.48, -19.89, 0.000, 0.000, 0.000, 15:37:22.740
147, -28.97, -21.73, -26.96, -19.89, -19.04, -25.32, -23.58, -20.50, -21.44, -19.74, -22.71, -23.16, -30.85, -23.58, -24.48, -19.89, 0.000, 0.000, 0.000, 15:37:22.740
148, -28.97, -21.73, -26.96, -19.89, -19.04, -25.32, -23.58, -20.50, -21.57, -19.71, -22.80, -23.25, -30.80, -23.49, -24.48, -19.98, 0.000, 0.000, 0.000, 15:37:22.741
149, -28.72, -21.82, -27.05, -19.87, -18.80, -25.35, -23.56, -20.32, -21.57, -19.71, -22.80, -23.25, -30.80, -23.49, -24.48, -19.98, 0.000, 0.000, 0.000, 15:37:22.741
150, -28.72, -21.82, -27.05, -19.87, -18.80, -25.35, -23.56, -20.32, -21.64, -19.60, -22.75, -23.58, -31.14, -23.54, -24.74, -19.94, 0.000, 0.000, 0.000, 15:37:22.741
151, -28.92, -21.86, -26.98, -20.05, -18.98, -25.37, -23.87, -20.41, -21.64, -19.60, -22.75, -23.58, -31.14, -23.54, -24.74, -19.94, 0.000, 0.000, 0.000, 15:37:22.741
152, -28.92, -21.86, -26.98, -20.05, -18.98, -25.37, -23.87, -20.41, -21.21, -19.62, -22.73, -23.47, -31.05, -23.58, -24.56, -19.92, 0.000, 0.000, 0.000, 15:37:22.742
153, -28.95, -21.90, -27.05, -19.96, -19.16, -25.24, -23.76, -20.45, -21.21, -19.62, -22.73, -23.47, -31.05, -23.58, -24.56, -19.92, -0.038, 0.926, -0.382, 15:37:22.742
154, -28.95, -21.90, -27.05, -19.96, -19.16, -25.24, -23.76, -20.45, -21.28, -19.69, -22.80, -23.42, -30.93, -23.49, -24.61, -19.92, 0.000, 0.000, 0.000, 15:37:22.742
155, -28.70, -21.82, -27.07, -20.05, -18.98, -25.35, -23.92, -20.52, -21.28, -19.69, -22.80, -23.42, -30.93, -23.49, -24.61, -19.92, 0.000, 0.000, 0.000, 15:37:22.742
156, -28.70, -21.82, -27.07, -20.05, -18.98, -25.35, -23.92, -20.52, -21.41, -19.62, -22.66, -23.04, -30.85, -23.47, -24.48, -19.76, 0.000, 0.000, 0.000, 15:37:22.743
157, -28.77, -21.84, -26.87, -20.09, -19.09, -25.46, -23.78, -20.63, -21.41, -19.62, -22.66, -23.04, -30.85, -23.47, -24.48, -19.76, 0.000, 0.000, 0.000, 15:37:22.743
158, -28.77, -21.84, -26.87, -20.09, -19.09, -25.46, -23.78, -20.63, -21.17, -19.74, -22.58, -23.51, -30.87, -23.49, -24.30, -19.83, 0.000, 0.000, 0.000, 15:37:22.743
159, -28.88, -21.97, -27.00, -19.89, -18.91, -25.50, -23.69, -20.16, -21.17, -19.74, -22.58, -23.51, -30.87, -23.49, -24.30, -19.83, 0.000, 0.000, 0.000, 15:37:22.743
160, -28.88, -21.97, -27.00, -19.89, -18.91, -25.50, -23.69, -20.16, -21.41, -19.89, -22.73, -23.13, -30.96, -23.60, -24.56, -19.92, 0.000, 0.000, 0.000, 15:37:22.743
161, -29.01, -21.82, -26.82, -19.92, -18.73, -25.44, -23.60, -20.36, -21.41, -19.89, -22.73, -23.13, -30.96, -23.60, -24.56, -19.92, 0.000, 0.000, 0.000, 15:37:22.743
162, -29.01, -21.82, -26.82, -19.92, -18.73, -25.44, -23.60, -20.36, -21.21, -19.76, -22.73, -23.20, -31.18, -23.58, -24.59, -20.12, 0.000, 0.000, 0.000, 15:37:22.744
163, -28.90, -22.04, -27.00, -19.78, -19.00, -25.12, -23.63, -20.34, -21.21, -19.76, -22.73, -23.20, -31.18, -23.58, -24.59, -20.12, -0.038, 0.930, -0.384, 15:37:22.744
164, -28.90, -22.04, -27.00, -19.78, -19.00, -25.12, -23.63, -20.34, -21.26, -19.69, -22.58, -23.25, -30.85, -23.58, -24.45, -19.87, 0.000, 0.000, 0.000, 15:37:22.744
165, -28.83, -22.13, -27.07, -19.80, -18.89, -25.19, -23.98, -20.45, -21.26, -19.69, -22.58, -23.25, -30.85, -23.58, -24.45, -19.87, 0.000, 0.000, 0.000, 15:37:22.745
166, -28.83, -22.13, -27.07, -19.80, -18.89, -25.19, -23.98, -20.45, -21.35, -19.58, -22.75, -23.25, -30.85, -23.63, -24.63, -19.78, 0.000, 0.000, 0.000, 15:37:22.745
167, -28.65, -21.95, -27.20, -19.80, -18.98, -25.30, -23.87, -20.41, -21.35, -19.58, -22.75, -23.25, -30.85, -23.63, -24.63, -19.78, 0.000, 0.000, 0.000, 15:37:22.745
168, -28.65, -21.95, -27.20, -19.80, -18.98, -25.30, -23.87, -20.41, -21.19, -19.71, -22.80, -23.34, -30.55, -23.56, -24.45, -19.92, 0.000, 0.000, 0.000, 15:37:22.745
169, -28.86, -21.88, -27.00, -19.94, -18.80, -25.21, -23.83, -20.43, -21.19, -19.71, -22.80, -23.34, -30.55, -23.56, -24.45, -19.92, 0.000, 0.000, 0.000, 15:37:22.745
170, -28.86, -21.88, -27.00, -19.94, -18.80, -25.21, -23.83, -20.43, -21.41, -19.60, -22.96, -23.51, -31.07, -23.76, -24.36, -19.87, 0.000, 0.000, 0.000, 15:37:22.746
171, -28.83, -22.06, -27.00, -20.03, -18.82, -25.30, -23.60, -20.32, -21.41, -19.60, -22.96, -23.51, -31.07, -23.76, -24.36, -19.87, 0.000, 0.000, 0.000, 15:37:22.746
172, -28.83, -22.06, -27.00, -20.03, -18.82, -25.30, -23.60, -20.32, -21.26, -19.69, -22.96, -23.38, -30.85, -23.47, -24.25, -19.96, 0.000, 0.000, 0.000, 15:37:22.746
173, -28.90, -21.75, -26.98, -20.07, -18.78, -25.15, -23.58, -20.45, -21.26, -19.69, -22.96, -23.38, -30.85, -23.47, -24.25, -19.96, -0.018, 0.922, -0.380, 15:37:22.746
174, -28.90, -21.75, -26.98, -20.07, -18.78, -25.15, -23.58, -20.45, -21.35, -19.45, -22.64, -23.22, -31.07, -23.58, -24.32, -19.76, 0.000, 0.000, 0.000, 15:37:22.746
175, -28.95, -21.95, -27.09, -20.21, -18.98, -25.37, -23.87, -20.61, -21.35, -19.45, -22.64, -23.22, -31.07, -23.58, -24.32, -19.76, 0.000, 0.000, 0.000, 15:37:22.746
176, -28.95, -21.95, -27.09, -20.21, -18.98, -25.37, -23.87, -20.61, -21.17, -19.67, -23.00, -23.36, -31.02, -23.67, -24.50, -20.09, 0.000, 0.000, 0.000, 15:37:22.747
177, -28.95, -21.73, -27.18, -19.83, -18.95, -25.24, -23.89, -20.34, -21.17, -19.67, -23.00, -23.36, -31.02, -23.67, -24.50, -20.09, 0.000, 0.000, 0.000, 15:37:22.747
178, -28.95, -21.73, -27.18, -19.83, -18.95, -25.24, -23.89, -20.34, -21.26, -19.58, -22.71, -23.16, -30.87, -23.47, -24.34, -19.94, 0.000, 0.000, 0.000, 15:37:22.747
179, -28.92, -21.93, -27.16, -20.09, -18.93, -25.46, -23.67, -20.41, -21.26, -19.58, -22.71, -23.16, -30.87, -23.47, -24.34, -19.94, 0.000, 0.000, 0.000, 15:37:22.747
180, -28.92, -21.93, -27.16, -20.09, -18.93, -25.46, -23.67, -20.41, -21.32, -19.67, -22.62, -23.18, -30.89, -23.72, -24.34, -19.87, 0.000, 0.000, 0.000, 15:37:22.747
181, -28.77, -22.04, -26.98, -20.18, -19.02, -25.30, -23.80, -20.43, -21.32, -19.67, -22.62, -23.18, -30.89, -23.72, -24.34, -19.87, 0.000, 0.000, 0.000, 15:37:22.747
182, -28.77, -22.04, -26.98, -20.18, -19.02, -25.30, -23.80, -20.43, -21.48, -19.69, -22.49, -23.29, -30.98, -23.69, -24.65, -19.94, 0.000, 0.000, 0.000, 15:37:22.748
183, -29.03, -21.95, -26.93, -20.05, -18.86, -25.39, -23.83, -20.47, -21.48, -19.69, -22.49, -23.29, -30.98, -23.69, -24.65, -19.94, -0.024, 0.916, -0.370, 15:37:22.748
184, -29.03, -21.95, -26.93, -20.05, -18.86, -25.39, -23.83, -20.47, -21.17, -19.54, -22.78, -23.45, -30.91, -23.27, -24.50, -19.87, 0.000, 0.000, 0.000, 15:37:22.748
185, -29.03, -21.84, -27.14, -20.00, -19.09, -25.57, -23.92, -20.38, -21.17, -19.54, -22.78, -23.45, -30.91, -23.27, -24.50, -19.87, 0.000, 0.000, 0.000, 15:37:22.748
186, -29.03, -21.84, -27.14, -20.00, -19.09, -25.57, -23.92, -20.38, -21.57, -19.47, -22.82, -23.16, -30.96, -23.60, -24.27, -19.96, 0.000, 0.000, 0.000, 15:37:22.748
187, -28.97, -21.79, -27.11, -19.78, -18.93, -25.46, -23.74, -20.23, -21.57, -19.47, -22.82, -23.16, -30.96, -23.60, -24.27, -19.96, 0.000, 0.000, 0.000, 15:37:22.749
188, -28.97, -21.79, -27.11, -19.78, -18.93, -25.46, -23.74, -20.23, -21.28, -19.71, -22.69, -23.18, -30.78, -23.60, -24.34, -19.76, 0.000, 0.000, 0.000, 15:37:22.749
189, -28.86, -21.95, -26.96, -20.00, -19.04, -25.17, -23.74, -20.18, -21.28, -19.71, -22.69, -23.18, -30.78, -23.60, -24.34, -19.76, 0.000, 0.000, 0.000, 15:37:22.749
190, -28.86, -21.95, -26.96, -20.00, -19.04, -25.17, -23.74, -20.18, -21.26, -19.58, -22.64, -23.22, -30.87, -23.67, -24.43, -19.85, 0.000, 0.000, 0.000, 15:37:22.749
191, -28.86, -22.02, -26.82, -19.98, -19.07, -25.35, -23.78, -20.38, -21.26, -19.58, -22.64, -23.22, -30.87, -23.67, -24.43, -19.85, 0.000, 0.000, 0.000, 15:37:22.750
192, -28.86, -22.02, -26.82, -19.98, -19.07, -25.35, -23.78, -20.38, -21.23, -19.65, -22.60, -23.31, -30.96, -23.74, -24.61, -19.89, 0.000, 0.000, 0.000, 15:37:22.750
193, -28.92, -21.93, -27.16, -20.03, -18.89, -25.46, -23.85, -20.25, -21.23, -19.65, -22.60, -23.31, -30.96, -23.74, -24.61, -19.89, -0.036, 0.930, -0.362, 15:37:22.750
194, -28.92, -21.93, -27.16, -20.03, -18.89, -25.46, -23.85, -20.25, -21.37, -19.69, -22.69, -23.27, -30.82, -23.56, -24.68, -19.98, 0.000, 0.000, 0.000, 15:37:22.751
195, -28.90, -21.70, -27.00, -19.94, -18.86, -24.94, -23.69, -20.52, -21.37, -19.69, -22.69, -23.27, -30.82, -23.56, -24.68, -19.98, 0.000, 0.000, 0.000, 15:37:22.751
196, -28.90, -21.70, -27.00, -19.94, -18.86, -24.94, -23.69, -20.52, -21.37, -19.67, -22.78, -23.25, -30.96, -23.80, -24.59, -19.80, 0.000, 0.000, 0.000, 15:37:22.751
197, -28.83, -22.08, -26.93, -19.92, -18.98, -25.30, -23.94, -20.23, -21.37, -19.67, -22.78, -23.25, -30.96, -23.80, -24.59, -19.80, 0.000, 0.000, 0.000, 15:37:22.751
198, -28.83, -22.08, -26.93, -19.92, -18.98, -25.30, -23.94, -20.23, -21.32, -20.00, -22.80, -23.36, -30.87, -23.49, -24.63, -19.87, 0.000, 0.000, 0.000, 15:37:22.752
199, -28.72, -21.88, -26.98, -19.89, -18.98, -25.41, -23.56, -20.23, -21.32, -20.00, -22.80, -23.36, -30.87, -23.49, -24.63, -19.87, 0.000, 0.000, 0.000, 15:37:22.752
200, -28.72, -21.88, -26.98, -19.89, -18.98, -25.41, -23.56, -20.23, -21.52, -19.67, -22.75, -23.49, -31.00, -23.42, -24.63, -19.94, 0.000, 0.000, 0.000, 15:37:22.752
201, -28.99, -21.86, -26.91, -20.07, -18.98, -25.37, -23.72, -20.34, -21.52, -19.67, -22.75, -23.49, -31.00, -23.42, -24.63, -19.94, 0.000, 0.000, 0.000, 15:37:22.752
202, -28.99, -21.86, -26.91, -20.07, -18.98, -25.37, -23.72, -20.34, -21.46, -19.80, -22.82, -23.20, -31.14, -23.56, -24.61, -19.85, -0.018, 0.906, -0.356, 15:37:22.752
203, -28.95, -21.93, -27.02, -20.00, -18.89, -25.32, -23.69, -20.43, -21.46, -19.80, -22.82, -23.20, -31.14, -23.56, -24.61, -19.85, 0.000, 0.000, 0.000, 15:37:22.752
204, -28.95, -21.93, -27.02, -20.00, -18.89, -25.32, -23.69, -20.43, -21.30, -19.87, -22.78, -23.42, -31.02, -23.58, -24.59, -19.83, 0.000, 0.000, 0.000, 15:37:22.753
205, -28.68, -21.86, -26.96, -20.16, -18.84, -25.46, -23.80, -20.45, -21.30, -19.87, -22.78, -23.42, -31.02, -23.58, -24.59, -19.83, 0.000, 0.000, 0.000, 15:37:22.753
206, -28.68, -21.86, -26.96, -20.16, -18.84, -25.46, -23.80, -20.45, -21.50, -19.71, -22.62, -23.34, -31.18, -23.80, -24.50, -19.94, 0.000, 0.000, 0.000, 15:37:22.753
207, -28.79, -21.75, -27.05, -20.03, -18.98, -25.37, -23.74, -20.52, -21.50, -19.71, -22.62, -23.34, -31.18, -23.80, -24.50, -19.94, 0.000, 0.000, 0.000, 15:37:22.753
208, -28.79, -21.75, -27.05, -20.03, -18.98, -25.37, -23.74, -20.52, -21.30, -19.60, -22.62, -23.34, -30.87, -23.47, -24.43, -19.78, 0.000, 0.000, 0.000, 15:37:22.753
209, -29.01, -21.93, -27.16, -20.05, -18.80, -25.21, -23.87, -20.16, -21.30, -19.60, -22.62, -23.34, -30.87, -23.47, -24.43, -19.78, 0.000, 0.000, 0.000, 15:37:22.753
210, -29.01, -21.93, -27.16, -20.05, -18.80, -25.21, -23.87, -20.16, -21.48, -19.71, -22.96, -23.18, -30.80, -23.65, -24.59, -19.69, 0.000, 0.000, 0.000, 15:37:22.754
211, -29.01, -21.75, -26.84, -20.03, -19.02, -25.39, -23.72, -20.32, -21.48, -19.71, -22.96, -23.18, -30.80, -23.65, -24.59, -19.69, 0.000, 0.000, 0.000, 15:37:23.208
212, -29.01, -21.75, -26.84, -20.03, -19.02, -25.39, -23.72, -20.32, -21.30, -19.49, -22.71, -23.27, -30.93, -23.49, -24.59, -19.98, -0.010, 0.882, -0.350, 15:37:23.209
213, -28.79, -21.95, -27.09, -19.98, -18.93, -25.39, -23.65, -20.54, -21.30, -19.49, -22.71, -23.27, -30.93, -23.49, -24.59, -19.98, 0.000, 0.000, 0.000, 15:37:23.209
214, -28.79, -21.95, -27.09, -19.98, -18.93, -25.39, -23.65, -20.54, -21.26, -19.83, -22.82, -23.29, -30.78, -23.47, -24.41, -19.94, 0.000, 0.000, 0.000, 15:37:23.209
215, -28.83, -21.97, -27.16, -19.98, -19.02, -25.03, -23.65, -20.43, -21.26, -19.83, -22.82, -23.29, -30.78, -23.47, -24.41, -19.94, 0.000, 0.000, 0.000, 15:37:23.209
216, -28.83, -21.97, -27.16, -19.98, -19.02, -25.03, -23.65, -20.43, -21.23, -19.58, -22.71, -23.34, -30.96, -23.49, -24.61, -19.92, 0.000, 0.000, 0.000, 15:37:23.209
217, -28.92, -21.82, -27.02, -19.96, -19.00, -25.26, -23.60, -20.65, -21.23, -19.58, -22.71, -23.34, -30.96, -23.49, -24.61, -19.92, 0.000, 0.000, 0.000, 15:37:23.209
218, -28.92, -21.82, -27.02, -19.96, -19.00, -25.26, -23.60, -20.65, -21.14, -19.49, -22.75, -23.38, -30.85, -23.74, -24.59, -19.89, 0.000, 0.000, 0.000, 15:37:23.210
219, -28.81, -21.79, -27.05, -20.00, -19.00, -25.39, -23.92, -20.45, -21.14, -19.49, -22.75, -23.38, -30.85, -23.74, -24.59, -19.89, 0.000, 0.000, 0.000, 15:37:23.210
220, -28.81, -21.79, -27.05, -20.00, -19.00, -25.39, -23.92, -20.45, -21.39, -19.69, -22.66, -23.36, -30.98, -23.45, -24.36, -20.00, 0.000, 0.000, 0.000, 15:37:23.210
221, -28.79, -21.95, -27.16, -19.94, -19.18, -25.37, -23.87, -20.21, -21.39, -19.69, -22.66, -23.36, -30.98, -23.45, -24.36, -20.00, 0.000, 0.000, 0.000, 15:37:23.210
222, -28.79, -21.95, -27.16, -19.94, -19.18, -25.37, -23.87, -20.21, -21.28, -19.87, -22.75, -23.29, -30.85, -23.38, -24.56, -19.85, -0.028, 0.898, -0.342, 15:37:23.210
223, -29.01, -22.06, -27.07, -19.98, -18.93, -25.46, -23.80, -20.81, -21.28, -19.87, -22.75, -23.29, -30.85, -23.38, -24.56, -19.85, 0.000, 0.000, 0.000, 15:37:23.211
224, -29.01, -22.06, -27.07, -19.98, -18.93, -25.46, -23.80, -20.81, -21.41, -19.76, -22.69, -23.47, -30.98, -23.47, -24.41, -19.94, 0.000, 0.000, 0.000, 15:37:23.211
225, -28.99, -21.88, -26.93, -19.89, -18.69, -25.30, -23.74, -20.47, -21.41, -19.76, -22.69, -23.47, -30.98, -23.47, -24.41, -19.94, 0.000, 0.000, 0.000, 15:37:23.211
226, -28.99, -21.88, -26.93, -19.89, -18.69, -25.30, -23.74, -20.47, -21.57, -19.74, -22.87, -23.27, -30.91, -23.58, -24.65, -19.78, 0.000, 0.000, 0.000, 15:37:23.211
227, -28.79, -21.99, -27.20, -19.56, -18.71, -25.28, -23.83, -20.41, -21.57, -19.74, -22.87, -23.27, -30.91, -23.58, -24.65, -19.78, 0.000, 0.000, 0.000, 15:37:23.211
228, -28.79, -21.99, -27.20, -19.56, -18.71, -25.28, -23.83, -20.41, -21.57, -19.78, -23.07, -23.25, -30.87, -23.67, -24.63, -19.85, 0.000, 0.000, 0.000, 15:37:23.212
229, -28.86, -22.02, -27.07, -20.05, -18.91, -25.30, -23.74, -20.76, -21.57, -19.78, -23.07, -23.25, -30.87, -23.67, -24.63, -19.85, 0.000, 0.000, 0.000, 15:37:23.212
230, -28.86, -22.02, -27.07, -20.05, -18.91, -25.30, -23.74, -20.76, -21.41, -19.69, -22.71, -23.29, -30.85, -23.63, -24.45, -19.74, 0.000, 0.000, 0.000, 15:37:23.212
231, -29.10, -21.68, -27.05, -19.94, -19.04, -25.30, -23.96, -20.59, -21.41, -19.69, -22.71, -23.29, -30.85, -23.63, -24.45, -19.74, 0.000, 0.000, 0.000, 15:37:23.212
232, -29.10, -21.68, -27.05, -19.94, -19.04, -25.30, -23.96, -20.59, -21.44, -19.71, -22.69, -23.25, -31.00, -23.34, -24.52, -19.92, -0.064, 0.924, -0.344, 15:37:23.212
233, -28.92, -21.88, -27.11, -20.07, -18.93, -25.41, -23.74, -20.21, -21.44, -19.71, -22.69, -23.25, -31.00, -23.34, -24.52, -19.92, 0.000, 0.000, 0.000, 15:37:23.212
234, -28.92, -21.88, -27.11, -20.07, -18.93, -25.41, -23.74, -20.21, -21.39, -19.85, -22.78, -23.16, -31.05, -23.47, -24.30, -19.83, 0.000, 0.000, 0.000, 15:37:23.213
235, -28.74, -21.95, -27.14, -20.18, -18.84, -25.26, -23.56, -20.43, -21.39, -19.85, -22.78, -23.16, -31.05, -23.47, -24.30, -19.83, 0.000, 0.000, 0.000, 15:37:23.213
236, -28.74, -21.95, -27.14, -20.18, -18.84, -25.26, -23.56, -20.43, -21.37, -19.76, -22.66, -23.20, -30.89, -23.58, -24.56, -19.89, 0.000, 0.000, 0.000, 15:37:23.213
237, -29.06, -21.90, -27.00, -20.03, -18.95, -25.24, -23.63, -20.21, -21.37, -19.76, -22.66, -23.20, -30.89, -23.58, -24.56, -19.89, 0.000, 0.000, 0.000, 15:37:23.213
238, -29.06, -21.90, -27.00, -20.03, -18.95, -25.24, -23.63, -20.21, -21.44, -19.78, -22.93, -23.47, -30.76, -23.54, -24.65, -20.05, 0.000, 0.000, 0.000, 15:37:23.213
239, -28.88, -21.86, -27.09, -20.07, -19.24, -25.41, -23.69, -20.43, -21.44, -19.78, -22.93, -23.47, -30.76, -23.54, -24.65, -20.05, 0.000, 0.000, 0.000, 15:37:23.213
240, -28.88, -21.86, -27.09, -20.07, -19.24, -25.41, -23.69, -20.43, -21.44, -19.67, -22.62, -23.25, -30.58, -23.67, -24.43, -20.14, 0.000, 0.000, 0.000, 15:37:23.214
241, -28.81, -21.79, -26.98, -20.03, -18.82, -25.26, -23.60, -20.38, -21.44, -19.67, -22.62, -23.25, -30.58, -23.67, -24.43, -20.14, 0.000, 0.000, 0.000, 15:37:23.214
242, -28.81, -21.79, -26.98, -20.03, -18.82, -25.26, -23.60, -20.38, -21.32, -19.78, -22.91, -23.13, -31.16, -23.49, -24.74, -20.09, -0.058, 0.920, -0.338, 15:37:23.214
243, -28.88, -21.82, -27.07, -20.07, -19.04, -25.19, -23.74, -20.41, -21.32, -19.78, -22.91, -23.13, -31.16, -23.49, -24.74, -20.09, 0.000, 0.000, 0.000, 15:37:23.214
244, -28.88, -21.82, -27.07, -20.07, -19.04, -25.19, -23.74, -20.41, -21.41, -19.60, -22.66, -23.20, -31.07, -23.60, -24.61, -20.09, 0.000, 0.000, 0.000, 15:37:23.214
245, -29.01, -21.90, -27.00, -20.12, -18.91, -25.26, -24.03, -20.30, -21.41, -19.60, -22.66, -23.20, -31.07, -23.60, -24.61, -20.09, 0.000, 0.000, 0.000, 15:37:23.214
246, -29.01, -21.90, -27.00, -20.12, -18.91, -25.26, -24.03, -20.30, -21.35, -19.74, -22.82, -23.34, -30.89, -23.76, -24.52, -20.03, 0.000, 0.000, 0.000, 15:37:23.215
247, -28.79, -21.93, -27.16, -20.12, -18.84, -25.21, -23.76, -20.45, -21.35, -19.74, -22.82, -23.34, -30.89, -23.76, -24.52, -20.03, 0.000, 0.000, 0.000, 15:37:23.215
248, -28.79, -21.93, -27.16, -20.12, -18.84, -25.21, -23.76, -20.45, -21.48, -19.65, -22.66, -23.49, -30.98, -23.69, -24.56, -19.85, 0.000, 0.000, 0.000, 15:37:23.215
249, -28.77, -21.75, -26.89, -19.96, -18.75, -25.37, -23.96, -20.52, -21.48, -19.65, -22.66, -23.49, -30.98, -23.69, -24.56, -19.85, 0.000, 0.000, 0.000, 15:37:23.215
250, -28.77, -21.75, -26.89, -19.96, -18.75, -25.37, -23.96, -20.52, -21.37, -19.62, -22.66, -23.36, -30.62, -23.51, -24.32, -19.76, 0.000, 0.000, 0.000, 15:37:23.215
251, -28.83, -21.66, -27.05, -20.14, -19.02, -25.37, -23.94, -20.38, -21.37, -19.62, -22.66, -23.36, -30.62, -23.51, -24.32, -19.76, 0.000, 0.000, 0.000, 15:37:23.216
252, -28.83, -21.66, -27.05, -20.14, -19.02, -25.37, -23.94, -20.38, -21.30, -19.80, -22.84, -23.45, -30.85, -23.63, -24.52, -19.96, -0.060, 0.904, -0.346, 15:37:23.216
253, -28.81, -21.99, -26.98, -19.78, -18.82, -25.28, -23.98, -20.38, -21.30, -19.80, -22.84, -23.45, -30.85, -23.63, -24.52, -19.96, 0.000, 0.000, 0.000, 15:37:23.216
254, -28.81, -21.99, -26.98, -19.78, -18.82, -25.28, -23.98, -20.38, -21.30, -19.71, -22.73, -23.47, -31.05, -23.49, -24.61, -19.89, 0.000, 0.000, 0.000, 15:37:23.216
255, -28.72, -21.82, -27.00, -20.16, -19.04, -25.19, -23.80, -20.36, -21.30, -19.71, -22.73, -23.47, -31.05, -23.49, -24.61, -19.89, 0.000, 0.000, 0.000, 15:37:23.216
0, -28.72, -21.82, -27.00, -20.16, -19.04, -25.19, -23.80, -20.36, -21.30, -19.62, -22.93, -23.22, -30.87, -23.56, -24.52, -19.62, 0.000, 0.000, 0.000, 15:37:23.217
1, -28.90, -21.90, -26.96, -20.05, -19.07, -25.30, -23.85, -20.56, -21.30, -19.62, -22.93, -23.22, -30.87, -23.56, -24.52, -19.62, 0.000, 0.000, 0.000, 15:37:23.217
2, -28.90, -21.90, -26.96, -20.05, -19.07, -25.30, -23.85, -20.56, -21.32, -19.60, -22.93, -23.40, -30.89, -23.60, -24.74, -19.85, 0.000, 0.000, 0.000, 15:37:23.217
3, -28.92, -21.90, -27.11, -19.83, -18.93, -25.37, -23.83, -20.56, -21.32, -19.60, -22.93, -23.40, -30.89, -23.60, -24.74, -19.85, 0.000, 0.000, 0.000, 15:37:23.218
4, -28.92, -21.90, -27.11, -19.83, -18.93, -25.37, -23.83, -20.56, -21.30, -19.76, -22.66, -23.16, -30.87, -23.60, -24.59, -19.83, 0.000, 0.000, 0.000, 15:37:23.218
5, -28.74, -21.97, -26.96, -20.09, -18.98, -25.48, -24.05, -20.65, -21.30, -19.76, -22.66, -23.16, -30.87, -23.60, -24.59, -19.83, -0.046, 0.884, -0.346, 15:37:23.218
6, -28.74, -21.97, -26.96, -20.09, -18.98, -25.48, -24.05, -20.65, -21.37, -19.71, -22.66, -23.38, -31.07, -23.58, -24.50, -19.96, 0.000, 0.000, 0.000, 15:37:23.218
7, -28.92, -21.90, -27.20, -19.89, -19.00, -25.26, -23.76, -20.32, -21.37, -19.71, -22.66, -23.38, -31.07, -23.58, -24.50, -19.96, 0.000, 0.000, 0.000, 15:37:23.218
8, -28.92, -21.90, -27.20, -19.89, -19.00, -25.26, -23.76, -20.32, -21.23, -19.69, -22.64, -23.29, -30.82, -23.49, -24.27, -19.78, 0.000, 0.000, 0.000, 15:37:23.219
9, -28.97, -21.64, -27.07, -19.94, -18.91, -25.26, -23.87, -20.52, -21.23, -19.69, -22.64, -23.29, -30.82, -23.49, -24.27, -19.78, 0.000, 0.000, 0.000, 15:37:23.219
10, -28.97, -21.64, -27.07, -19.94, -18.91, -25.26, -23.87, -20.52, -21.39, -19.67, -22.73, -23.27, -30.91, -23.49, -24.59, -19.94, 0.000, 0.000, 0.000, 15:37:23.219
11, -28.90, -21.55, -27.09, -20.03, -18.91, -25.12, -23.76, -20.32, -21.39, -19.67, -22.73, -23.27, -30.91, -23.49, -24.59, -19.94, 0.000, 0.000, 0.000, 15:37:23.219
12, -28.90, -21.55, -27.09, -20.03, -18.91, -25.12, -23.76, -20.32, -21.48, -19.62, -23.00, -23.45, -30.98, -23.60, -24.68, -19.87, 0.000, 0.000, 0.000, 15:37:23.219
13, -28.97, -21.79, -27.29, -19.89, -18.93, -25.24, -23.76, -20.43, -21.48, -19.62, -23.00, -23.45, -30.98, -23.60, -24.68, -19.87, 0.000, 0.000, 0.000, 15:37:23.220
14, -28.97, -21.79, -27.29, -19.89, -18.93, -25.24, -23.76, -20.43, -21.28, -19.62, -22.84, -23.25, -30.98, -23.45, -24.39, -20.03, 0.000, 0.000, 0.000, 15:37:23.220
15, -28.97, -21.88, -27.38, -19.96, -18.82, -25.37, -23.83, -20.38, -21.28, -19.62, -22.84, -23.25, -30.98, -23.45, -24.39, -20.03, -0.056, 0.882, -0.352, 15:37:23.220
16, -28.97, -21.88, -27.38, -19.96, -18.82, -25.37, -23.83, -20.38, -21.35, -19.65, -22.78, -23.34, -30.82, -23.45, -24.54, -20.00, 0.000, 0.000, 0.000, 15:37:23.220
17, -28.77, -22.11, -27.05, -20.00, -18.80, -25.48, -23.63, -20.25, -21.35, -19.65, -22.78, -23.34, -30.82, -23.45, -24.54, -20.00, 0.000, 0.000, 0.000, 15:37:23.220
18, -28.77, -22.11, -27.05, -20.00, -18.80, -25.48, -23.63, -20.25, -21.48, -19.56, -22.58, -23.25, -30.76, -23.63, -24.61, -19.89, 0.000, 0.000, 0.000, 15:37:23.220
19, -28.79, -21.99, -27.09, -20.03, -18.98, -25.35, -23.78, -20.34, -21.48, -19.56, -22.58, -23.25, -30.76, -23.63, -24.61, -19.89, 0.000, 0.000, 0.000, 15:37:23.221
20, -28.79, -21.99, -27.09, -20.03, -18.98, -25.35, -23.78, -20.34, -21.17, -19.65, -22.82, -23.31, -30.78, -23.49, -24.36, -20.03, 0.000, 0.000, 0.000, 15:37:23.221
21, -28.99, -22.02, -27.16, -19.89, -19.11, -25.26, -23.87, -20.50, -21.17, -19.65, -22.82, -23.31, -30.78, -23.49, -24.36, -20.03, 0.000, 0.000, 0.000, 15:37:23.221
22, -28.99, -22.02, -27.16, -19.89, -19.11, -25.26, -23.87, -20.50, -21.23, -19.92, -22.91, -23.25, -30.69, -23.56, -24.59, -19.89, 0.000, 0.000, 0.000, 15:37:23.221
23, -28.90, -21.97, -26.78, -20.12, -19.00, -25.26, -23.76, -20.72, -21.23, -19.92, -22.91, -23.25, -30.69, -23.56, -24.59, -19.89, 0.000, 0.000, 0.000, 15:37:23.221
24, -28.90, -21.97, -26.78, -20.12, -19.00, -25.26, -23.76, -20.72, -21.32, -19.56, -22.84, -23.25, -30.67, -23.78, -24.65, -19.94, 0.000, 0.000, 0.000, 15:37:23.222
25, -29.12, -21.77, -26.98, -20.00, -18.82, -25.28, -23.67, -20.47, -21.32, -19.56, -22.84, -23.25, -30.67, -23.78, -24.65, -19.94, -0.040, 0.904, -0.336, 15:37:23.222
26, -29.12, -21.77, -26.98, -20.00, -18.82, -25.28, -23.67, -20.47, -21.50, -19.76, -22.69, -23.09, -30.73, -23.42, -24.52, -19.69, 0.000, 0.000, 0.000, 15:37:23.222
27, -29.10, -21.88, -27.11, -19.96, -18.98, -25.12, -23.89, -20.41, -21.50, -19.76, -22.69, -23.09, -30.73, -23.42, -24.52, -19.69, 0.000, 0.000, 0.000, 15:37:23.222
28, -29.10, -21.88, -27.11, -19.96, -18.98, -25.12, -23.89, -20.41, -21.32, -19.54, -23.07, -23.25, -31.05, -23.29, -24.56, -19.92, 0.000, 0.000, 0.000, 15:37:23.222
29, -28.88, -21.75, -27.02, -20.00, -18.80, -25.37, -23.83, -20.43, -21.32, -19.54, -23.07, -23.25, -31.05, -23.29, -24.56, -19.92, 0.000, 0.000, 0.000, 15:37:23.223
30, -28.88, -21.75, -27.02, -20.00, -18.80, -25.37, -23.83, -20.43, -21.44, -19.27, -22.93, -23.20, -30.85, -23.56, -24.36, -19.89, 0.000, 0.000, 0.000, 15:37:23.223
31, -28.92, -21.86, -27.11, -19.96, -18.93, -25.12, -23.94, -20.36, -21.44, -19.27, -22.93, -23.20, -30.85, -23.56, -24.36, -19.89, 0.000, 0.000, 0.000, 15:37:23.223
32, -28.92, -21.86, -27.11, -19.96, -18.93, -25.12, -23.94, -20.36, -21.41, -19.62, -22.73, -23.25, -31.16, -23.54, -24.45, -19.78, 0.000, 0.000, 0.000, 15:37:23.223
33, -29.08, -21.70, -26.89, -20.14, -18.73, -25.21, -23.89, -20.43, -21.41, -19.62, -22.73, -23.25, -31.16, -23.54, -24.45, -19.78, 0.000, 0.000, 0.000, 15:37:23.223
34, -29.08, -21.70, -26.89, -20.14, -18.73, -25.21, -23.89, -20.43, -21.39, -19.69, -23.04, -23.29, -31.00, -23.60, -24.50, -19.67, 0.000, 0.000, 0.000, 15:37:23.223
35, -28.97, -21.99, -27.22, -19.96, -18.93, -25.19, -23.92, -20.45, -21.39, -19.69, -23.04, -23.29, -31.00, -23.60, -24.50, -19.67, -0.038, 0.934, -0.324, 15:37:23.224
36, -28.97, -21.99, -27.22, -19.96, -18.93, -25.19, -23.92, -20.45, -21.32, -19.58, -22.82, -23.42, -31.23, -23.45, -24.63, -19.94, 0.000, 0.000, 0.000, 15:37:23.224
37, -29.15, -21.93, -26.96, -20.05, -19.07, -25.21, -23.76, -20.30, -21.32, -19.58, -22.82, -23.42, -31.23, -23.45, -24.63, -19.94, 0.000, 0.000, 0.000, 15:37:23.224
38, -29.15, -21.93, -26.96, -20.05, -19.07, -25.21, -23.76, -20.30, -21.35, -19.60, -22.82, -23.47, -30.85, -23.42, -24.70, -19.92, 0.000, 0.000, 0.000, 15:37:23.224
39, -28.92, -22.02, -26.82, -20.09, -18.64, -25.15, -23.63, -20.38, -21.35, -19.60, -22.82, -23.47, -30.85, -23.42, -24.70, -19.92, 0.000, 0.000, 0.000, 15:37:23.224
40, -28.92, -22.02, -26.82, -20.09, -18.64, -25.15, -23.63, -20.38, -21.46, -19.71, -22.84, -23.25, -31.07, -23.40, -24.54, -19.96, 0.000, 0.000, 0.000, 15:37:23.225
41, -28.95, -21.88, -26.84, -19.98, -18.82, -25.21, -23.94, -20.52, -21.46, -19.71, -22.84, -23.25, -31.07, -23.40, -24.54, -19.96, 0.000, 0.000, 0.000, 15:37:23.225
42, -28.95, -21.88, -26.84, -19.98, -18.82, -25.21, -23.94, -20.52, -21.32, -19.54, -22.96, -23.16, -30.98, -23.49, -24.48, -19.94, 0.000, 0.000, 0.000, 15:37:23.225
43, -28.63, -21.88, -27.00, -19.98, -18.80, -25.26, -23.76, -20.34, -21.32, -19.54, -22.96, -23.16, -30.98, -23.49, -24.48, -19.94, 0.000, 0.000, 0.000, 15:37:23.225
44, -28.63, -21.88, -27.00, -19.98, -18.80, -25.26, -23.76, -20.34, -21.23, -19.62, -22.49, -23.16, -30.82, -23.36, -24.14, -19.78, 0.000, 0.000, 0.000, 15:37:23.226
45, -28.90, -21.70, -26.96, -19.98, -18.71, -25.24, -23.67, -20.41, -21.23, -19.62, -22.49, -23.16, -30.82, -23.36, -24.14, -19.78, -0.068, 0.906, -0.336, 15:37:23.226
46, -28.90, -21.70, -26.96, -19.98, -18.71, -25.24, -23.67, -20.41, -21.41, -19.67, -22.82, -23.22, -30.96, -23.63, -24.45, -19.65, 0.000, 0.000, 0.000, 15:37:23.226
47, -28.92, -21.86, -27.11, -19.94, -18.84, -25.30, -23.76, -20.45, -21.41, -19.67, -22.82, -23.22, -30.96, -23.63, -24.45, -19.65, 0.000, 0.000, 0.000, 15:37:23.226
48, -28.92, -21.86, -27.11, -19.94, -18.84, -25.30, -23.76, -20.45, -21.46, -19.54, -22.55, -23.40, -30.93, -23.56, -24.59, -19.83, 0.000, 0.000, 0.000, 15:37:23.226
49, -28.92, -21.68, -27.31, -19.96, -18.82, -25.21, -23.58, -20.27, -21.46, -19.54, -22.55, -23.40, -30.93, -23.56, -24.59, -19.83, 0.000, 0.000, 0.000, 15:37:23.226
50, -28.92, -21.68, -27.31, -19.96, -18.82, -25.21, -23.58, -20.27, -21.37, -19.65, -22.60, -23.20, -30.96, -23.69, -24.54, -19.98, 0.000, 0.000, 0.000, 15:37:23.227
51, -29.01, -21.59, -27.07, -19.74, -18.75, -25.26, -23.65, -20.38, -21.37, -19.65, -22.60, -23.20, -30.96, -23.69, -24.54, -19.98, 0.000, 0.000, 0.000, 15:37:23.227
52, -29.01, -21.59, -27.07, -19.74, -18.75, -25.26, -23.65, -20.38, -21.35, -19.67, -22.71, -23.04, -31.11, -23.47, -24.56, -19.87, 0.000, 0.000, 0.000, 15:37:23.227
53, -28.99, -21.75, -26.98, -19.83, -19.09, -25.19, -23.63, -20.38, -21.35, -19.67, -22.71, -23.04, -31.11, -23.47, -24.56, -19.87, 0.000, 0.000, 0.000, 15:37:23.227
54, -28.99, -21.75, -26.98, -19.83, -19.09, -25.19, -23.63, -20.38, -21.32, -19.58, -22.66, -23.20, -30.96, -23.54, -24.48, -20.09, -0.036, 0.898, -0.326, 15:37:23.228
55, -28.97, -21.73, -27.09, -19.89, -19.04, -25.30, -23.83, -20.14, -21.32, -19.58, -22.66, -23.20, -30.96, -23.54, -24.48, -20.09, 0.000, 0.000, 0.000, 15:37:23.228
56, -28.97, -21.73, -27.09, -19.89, -19.04, -25.30, -23.83, -20.14, -21.48, -19.65, -22.71, -23.16, -31.05, -23.38, -24.56, -19.89, 0.000, 0.000, 0.000, 15:37:23.228
57, -28.61, -21.79, -27.18, -19.92, -19.02, -25.32, -23.87, -20.50, -21.48, -19.65, -22.71, -23.16, -31.05, -23.38, -24.56, -19.89, 0.000, 0.000, 0.000, 15:37:23.228
58, -28.61, -21.79, -27.18, -19.92, -19.02, -25.32, -23.87, -20.50, -21.35, -19.47, -22.73, -23.27, -30.98, -23.67, -24.48, -19.98, 0.000, 0.000, 0.000, 15:37:23.228
59, -28.74, -21.95, -27.11, -19.94, -18.82, -25.32, -24.05, -20.38, -21.35, -19.47, -22.73, -23.27, -30.98, -23.67, -24.48, -19.98, 0.000, 0.000, 0.000, 15:37:23.228
60, -28.74, -21.95, -27.11, -19.94, -18.82, -25.32, -24.05, -20.38, -21.37, -19.69, -22.80, -23.34, -30.80, -23.58, -24.65, -20.14, 0.000, 0.000, 0.000, 15:37:23.229
61, -28.88, -21.75, -26.80, -19.87, -19.02, -25.37, -23.72, -20.38, -21.37, -19.69, -22.80, -23.34, -30.80, -23.58, -24.65, -20.14, 0.000, 0.000, 0.000, 15:37:23.229
62, -28.88, -21.75, -26.80, -19.87, -19.02, -25.37, -23.72, -20.38, -21.30, -19.54, -22.73, -23.47, -30.96, -23.60, -24.74, -20.03, 0.000, 0.000, 0.000, 15:37:23.229
63, -29.03, -21.84, -26.98, -19.94, -19.04, -25.17, -23.69, -20.36, -21.30, -19.54, -22.73, -23.47, -30.96, -23.60, -24.74, -20.03, 0.000, 0.000, 0.000, 15:37:23.229
64, -29.03, -21.84, -26.98, -19.94, -19.04, -25.17, -23.69, -20.36, -21.26, -19.45, -22.78, -23.36, -30.78, -23.65, -24.56, -19.96, -0.048, 0.898, -0.328, 15:37:23.229
65, -28.86, -21.90, -27.07, -20.00, -18.86, -25.21, -23.72, -20.45, -21.26, -19.45, -22.78, -23.36, -30.78, -23.65, -24.56, -19.96, 0.000, 0.000, 0.000, 15:37:23.229
66, -28.86, -21.90, -27.07, -20.00, -18.86, -25.21, -23.72, -20.45, -21.26, -19.56, -23.02, -23.20, -30.78, -23.65, -24.59, -19.80, 0.000, 0.000, 0.000, 15:37:23.230
67, -28.99, -21.79, -27.02, -20.03, -19.04, -25.03, -23.94, -20.41, -21.26, -19.56, -23.02, -23.20, -30.78, -23.65, -24.59, -19.80, 0.000, 0.000, 0.000, 15:37:23.230
68, -28.99, -21.79, -27.02, -20.03, -19.04, -25.03, -23.94, -20.41, -21.35, -19.78, -22.84, -23.20, -30.87, -23.67, -24.56, -19.92, 0.000, 0.000, 0.000, 15:37:23.230
69, -28.79, -21.99, -27.14, -19.98, -18.80, -25.32, -23.67, -20.54, -21.35, -19.78, -22.84, -23.20, -30.87, -23.67, -24.56, -19.92, 0.000, 0.000, 0.000, 15:37:23.230
70, -28.79, -21.99, -27.14, -19.98, -18.80, -25.32, -23.67, -20.54, -21.39, -19.67, -22.78, -23.25, -31.09, -23.45, -24.39, -19.89, 0.000, 0.000, 0.000, 15:37:23.230
71, -28.95, -21.86, -26.98, -19.89, -18.91, -25.26, -23.63, -20.52, -21.39, -19.67, -22.78, -23.25, -31.09, -23.45, -24.39, -19.89, 0.000, 0.000, 0.000, 15:37:23.231
72, -28.95, -21.86, -26.98, -19.89, -18.91, -25.26, -23.63, -20.52, -21.48, -19.67, -22.71, -23.27, -30.87, -23.63, -24.23, -19.96, 0.000, 0.000, 0.000, 15:37:23.231
73, -28.79, -21.88, -27.16, -20.03, -18.89, -25.26, -23.87, -20.38, -21.48, -19.67, -22.71, -23.27, -30.87, -23.63, -24.23, -19.96, 0.000, 0.000, 0.000, 15:37:23.231
74, -28.79, -21.88, -27.16, -20.03, -18.89, -25.26, -23.87, -20.38, -21.39, -19.92, -22.55, -23.20, -31.00, -23.36, -24.50, -19.94, -0.062, 0.914, -0.332, 15:37:23.231
75, -28.97, -21.93, -26.80, -20.12, -19.07, -25.32, -23.65, -20.36, -21.39, -19.92, -22.55, -23.20, -31.00, -23.36, -24.50, -19.94, 0.000, 0.000, 0.000, 15:37:23.689
76, -28.97, -21.93, -26.80, -20.12, -19.07, -25.32, -23.65, -20.36, -21.32, -19.78, -22.69, -23.25, -31.00, -23.34, -24.61, -19.87, 0.000, 0.000, 0.000, 15:37:23.689
77, -28.95, -21.68, -26.82, -19.80, -18.98, -25.37, -24.03, -20.43, -21.32, -19.78, -22.69, -23.25, -31.00, -23.34, -24.61, -19.87, 0.000, 0.000, 0.000, 15:37:23.689
78, -28.95, -21.68, -26.82, -19.80, -18.98, -25.37, -24.03, -20.43, -21.21, -19.51, -22.73, -23.29, -30.82, -23.42, -24.59, -20.05, 0.000, 0.000, 0.000, 15:37:23.689
79, -28.70, -21.73, -27.09, -19.94, -18.80, -25.21, -23.76, -20.50, -21.21, -19.51, -22.73, -23.29, -30.82, -23.42, -24.59, -20.05, 0.000, 0.000, 0.000, 15:37:23.690
80, -28.70, -21.73, -27.09, -19.94, -18.80, -25.21, -23.76, -20.50, -21.28, -19.71, -22.75, -23.29, -30.96, -23.51, -24.41, -19.87, 0.000, 0.000, 0.000, 15:37:23.690
81, -28.70, -21.97, -26.96, -19.85, -18.64, -25.41, -23.67, -20.21, -21.28, -19.71, -22.75, -23.29, -30.96, -23.51, -24.41, -19.87, 0.000, 0.000, 0.000, 15:37:23.690
82, -28.70, -21.97, -26.96, -19.85, -18.64, -25.41, -23.67, -20.21, -21.61, -19.78, -22.71, -23.42, -30.93, -23.60, -24.45, -19.98, 0.000, 0.000, 0.000, 15:37:23.690
83, -28.97, -21.77, -27.02, -20.05, -18.64, -25.28, -23.83, -20.16, -21.61, -19.78, -22.71, -23.42, -30.93, -23.60, -24.45, -19.98, 0.000, 0.000, 0.000, 15:37:23.691
84, -28.97, -21.77, -27.02, -20.05, -18.64, -25.28, -23.83, -20.16, -21.44, -19.45, -22.69, -23.34, -30.85, -23.58, -24.52, -20.18, -0.062, 0.918, -0.338, 15:37:23.691
85, -28.83, -21.90, -26.96, -20.14, -18.80, -25.39, -23.69, -20.27, -21.44, -19.45, -22.69, -23.34, -30.85, -23.58, -24.52, -20.18, 0.000, 0.000, 0.000, 15:37:23.691
86, -28.83, -21.90, -26.96, -20.14, -18.80, -25.39, -23.69, -20.27, -21.61, -19.49, -22.80, -23.18, -30.91, -23.47, -24.45, -19.92, 0.000, 0.000, 0.000, 15:37:23.691
87, -28.99, -21.93, -26.98, -20.14, -19.00, -25.50, -23.74, -20.23, -21.61, -19.49, -22.80, -23.18, -30.91, -23.47, -24.45, -19.92, 0.000, 0.000, 0.000, 15:37:23.691
88, -28.99, -21.93, -26.98, -20.14, -19.00, -25.50, -23.74, -20.23, -21.46, -19.49, -22.93, -23.45, -30.71, -23.38, -24.52, -19.83, 0.000, 0.000, 0.000, 15:37:23.691
89, -28.72, -21.90, -26.93, -20.23, -18.84, -25.32, -23.63, -20.52, -21.46, -19.49, -22.93, -23.45, -30.71, -23.38, -24.52, -19.83, 0.000, 0.000, 0.000, 15:37:23.692
90, -28.72, -21.90, -26.93, -20.23, -18.84, -25.32, -23.63, -20.52, -21.52, -19.80, -22.73, -23.29, -30.96, -23.67, -24.43, -19.89, 0.000, 0.000, 0.000, 15:37:23.692
91, -28.95, -21.95, -26.89, -19.92, -18.80, -25.37, -23.85, -20.43, -21.52, -19.80, -22.73, -23.29, -30.96, -23.67, -24.43, -19.89, 0.000, 0.000, 0.000, 15:37:23.692
92, -28.95, -21.95, -26.89, -19.92, -18.80, -25.37, -23.85, -20.43, -21.41, -19.51, -22.80, -23.07, -30.64, -23.51, -24.56, -19.92, 0.000, 0.000, 0.000, 15:37:23.692
93, -28.86, -21.75, -26.96, -19.98, -18.80, -25.32, -23.83, -20.32, -21.41, -19.51, -22.80, -23.07, -30.64, -23.51, -24.56, -19.92, 0.000, 0.000, 0.000, 15:37:23.693
94, -28.86, -21.75, -26.96, -19.98, -18.80, -25.32, -23.83, -20.32, -21.30, -19.67, -22.58, -23.22, -30.82, -23.69, -24.50, -20.09, -0.064, 0.912, -0.340, 15:37:23.693
95, -28.72, -21.68, -27.00, -20.12, -18.86, -25.35, -23.74, -20.52, -21.30, -19.67, -22.58, -23.22, -30.82, -23.69, -24.50, -20.09, 0.000, 0.000, 0.000, 15:37:23.693
96, -28.72, -21.68, -27.00, -20.12, -18.86, -25.35, -23.74, -20.52, -21.28, -19.80, -22.87, -23.49, -30.96, -23.74, -24.56, -20.05, 0.000, 0.000, 0.000, 15:37:23.693
97, -28.83, -21.79, -27.09, -20.21, -18.93, -25.21, -23.78, -20.59, -21.28, -19.80, -22.87, -23.49, -30.96, -23.74, -24.56, -20.05, 0.000, 0.000, 0.000, 15:37:23.693
98, -28.83, -21.79, -27.09, -20.21, -18.93, -25.21, -23.78, -20.59, -21.55, -19.62, -22.89, -23.29, -30.76, -23.67, -24.61, -20.03, 0.000, 0.000, 0.000, 15:37:23.694
99, -28.92, -21.82, -26.98, -19.83, -18.86, -25.17, -23.85, -20.56, -21.55, -19.62, -22.89, -23.29, -30.76, -23.67, -24.61, -20.03, 0.000, 0.000, 0.000, 15:37:23.694
100, -28.92, -21.82, -26.98, -19.83, -18.86, -25.17, -23.85, -20.56, -21.39, -19.71, -22.78, -23.42, -30.73, -23.65, -24.43, -19.87, 0.000, 0.000, 0.000, 15:37:23.694
101, -28.97, -21.86, -26.89, -19.98, -18.86, -25.48, -23.69, -20.68, -21.39, -19.71, -22.78, -23.42, -30.73, -23.65, -24.43, -19.87, 0.000, 0.000, 0.000, 15:37:23.694
102, -28.97, -21.86, -26.89, -19.98, -18.86, -25.48, -23.69, -20.68, -21.39, -19.83, -22.75, -23.27, -31.02, -23.47, -24.52, -19.92, 0.000, 0.000, 0.000, 15:37:23.694
103, -29.01, -21.86, -27.11, -20.27, -18.71, -25.26, -23.67, -20.45, -21.39, -19.83, -22.75, -23.27, -31.02, -23.47, -24.52, -19.92, 0.000, 0.000, 0.000, 15:37:23.694
104, -29.01, -21.86, -27.11, -20.27, -18.71, -25.26, -23.67, -20.45, -21.30, -19.69, -22.69, -23.36, -31.02, -23.58, -24.48, -19.96, -0.062, 0.920, -0.336, 15:37:23.695
105, -28.95, -21.75, -26.96, -19.96, -18.93, -25.50, -23.74, -20.65, -21.30, -19.69, -22.69, -23.36, -31.02, -23.58, -24.48, -19.96, 0.000, 0.000, 0.000, 15:37:23.695
106, -28.95, -21.75, -26.96, -19.96, -18.93, -25.50, -23.74, -20.65, -21.32, -19.58, -22.93, -23.45, -31.16, -23.63, -24.34, -19.94, 0.000, 0.000, 0.000, 15:37:23.695
107, -28.97, -21.82, -26.91, -20.07, -18.71, -25.10, -23.65, -20.72, -21.32, -19.58, -22.93, -23.45, -31.16, -23.63, -24.34, -19.94, 0.000, 0.000, 0.000, 15:37:23.695
108, -28.97, -21.82, -26.91, -20.07, -18.71, -25.10, -23.65, -20.72, -21.44, -19.58, -22.60, -23.29, -30.82, -23.76, -24.50, -19.96, 0.000, 0.000, 0.000, 15:37:23.695
109, -29.03, -22.08, -27.07, -20.05, -18.78, -25.12, -23.72, -20.27, -21.44, -19.58, -22.60, -23.29, -30.82, -23.76, -24.50, -19.96, 0.000, 0.000, 0.000, 15:37:23.696
110, -29.03, -22.08, -27.07, -20.05, -18.78, -25.12, -23.72, -20.27, -21.30, -19.69, -22.75, -23.16, -30.91, -23.58, -24.27, -19.87, 0.000, 0.000, 0.000, 15:37:23.696
111, -28.95, -21.88, -26.96, -20.05, -18.78, -25.24, -23.78, -20.36, -21.30, -19.69, -22.75, -23.16, -30.91, -23.58, -24.27, -19.87, 0.000, 0.000, 0.000, 15:37:23.696
112, -28.95, -21.88, -26.96, -20.05, -18.78, -25.24, -23.78, -20.36, -21.44, -19.71, -22.62, -23.18, -30.85, -23.42, -24.61, -20.00, 0.000, 0.000, 0.000, 15:37:23.696
113, -28.81, -21.88, -27.05, -19.98, -18.75, -25.26, -23.83, -20.38, -21.44, -19.71, -22.62, -23.18, -30.85, -23.42, -24.61, -20.00, -0.056, 0.920, -0.336, 15:37:23.696
114, -28.81, -21.88, -27.05, -19.98, -18.75, -25.26, -23.83, -20.38, -21.28, -19.62, -22.69, -23.29, -30.91, -23.63, -24.63, -20.03, 0.000, 0.000, 0.000, 15:37:23.696
115, -28.83, -22.11, -27.09, -19.98, -19.04, -25.41, -23.83, -20.59, -21.28, -19.62, -22.69, -23.29, -30.91, -23.63, -24.63, -20.03, 0.000, 0.000, 0.000, 15:37:23.697
116, -28.83, -22.11, -27.09, -19.98, -19.04, -25.41, -23.83, -20.59, -21.44, -19.69, -22.82, -23.49, -30.87, -23.56, -24.54, -19.71, 0.000, 0.000, 0.000, 15:37:23.697
117, -28.99, -21.82, -26.93, -20.12, -18.98, -25.28, -23.65, -20.47, -21.44, -19.69, -22.82, -23.49, -30.87, -23.56, -24.54, -19.71, 0.000, 0.000, 0.000, 15:37:23.697
118, -28.99, -21.82, -26.93, -20.12, -18.98, -25.28, -23.65, -20.47, -21.44, -19.67, -22.89, -23.40, -30.80, -23.40, -24.56, -19.76, 0.000, 0.000, 0.000, 15:37:23.697
119, -28.74, -22.17, -27.09, -19.94, -18.75, -25.39, -23.80, -20.34, -21.44, -19.67, -22.89, -23.40, -30.80, -23.40, -24.56, -19.76, 0.000, 0.000, 0.000, 15:37:23.697
120, -28.74, -22.17, -27.09, -19.94, -18.75, -25.39, -23.80, -20.34, -21.50, -20.07, -22.71, -23.36, -30.82, -23.83, -24.45, -19.89, 0.000, 0.000, 0.000, 15:37:23.697
121, -28.81, -21.97, -27.22, -20.05, -18.95, -25.26, -23.56, -20.43, -21.50, -20.07, -22.71, -23.36, -30.82, -23.83, -24.45, -19.89, 0.000, 0.000, 0.000, 15:37:23.698
122, -28.81, -21.97, -27.22, -20.05, -18.95, -25.26, -23.56, -20.43, -21.30, -19.85, -22.73, -23.25, -30.85, -23.63, -24.39, -19.89, 0.000, 0.000, 0.000, 15:37:23.698
123, -28.86, -21.88, -27.16, -19.98, -18.84, -25.17, -23.65, -20.43, -21.30, -19.85, -22.73, -23.25, -30.85, -23.63, -24.39, -19.89, -0.054, 0.902, -0.332, 15:37:23.698
124, -28.86, -21.88, -27.16, -19.98, -18.84, -25.17, -23.65, -20.43, -21.30, -19.71, -22.93, -23.20, -30.96, -23.51, -24.48, -20.09, 0.000, 0.000, 0.000, 15:37:23.698
125, -28.99, -22.06, -27.20, -20.07, -18.75, -25.06, -23.65, -20.36, -21.30, -19.71, -22.93, -23.20, -30.96, -23.51, -24.48, -20.09, 0.000, 0.000, 0.000, 15:37:23.698
126, -28.99, -22.06, -27.20, -20.07, -18.75, -25.06, -23.65, -20.36, -21.46, -19.58, -22.87, -23.18, -30.91, -23.51, -24.54, -20.09, 0.000, 0.000, 0.000, 15:37:23.698
127, -28.95, -21.95, -27.09, -19.98, -18.91, -25.15, -23.74, -20.34, -21.46, -19.58, -22.87, -23.18, -30.91, -23.51, -24.54, -20.09, 0.000, 0.000, 0.000, 15:37:23.699
128, -28.95, -21.95, -27.09, -19.98, -18.91, -25.15, -23.74, -20.34, -21.55, -19.67, -22.80, -23.40, -31.00, -23.65, -24.43, -19.87, 0.000, 0.000, 0.000, 15:37:23.699
129, -29.03, -21.90, -27.18, -20.05, -19.02, -25.26, -23.85, -20.30, -21.55, -19.67, -22.80, -23.40, -31.00, -23.65, -24.43, -19.87, 0.000, 0.000, 0.000, 15:37:23.699
130, -29.03, -21.90, -27.18, -20.05, -19.02, -25.26, -23.85, -20.30, -21.61, -19.62, -22.75, -23.27, -30.78, -23.56, -24.63, -19.89, 0.000, 0.000, 0.000, 15:37:23.699
131, -28.81, -22.04, -27.27, -20.12, -19.04, -25.39, -23.98, -20.32, -21.61, -19.62, -22.75, -23.27, -30.78, -23.56, -24.63, -19.89, 0.000, 0.000, 0.000, 15:37:23.699
132, -28.81, -22.04, -27.27, -20.12, -19.04, -25.39, -23.98, -20.32, -21.50, -19.92, -23.00, -23.31, -30.93, -23.56, -24.61, -19.98, 0.000, 0.000, 0.000, 15:37:23.699
133, -28.74, -21.79, -27.18, -19.94, -18.98, -25.24, -23.76, -20.27, -21.50, -19.92, -23.00, -23.31, -30.93, -23.56, -24.61, -19.98, -0.054, 0.868, -0.334, 15:37:23.700
134, -28.74, -21.79, -27.18, -19.94, -18.98, -25.24, -23.76, -20.27, -21.19, -19.76, -22.80, -23.31, -30.96, -23.51, -24.56, -19.92, 0.000, 0.000, 0.000, 15:37:23.700
135, -28.95, -21.79, -27.00, -20.05, -18.95, -25.35, -23.69, -20.56, -21.19, -19.76, -22.80, -23.31, -30.96, -23.51, -24.56, -19.92, 0.000, 0.000, 0.000, 15:37:23.700
136, -28.95, -21.79, -27.00, -20.05, -18.95, -25.35, -23.69, -20.56, -21.41, -19.89, -22.64, -23.22, -30.64, -23.36, -24.39, -19.71, 0.000, 0.000, 0.000, 15:37:23.700
137, -28.86, -21.73, -27.22, -19.87, -19.07, -25.28, -23.80, -20.27, -21.41, -19.89, -22.64, -23.22, -30.64, -23.36, -24.39, -19.71, 0.000, 0.000, 0.000, 15:37:23.701
138, -28.86, -21.73, -27.22, -19.87, -19.07, -25.28, -23.80, -20.27, -21.52, -19.58, -22.87, -23.31, -30.85, -23.58, -24.52, -19.89, 0.000, 0.000, 0.000, 15:37:23.701
139, -28.90, -21.57, -27.09, -19.87, -18.98, -25.10, -23.60, -20.25, -21.52, -19.58, -22.87, -23.31, -30.85, -23.58, -24.52, -19.89, 0.000, 0.000, 0.000, 15:37:23.701
140, -28.90, -21.57, -27.09, -19.87, -18.98, -25.10, -23.60, -20.25, -21.32, -19.65, -22.71, -23.13, -31.09, -23.58, -24.61, -19.87, 0.000, 0.000, 0.000, 15:37:23.701
141, -28.97, -21.75, -27.09, -19.87, -19.04, -25.24, -23.80, -20.30, -21.32, -19.65, -22.71, -23.13, -31.09, -23.58, -24.61, -19.87, 0.000, 0.000, 0.000, 15:37:23.702
142, -28.97, -21.75, -27.09, -19.87, -19.04, -25.24, -23.80, -20.30, -21.21, -19.45, -22.71, -23.29, -30.89, -23.54, -24.61, -19.89, 0.000, 0.000, 0.000, 15:37:23.702
143, -28.90, -22.02, -26.93, -19.87, -18.89, -25.37, -23.74, -20.32, -21.21, -19.45, -22.71, -23.29, -30.89, -23.54, -24.61, -19.89, -0.070, 0.842, -0.342, 15:37:23.702
144, -28.90, -22.02, -26.93, -19.87, -18.89, -25.37, -23.74, -20.32, -21.17, -19.65, -22.87, -23.49, -30.80, -23.49, -24.61, -19.87, 0.000, 0.000, 0.000, 15:37:23.702
145, -29.12, -21.73, -26.93, -19.94, -18.82, -25.01, -23.78, -20.14, -21.17, -19.65, -22.87, -23.49, -30.80, -23.49, -24.61, -19.87, 0.000, 0.000, 0.000, 15:37:23.702
146, -29.12, -21.73, -26.93, -19.94, -18.82, -25.01, -23.78, -20.14, -21.39, -19.65, -22.62, -23.36, -30.85, -23.63, -24.50, -19.78, 0.000, 0.000, 0.000, 15:37:23.702
147, -29.08, -21.88, -27.02, -20.07, -18.89, -25.32, -23.76, -20.47, -21.39, -19.65, -22.62, -23.36, -30.85, -23.63, -24.50, -19.78, 0.000, 0.000, 0.000, 15:37:23.703
148, -29.08, -21.88, -27.02, -20.07, -18.89, -25.32, -23.76, -20.47, -21.46, -19.45, -22.80, -23.31, -30.87, -23.54, -24.50, -20.07, 0.000, 0.000, 0.000, 15:37:23.703
149, -29.10, -21.82, -27.07, -20.14, -18.78, -25.37, -23.89, -20.54, -21.46, -19.45, -22.80, -23.31, -30.87, -23.54, -24.50, -20.07, 0.000, 0.000, 0.000, 15:37:23.703
150, -29.10, -21.82, -27.07, -20.14, -18.78, -25.37, -23.89, -20.54, -21.39, -19.69, -22.64, -23.40, -30.93, -23.78, -24.59, -19.85, 0.000, 0.000, 0.000, 15:37:23.703
151, -28.95, -21.66, -26.98, -20.00, -18.80, -25.26, -24.03, -20.45, -21.39, -19.69, -22.64, -23.40, -30.93, -23.78, -24.59, -19.85, 0.000, 0.000, 0.000, 15:37:23.703
152, -28.95, -21.66, -26.98, -20.00, -18.80, -25.26, -24.03, -20.45, -21.41, -19.69, -22.84, -23.34, -30.73, -23.65, -24.74, -19.96, 0.000, 0.000, 0.000, 15:37:23.704
153, -29.01, -22.02, -27.02, -20.18, -18.93, -25.08, -23.69, -20.61, -21.41, -19.69, -22.84, -23.34, -30.73, -23.65, -24.74, -19.96, -0.082, 0.874, -0.350, 15:37:23.704
154, -29.01, -22.02, -27.02, -20.18, -18.93, -25.08, -23.69, -20.61, -21.57, -19.67, -22.96, -23.29, -30.76, -23.56, -24.32, -20.05, 0.000, 0.000, 0.000, 15:37:23.704
155, -28.86, -21.90, -26.98, -20.09, -19.13, -25.44, -23.85, -20.43, -21.57, -19.67, -22.96, -23.29, -30.76, -23.56, -24.32, -20.05, 0.000, 0.000, 0.000, 15:37:23.704
156, -28.86, -21.90, -26.98, -20.09, -19.13, -25.44, -23.85, -20.43, -21.55, -19.65, -22.80, -23.16, -30.85, -23.49, -24.32, -20.00, 0.000, 0.000, 0.000, 15:37:23.704
157, -28.88, -21.99, -26.98, -19.87, -19.07, -25.19, -23.65, -20.38, -21.55, -19.65, -22.80, -23.16, -30.85, -23.49, -24.32, -20.00, 0.000, 0.000, 0.000, 15:37:23.705
158, -28.88, -21.99, -26.98, -19.87, -19.07, -25.19, -23.65, -20.38, -21.28, -19.74, -22.60, -23.31, -31.02, -23.49, -24.43, -19.80, 0.000, 0.000, 0.000, 15:37:23.705
159, -28.92, -21.97, -27.05, -20.05, -18.89, -25.17, -23.80, -20.43, -21.28, -19.74, -22.60, -23.31, -31.02, -23.49, -24.43, -19.80, 0.000, 0.000, 0.000, 15:37:23.705
160, -28.92, -21.97, -27.05, -20.05, -18.89, -25.17, -23.80, -20.43, -21.17, -19.65, -22.78, -23.20, -30.91, -23.38, -24.45, -19.96, 0.000, 0.000, 0.000, 15:37:23.705
161, -29.01, -22.04, -26.91, -20.05, -18.86, -25.46, -23.98, -20.23, -21.17, -19.65, -22.78, -23.20, -30.91, -23.38, -24.45, -19.96, 0.000, 0.000, 0.000, 15:37:23.705
162, -29.01, -22.04, -26.91, -20.05, -18.86, -25.46, -23.98, -20.23, -21.44, -19.71, -22.71, -23.18, -30.78, -23.45, -24.36, -19.92, -0.094, 0.936, -0.348, 15:37:23.705
163, -28.97, -21.79, -27.00, -19.89, -19.07, -25.50, -23.85, -20.54, -21.44, -19.71, -22.71, -23.18, -30.78, -23.45, -24.36, -19.92, 0.000, 0.000, 0.000, 15:37:23.706
164, -28.97, -21.79, -27.00, -19.89, -19.07, -25.50, -23.85, -20.54, -21.55, -19.62, -22.69, -23.31, -30.73, -23.60, -24.48, -19.98, 0.000, 0.000, 0.000, 15:37:23.706
165, -28.95, -21.82, -26.78, -19.96, -18.86, -25.50, -23.69, -20.47, -21.55, -19.62, -22.69, -23.31, -30.73, -23.60, -24.48, -19.98, 0.000, 0.000, 0.000, 15:37:23.706
166, -28.95, -21.82, -26.78, -19.96, -18.86, -25.50, -23.69, -20.47, -21.19, -19.54, -22.66, -23.27, -31.00, -23.42, -24.50, -19.69, 0.000, 0.000, 0.000, 15:37:23.706
167, -28.81, -21.97, -27.11, -19.94, -18.82, -25.35, -23.83, -20.34, -21.19, -19.54, -22.66, -23.27, -31.00, -23.42, -24.50, -19.69, 0.000, 0.000, 0.000, 15:37:23.706
168, -28.81, -21.97, -27.11, -19.94, -18.82, -25.35, -23.83, -20.34, -21.50, -19.69, -22.66, -23.13, -30.85, -23.69, -24.59, -19.67, 0.000, 0.000, 0.000, 15:37:23.707
169, -28.97, -21.86, -27.11, -19.76, -18.78, -25.08, -23.76, -20.21, -21.50, -19.69, -22.66, -23.13, -30.85, -23.69, -24.59, -19.67, 0.000, 0.000, 0.000, 15:37:23.707
170, -28.97, -21.86, -27.11, -19.76, -18.78, -25.08, -23.76, -20.21, -21.48, -19.71, -22.82, -23.20, -30.91, -23.72, -24.48, -19.98, 0.000, 0.000, 0.000, 15:37:23.707
171, -29.06, -22.04, -27.05, -19.78, -18.73, -25.41, -23.67, -20.23, -21.48, -19.71, -22.82, -23.20, -30.91, -23.72, -24.48, -19.98, 0.000, 0.000, 0.000, 15:37:23.707
172, -29.06, -22.04, -27.05, -19.78, -18.73, -25.41, -23.67, -20.23, -21.30, -19.62, -22.89, -23.22, -30.78, -23.47, -24.50, -19.62, -0.064, 0.930, -0.352, 15:37:23.707
173, -29.12, -21.90, -26.89, -20.12, -18.91, -25.30, -23.76, -20.43, -21.30, -19.62, -22.89, -23.22, -30.78, -23.47, -24.50, -19.62, 0.000, 0.000, 0.000, 15:37:23.707
174, -29.12, -21.90, -26.89, -20.12, -18.91, -25.30, -23.76, -20.43, -21.32, -19.67, -22.78, -23.31, -30.82, -23.63, -24.61, -19.94, 0.000, 0.000, 0.000, 15:37:23.707
175, -28.72, -22.02, -27.09, -19.96, -18.98, -25.35, -23.69, -20.36, -21.32, -19.67, -22.78, -23.31, -30.82, -23.63, -24.61, -19.94, 0.000, 0.000, 0.000, 15:37:23.708
176, -28.72, -22.02, -27.09, -19.96, -18.98, -25.35, -23.69, -20.36, -21.37, -19.83, -22.84, -23.29, -30.98, -23.49, -24.52, -19.96, 0.000, 0.000, 0.000, 15:37:23.708
177, -28.83, -21.88, -27.09, -20.18, -18.75, -25.26, -23.89, -20.38, -21.37, -19.83, -22.84, -23.29, -30.98, -23.49, -24.52, -19.96, 0.000, 0.000, 0.000, 15:37:23.708
178, -28.83, -21.88, -27.09, -20.18, -18.75, -25.26, -23.89, -20.38, -21.37, -19.76, -22.84, -23.40, -30.85, -23.58, -24.63, -20.07, 0.000, 0.000, 0.000, 15:37:23.708
179, -28.83, -21.84, -26.89, -19.98, -18.91, -25.24, -23.78, -20.50, -21.37, -19.76, -22.84, -23.40, -30.85, -23.58, -24.63, -20.07, 0.000, 0.000, 0.000, 15:37:23.708
180, -28.83, -21.84, -26.89, -19.98, -18.91, -25.24, -23.78, -20.50, -21.26, -19.47, -22.96, -23.49, -30.87, -23.42, -24.56, -19.94, 0.000, 0.000, 0.000, 15:37:23.709
181, -28.83, -21.75, -27.07, -20.05, -18.91, -25.21, -24.12, -20.50, -21.26, -19.47, -22.96, -23.49, -30.87, -23.42, -24.56, -19.94, 0.000, 0.000, 0.000, 15:37:23.709
182, -28.83, -21.75, -27.07, -20.05, -18.91, -25.21, -24.12, -20.50, -21.23, -19.58, -22.89, -23.22, -30.80, -23.47, -24.54, -19.78, -0.054, 0.890, -0.360, 15:37:23.709
183, -28.77, -21.95, -27.07, -19.78, -18.95, -25.28, -23.87, -20.38, -21.23, -19.58, -22.89, -23.22, -30.80, -23.47, -24.54, -19.78, 0.000, 0.000, 0.000, 15:37:23.710
184, -28.77, -21.95, -27.07, -19.78, -18.95, -25.28, -23.87, -20.38, -21.26, -19.54, -22.87, -23.47, -30.89, -23.31, -24.48, -19.83, 0.000, 0.000, 0.000, 15:37:23.710
185, -28.97, -21.79, -26.96, -19.78, -18.46, -25.32, -23.94, -20.43, -21.26, -19.54, -22.87, -23.47, -30.89, -23.31, -24.48, -19.83, 0.000, 0.000, 0.000, 15:37:23.710
186, -28.97, -21.79, -26.96, -19.78, -18.46, -25.32, -23.94, -20.43, -21.37, -19.65, -23.02, -23.34, -30.80, -23.72, -24.81, -19.85, 0.000, 0.000, 0.000, 15:37:23.710
187, -28.99, -22.04, -27.02, -19.76, -18.91, -25.37, -23.67, -20.45, -21.37, -19.65, -23.02, -23.34, -30.80, -23.72, -24.81, -19.85, 0.000, 0.000, 0.000, 15:37:23.710
188, -28.99, -22.04, -27.02, -19.76, -18.91, -25.37, -23.67, -20.45, -21.26, -19.76, -22.64, -23.38, -30.89, -23.69, -24.56, -19.89, 0.000, 0.000, 0.000, 15:37:23.711
189, -28.77, -21.82, -26.91, -20.12, -18.82, -25.41, -23.56, -20.56, -21.26, -19.76, -22.64, -23.38, -30.89, -23.69, -24.56, -19.89, 0.000, 0.000, 0.000, 15:37:23.711
190, -28.77, -21.82, -26.91, -20.12, -18.82, -25.41, -23.56, -20.56, -21.26, -19.74, -22.66, -23.22, -30.73, -23.67, -24.59, -20.05, 0.000, 0.000, 0.000, 15:37:23.711
191, -28.88, -21.77, -26.96, -20.05, -18.84, -25.50, -23.74, -20.38, -21.26, -19.74, -22.66, -23.22, -30.73, -23.67, -24.59, -20.05, 0.000, 0.000, 0.000, 15:37:23.711
192, -28.88, -21.77, -26.96, -20.05, -18.84, -25.50, -23.74, -20.38, -21.46, -19.54, -22.78, -23.47, -30.71, -23.78, -24.36, -19.89, -0.048, 0.916, -0.358, 15:37:23.711
193, -28.86, -21.93, -26.89, -20.03, -18.98, -25.37, -23.74, -20.25, -21.46, -19.54, -22.78, -23.47, -30.71, -23.78, -24.36, -19.89, 0.000, 0.000, 0.000, 15:37:23.712
194, -28.86, -21.93, -26.89, -20.03, -18.98, -25.37, -23.74, -20.25, -21.41, -19.78, -22.87, -23.58, -31.07, -23.72, -24.52, -20.05, 0.000, 0.000, 0.000, 15:37:23.712
195, -28.86, -21.77, -27.05, -20.03, -19.02, -25.28, -23.78, -20.25, -21.41, -19.78, -22.87, -23.58, -31.07, -23.72, -24.52, -20.05, 0.000, 0.000, 0.000, 15:37:24.170
196, -28.86, -21.77, -27.05, -20.03, -19.02, -25.28, -23.78, -20.25, -21.73, -19.56, -22.82, -23.47, -30.76, -23.58, -24.63, -19.83, 0.000, 0.000, 0.000, 15:37:24.170
197, -28.79, -21.88, -27.05, -20.12, -18.89, -25.24, -23.72, -20.38, -21.73, -19.56, -22.82, -23.47, -30.76, -23.58, -24.63, -19.83, 0.000, 0.000, 0.000, 15:37:24.170
198, -28.79, -21.88, -27.05, -20.12, -18.89, -25.24, -23.72, -20.38, -21.66, -19.80, -22.69, -23.47, -30.80, -23.49, -24.59, -19.92, 0.000, 0.000, 0.000, 15:37:24.171
199, -29.03, -21.79, -27.05, -19.87, -19.20, -25.12, -23.76, -20.54, -21.66, -19.80, -22.69, -23.47, -30.80, -23.49, -24.59, -19.92, 0.000, 0.000, 0.000, 15:37:24.171
200, -29.03, -21.79, -27.05, -19.87, -19.20, -25.12, -23.76, -20.54, -21.32, -19.58, -22.87, -23.38, -30.91, -23.54, -24.34, -19.98, 0.000, 0.000, 0.000, 15:37:24.171
201, -28.90, -22.04, -26.69, -20.03, -18.78, -25.37, -23.80, -20.45, -21.32, -19.58, -22.87, -23.38, -30.91, -23.54, -24.34, -19.98, 0.000, 0.000, 0.000, 15:37:24.171
202, -28.90, -22.04, -26.69, -20.03, -18.78, -25.37, -23.80, -20.45, -21.35, -19.65, -22.80, -23.13, -30.87, -23.34, -24.34, -20.00, -0.038, 0.940, -0.348, 15:37:24.172
203, -28.79, -22.08, -27.14, -20.00, -18.86, -25.53, -23.89, -20.65, -21.35, -19.65, -22.80, -23.13, -30.87, -23.34, -24.34, -20.00, 0.000, 0.000, 0.000, 15:37:24.172
204, -28.79, -22.08, -27.14, -20.00, -18.86, -25.53, -23.89, -20.65, -21.35, -19.67, -22.66, -23.11, -30.73, -23.56, -24.43, -20.12, 0.000, 0.000, 0.000, 15:37:24.172
205, -28.72, -21.77, -27.14, -20.16, -18.75, -25.41, -23.87, -20.41, -21.35, -19.67, -22.66, -23.11, -30.73, -23.56, -24.43, -20.12, 0.000, 0.000, 0.000, 15:37:24.172
206, -28.72, -21.77, -27.14, -20.16, -18.75, -25.41, -23.87, -20.41, -21.32, -19.67, -22.55, -23.20, -30.76, -23.60, -24.36, -19.92, 0.000, 0.000, 0.000, 15:37:24.172
207, -28.86, -21.84, -26.89, -20.18, -19.02, -25.21, -23.78, -20.54, -21.32, -19.67, -22.55, -23.20, -30.76, -23.60, -24.36, -19.92, 0.000, 0.000, 0.000, 15:37:24.172
208, -28.86, -21.84, -26.89, -20.18, -19.02, -25.21, -23.78, -20.54, -21.23, -19.56, -22.71, -23.34, -30.82, -23.54, -24.32, -19.98, 0.000, 0.000, 0.000, 15:37:24.173
209, -28.74, -22.02, -27.16, -20.03, -19.07, -24.94, -23.80, -20.54, -21.23, -19.56, -22.71, -23.34, -30.82, -23.54, -24.32, -19.98, 0.000, 0.000, 0.000, 15:37:24.173
210, -28.74, -22.02, -27.16, -20.03, -19.07, -24.94, -23.80, -20.54, -21.57, -19.40, -22.80, -23.45, -30.85, -23.49, -24.30, -20.05, 0.000, 0.000, 0.000, 15:37:24.173
211, -28.74, -21.82, -26.84, -19.94, -19.00, -25.39, -23.63, -20.45, -21.57, -19.40, -22.80, -23.45, -30.85, -23.49, -24.30, -20.05, 0.000, 0.000, 0.000, 15:37:24.173
212, -28.74, -21.82, -26.84, -19.94, -19.00, -25.39, -23.63, -20.45, -21.35, -19.74, -22.73, -23.16, -31.00, -23.40, -24.56, -20.09, -0.026, 0.904, -0.344, 15:37:24.173
213, -28.95, -21.75, -26.80, -19.89, -19.09, -25.15, -23.87, -20.16, -21.35, -19.74, -22.73, -23.16, -31.00, -23.40, -24.56, -20.09, 0.000, 0.000, 0.000, 15:37:24.173
214, -28.95, -21.75, -26.80, -19.89, -19.09, -25.15, -23.87, -20.16, -21.46, -19.96, -22.93, -23.36, -30.80, -23.47, -24.52, -19.56, 0.000, 0.000, 0.000, 15:37:24.174
215, -29.12, -21.93, -26.91, -19.89, -18.80, -25.37, -23.60, -20.16, -21.46, -19.96, -22.93, -23.36, -30.80, -23.47, -24.52, -19.56, 0.000, 0.000, 0.000, 15:37:24.174
216, -29.12, -21.93, -26.91, -19.89, -18.80, -25.37, -23.60, -20.16, -21.41, -19.89, -22.82, -23.20, -30.89, -23.56, -24.54, -19.87, 0.000, 0.000, 0.000, 15:37:24.174
217, -29.06, -21.86, -27.05, -19.98, -18.91, -25.37, -23.83, -20.52, -21.41, -19.89, -22.82, -23.20, -30.89, -23.56, -24.54, -19.87, 0.000, 0.000, 0.000, 15:37:24.174
218, -29.06, -21.86, -27.05, -19.98, -18.91, -25.37, -23.83, -20.52, -21.46, -19.96, -22.82, -23.11, -30.93, -23.40, -24.54, -20.03, 0.000, 0.000, 0.000, 15:37:24.174
219, -28.90, -21.86, -26.98, -19.94, -18.84, -25.06, -23.65, -20.59, -21.46, -19.96, -22.82, -23.11, -30.93, -23.40, -24.54, -20.03, 0.000, 0.000, 0.000, 15:37:24.175
220, -28.90, -21.86, -26.98, -19.94, -18.84, -25.06, -23.65, -20.59, -21.26, -19.69, -22.91, -23.36, -30.96, -23.60, -24.45, -20.12, 0.000, 0.000, 0.000, 15:37:24.175
221, -28.79, -21.70, -26.91, -20.00, -18.80, -25.30, -23.67, -20.54, -21.26, -19.69, -22.91, -23.36, -30.96, -23.60, -24.45, -20.12, -0.026, 0.898, -0.346, 15:37:24.175
222, -28.79, -21.70, -26.91, -20.00, -18.80, -25.30, -23.67, -20.54, -21.30, -19.65, -22.71, -23.34, -31.07, -23.54, -24.52, -20.34, 0.000, 0.000, 0.000, 15:37:24.175
223, -28.81, -21.93, -26.80, -19.98, -19.16, -25.28, -23.65, -20.52, -21.30, -19.65, -22.71, -23.34, -31.07, -23.54, -24.52, -20.34, 0.000, 0.000, 0.000, 15:37:24.175
224, -28.81, -21.93, -26.80, -19.98, -19.16, -25.28, -23.65, -20.52, -21.48, -19.69, -22.80, -23.13, -30.91, -23.42, -24.56, -19.92, 0.000, 0.000, 0.000, 15:37:24.176
225, -28.92, -21.93, -27.16, -20.14, -18.80, -25.03, -23.92, -20.50, -21.48, -19.69, -22.80, -23.13, -30.91, -23.42, -24.56, -19.92, 0.000, 0.000, 0.000, 15:37:24.176
226, -28.92, -21.93, -27.16, -20.14, -18.80, -25.03, -23.92, -20.50, -21.28, -19.80, -22.71, -23.36, -31.00, -23.54, -24.48, -20.03, 0.000, 0.000, 0.000, 15:37:24.176
227, -28.81, -21.82, -27.20, -19.92, -18.91, -25.37, -23.83, -20.32, -21.28, -19.80, -22.71, -23.36, -31.00, -23.54, -24.48, -20.03, 0.000, 0.000, 0.000, 15:37:24.176
228, -28.81, -21.82, -27.20, -19.92, -18.91, -25.37, -23.83, -20.32, -21.55, -19.51, -22.93, -23.36, -30.89, -23.60, -24.45, -19.98, 0.000, 0.000, 0.000, 15:37:24.176
229, -28.81, -21.70, -26.80, -19.98, -18.89, -25.26, -23.60, -20.16, -21.55, -19.51, -22.93, -23.36, -30.89, -23.60, -24.45, -19.98, 0.000, 0.000, 0.000, 15:37:24.176
230, -28.81, -21.70, -26.80, -19.98, -18.89, -25.26, -23.60, -20.16, -21.75, -19.74, -22.73, -23.54, -31.00, -23.56, -24.45, -19.85, 0.000, 0.000, 0.000, 15:37:24.177
231, -28.77, -21.82, -26.80, -19.98, -19.02, -25.08, -23.85, -20.27, -21.75, -19.74, -22.73, -23.54, -31.00, -23.56, -24.45, -19.85, -0.032, 0.906, -0.340, 15:37:24.177
232, -28.77, -21.82, -26.80, -19.98, -19.02, -25.08, -23.85, -20.27, -21.39, -19.87, -22.78, -23.25, -31.09, -23.80, -24.56, -20.09, 0.000, 0.000, 0.000, 15:37:24.177
233, -28.86, -21.82, -26.93, -20.05, -18.98, -25.55, -23.89, -20.61, -21.39, -19.87, -22.78, -23.25, -31.09, -23.80, -24.56, -20.09, 0.000, 0.000, 0.000, 15:37:24.177
234, -28.86, -21.82, -26.93, -20.05, -18.98, -25.55, -23.89, -20.61, -21.68, -19.69, -22.84, -23.22, -31.07, -23.63, -24.45, -19.98, 0.000, 0.000, 0.000, 15:37:24.177
235, -28.81, -21.79, -26.96, -20.16, -18.93, -25.32, -23.65, -20.52, -21.68, -19.69, -22.84, -23.22, -31.07, -23.63, -24.45, -19.98, 0.000, 0.000, 0.000, 15:37:24.177
236, -28.81, -21.79, -26.96, -20.16, -18.93, -25.32, -23.65, -20.52, -21.37, -19.80, -22.60, -23.38, -30.80, -23.34, -24.50, -20.14, 0.000, 0.000, 0.000, 15:37:24.178
237, -29.17, -22.02, -27.00, -20.05, -19.07, -25.12, -23.72, -20.34, -21.37, -19.80, -22.60, -23.38, -30.80, -23.34, -24.50, -20.14, 0.000, 0.000, 0.000, 15:37:24.178
238, -29.17, -22.02, -27.00, -20.05, -19.07, -25.12, -23.72, -20.34, -21.52, -19.67, -22.66, -23.22, -30.98, -23.40, -24.63, -19.85, 0.000, 0.000, 0.000, 15:37:24.178
239, -28.61, -21.64, -27.18, -19.89, -18.86, -25.15, -23.67, -20.36, -21.52, -19.67, -22.66, -23.22, -30.98, -23.40, -24.63, -19.85, 0.000, 0.000, 0.000, 15:37:24.178
240, -28.61, -21.64, -27.18, -19.89, -18.86, -25.15, -23.67, -20.36, -21.39, -19.60, -22.71, -23.31, -31.18, -23.65, -24.72, -20.00, 0.000, 0.000, 0.000, 15:37:24.178
241, -28.74, -21.77, -27.18, -20.07, -18.86, -25.39, -23.72, -20.30, -21.39, -19.60, -22.71, -23.31, -31.18, -23.65, -24.72, -20.00, -0.036, 0.906, -0.330, 15:37:24.178
242, -28.74, -21.77, -27.18, -20.07, -18.86, -25.39, -23.72, -20.30, -21.35, -19.74, -22.58, -23.22, -30.85, -23.49, -24.59, -19.80, 0.000, 0.000, 0.000, 15:37:24.179
243, -28.70, -21.82, -27.05, -19.94, -19.02, -25.37, -23.69, -20.47, -21.35, -19.74, -22.58, -23.22, -30.85, -23.49, -24.59, -19.80, 0.000, 0.000, 0.000, 15:37:24.179
244, -28.70, -21.82, -27.05, -19.94, -19.02, -25.37, -23.69, -20.47, -21.17, -19.54, -22.53, -23.27, -30.82, -23.63, -24.56, -20.03, 0.000, 0.000, 0.000, 15:37:24.179
245, -28.54, -21.73, -27.31, -20.12, -18.80, -25.41, -23.85, -20.27, -21.17, -19.54, -22.53, -23.27, -30.82, -23.63, -24.56, -20.03, 0.000, 0.000, 0.000, 15:37:24.179
246, -28.54, -21.73, -27.31, -20.12, -18.80, -25.41, -23.85, -20.27, -21.30, -19.67, -22.71, -23.51, -30.78, -23.76, -24.50, -19.78, 0.000, 0.000, 0.000, 15:37:24.179
247, -28.81, -21.68, -27.11, -19.96, -18.89, -25.21, -23.76, -20.45, -21.30, -19.67, -22.71, -23.51, -30.78, -23.76, -24.50, -19.78, 0.000, 0.000, 0.000, 15:37:24.179
248, -28.81, -21.68, -27.11, -19.96, -18.89, -25.21, -23.76, -20.45, -21.41, -19.67, -22.71, -23.36, -30.98, -23.72, -24.45, -19.80, 0.000, 0.000, 0.000, 15:37:24.180
249, -28.72, -21.68, -26.96, -19.98, -19.00, -25.44, -23.74, -20.43, -21.41, -19.67, -22.71, -23.36, -30.98, -23.72, -24.45, -19.80, 0.000, 0.000, 0.000, 15:37:24.180
250, -28.72, -21.68, -26.96, -19.98, -19.00, -25.44, -23.74, -20.43, -21.39, -19.56, -22.66, -23.16, -30.96, -23.58, -24.59, -19.98, 0.000, 0.000, 0.000, 15:37:24.180
251, -28.81, -21.88, -27.22, -19.98, -19.04, -25.48, -23.87, -20.32, -21.39, -19.56, -22.66, -23.16, -30.96, -23.58, -24.59, -19.98, -0.036, 0.916, -0.318, 15:37:24.180
252, -28.81, -21.88, -27.22, -19.98, -19.04, -25.48, -23.87, -20.32, -21.57, -19.69, -22.87, -23.34, -30.87, -23.56, -24.54, -20.12, 0.000, 0.000, 0.000, 15:37:24.180
253, -28.99, -21.75, -27.16, -20.05, -18.89, -25.41, -23.74, -20.14, -21.57, -19.69, -22.87, -23.34, -30.87, -23.56, -24.54, -20.12, 0.000, 0.000, 0.000, 15:37:24.180
254, -28.99, -21.75, -27.16, -20.05, -18.89, -25.41, -23.74, -20.14, -21.32, -19.80, -22.80, -23.31, -30.91, -23.69, -24.45, -19.94, 0.000, 0.000, 0.000, 15:37:24.181
255, -28.74, -21.77, -26.82, -19.96, -18.98, -25.35, -23.69, -20.47, -21.32, -19.80, -22.80, -23.31, -30.91, -23.69, -24.45, -19.94, 0.000, 0.000, 0.000, 15:37:24.181
0, -28.74, -21.77, -26.82, -19.96, -18.98, -25.35, -23.69, -20.47, -21.23, -19.71, -23.00, -23.38, -31.11, -23.80, -24.63, -19.85, 0.000, 0.000, 0.000, 15:37:24.181
1, -28.70, -21.90, -27.11, -20.00, -19.02, -25.46, -23.78, -20.65, -21.23, -19.71, -23.00, -23.38, -31.11, -23.80, -24.63, -19.85, 0.000, 0.000, 0.000, 15:37:24.181
2, -28.70, -21.90, -27.11, -20.00, -19.02, -25.46, -23.78, -20.65, -21.35, -19.54, -22.80, -23.56, -30.93, -23.65, -24.54, -19.85, 0.000, 0.000, 0.000, 15:37:24.181
3, -28.83, -21.86, -27.09, -20.03, -18.95, -25.30, -23.83, -20.23, -21.35, -19.54, -22.80, -23.56, -30.93, -23.65, -24.54, -19.85, 0.000, 0.000, 0.000, 15:37:24.181
4, -28.83, -21.86, -27.09, -20.03, -18.95, -25.30, -23.83, -20.23, -21.19, -19.74, -22.69, -23.40, -30.98, -23.56, -24.68, -19.78, 0.000, 0.000, 0.000, 15:37:24.182
5, -28.99, -21.88, -26.91, -19.98, -18.98, -25.17, -23.69, -20.61, -21.19, -19.74, -22.69, -23.40, -30.98, -23.56, -24.68, -19.78, -0.038, 0.910, -0.318, 15:37:24.182
6, -28.99, -21.88, -26.91, -19.98, -18.98, -25.17, -23.69, -20.61, -21.14, -19.89, -22.80, -23.38, -30.85, -23.27, -24.59, -20.07, 0.000, 0.000, 0.000, 15:37:24.182
7, -28.77, -21.73, -27.11, -20.05, -19.02, -25.17, -23.63, -20.34, -21.14, -19.89, -22.80, -23.38, -30.85, -23.27, -24.59, -20.07, 0.000, 0.000, 0.000, 15:37:24.182
8, -28.77, -21.73, -27.11, -20.05, -19.02, -25.17, -23.63, -20.34, -21.17, -19.76, -22.66, -23.18, -31.05, -23.47, -24.32, -20.05, 0.000, 0.000, 0.000, 15:37:24.182
9, -28.90, -21.75, -27.00, -20.12, -18.93, -25.37, -23.94, -20.27, -21.17, -19.76, -22.66, -23.18, -31.05, -23.47, -24.32, -20.05, 0.000, 0.000, 0.000, 15:37:24.183
10, -28.90, -21.75, -27.00, -20.12, -18.93, -25.37, -23.94, -20.27, -21.17, -19.56, -22.69, -23.22, -31.18, -23.67, -24.48, -19.87, 0.000, 0.000, 0.000, 15:37:24.183
11, -28.99, -21.88, -27.38, -20.16, -18.98, -25.44, -23.74, -20.47, -21.17, -19.56, -22.69, -23.22, -31.18, -23.67, -24.48, -19.87, 0.000, 0.000, 0.000, 15:37:24.183
12, -28.99, -21.88, -27.38, -20.16, -18.98, -25.44, -23.74, -20.47, -21.32, -19.85, -22.80, -23.18, -30.80, -23.47, -24.39, -19.87, 0.000, 0.000, 0.000, 15:37:24.183
13, -29.06, -21.75, -27.20, -20.03, -18.80, -25.35, -23.69, -20.30, -21.32, -19.85, -22.80, -23.18, -30.80, -23.47, -24.39, -19.87, 0.000, 0.000, 0.000, 15:37:24.183
14, -29.06, -21.75, -27.20, -20.03, -18.80, -25.35, -23.69, -20.30, -21.35, -19.65, -22.80, -23.36, -31.00, -23.47, -24.48, -19.85, -0.036, 0.906, -0.318, 15:37:24.183
15, -28.90, -21.77, -27.09, -20.03, -18.98, -25.30, -23.78, -20.47, -21.35, -19.65, -22.80, -23.36, -31.00, -23.47, -24.48, -19.85, 0.000, 0.000, 0.000, 15:37:24.184
16, -28.90, -21.77, -27.09, -20.03, -18.98, -25.30, -23.78, -20.47, -21.21, -19.71, -22.66, -23.22, -30.96, -23.47, -24.41, -20.09, 0.000, 0.000, 0.000, 15:37:24.184
17, -28.70, -21.79, -26.84, -19.74, -19.09, -25.44, -23.67, -20.36, -21.21, -19.71, -22.66, -23.22, -30.96, -23.47, -24.41, -20.09, 0.000, 0.000, 0.000, 15:37:24.184
18, -28.70, -21.79, -26.84, -19.74, -19.09, -25.44, -23.67, -20.36, -21.39, -19.71, -22.69, -23.34, -30.80, -23.51, -24.65, -19.92, 0.000, 0.000, 0.000, 15:37:24.184
19, -28.90, -21.82, -27.14, -19.94, -18.89, -25.21, -23.78, -20.47, -21.39, -19.71, -22.69, -23.34, -30.80, -23.51, -24.65, -19.92, 0.000, 0.000, 0.000, 15:37:24.185
20, -28.90, -21.82, -27.14, -19.94, -18.89, -25.21, -23.78, -20.47, -21.44, -19.67, -22.78, -23.38, -30.76, -23.47, -24.61, -19.96, 0.000, 0.000, 0.000, 15:37:24.185
21, -28.86, -21.99, -27.09, -19.92, -18.86, -25.26, -23.72, -20.34, -21.44, -19.67, -22.78, -23.38, -30.76, -23.47, -24.61, -19.96, 0.000, 0.000, 0.000, 15:37:24.185
22, -28.86, -21.99, -27.09, -19.92, -18.86, -25.26, -23.72, -20.34, -21.48, -19.54, -22.78, -23.22, -30.78, -23.51, -24.68, -20.03, 0.000, 0.000, 0.000, 15:37:24.185
23, -28.74, -21.86, -27.22, -20.18, -18.89, -25.30, -23.63, -20.32, -21.48, -19.54, -22.78, -23.22, -30.78, -23.51, -24.68, -20.03, 0.000, 0.000, 0.000, 15:37:24.185
24, -28.74, -21.86, -27.22, -20.18, -18.89, -25.30, -23.63, -20.32, -21.28, -19.65, -22.80, -23.36, -30.69, -23.38, -24.59, -19.85, -0.032, 0.896, -0.316, 15:37:24.186
25, -28.81, -21.90, -26.98, -19.71, -18.89, -25.32, -23.89, -20.25, -21.28, -19.65, -22.80, -23.36, -30.69, -23.38, -24.59, -19.85, 0.000, 0.000, 0.000, 15:37:24.186
26, -28.81, -21.90, -26.98, -19.71, -18.89, -25.32, -23.89, -20.25, -21.26, -19.60, -22.78, -23.16, -30.78, -23.49, -24.59, -20.07, 0.000, 0.000, 0.000, 15:37:24.186
27, -28.77, -21.90, -26.98, -19.83, -18.89, -25.30, -23.63, -20.68, -21.26, -19.60, -22.78, -23.16, -30.78, -23.49, -24.59, -20.07, 0.000, 0.000, 0.000, 15:37:24.186
28, -28.77, -21.90, -26.98, -19.83, -18.89, -25.30, -23.63, -20.68, -21.32, -19.54, -23.02, -23.34, -30.85, -23.80, -24.50, -19.96, 0.000, 0.000, 0.000, 15:37:24.186
29, -28.86, -21.93, -27.00, -19.67, -18.95, -25.15, -23.74, -20.68, -21.32, -19.54, -23.02, -23.34, -30.85, -23.80, -24.50, -19.96, 0.000, 0.000, 0.000, 15:37:24.187
30, -28.86, -21.93, -27.00, -19.67, -18.95, -25.15, -23.74, -20.68, -21.12, -19.69, -22.89, -23.29, -30.89, -23.69, -24.48, -19.89, 0.000, 0.000, 0.000, 15:37:24.187
31, -28.79, -21.86, -27.16, -19.92, -18.93, -25.15, -23.87, -20.61, -21.12, -19.69, -22.89, -23.29, -30.89, -23.69, -24.48, -19.89, 0.000, 0.000, 0.000, 15:37:24.187
32, -28.79, -21.86, -27.16, -19.92, -18.93, -25.15, -23.87, -20.61, -21.28, -19.65, -22.80, -23.27, -30.96, -23.80, -24.39, -19.83, 0.000, 0.000, 0.000, 15:37:24.187
33, -28.74, -21.99, -27.11, -20.00, -18.98, -25.06, -23.69, -20.50, -21.28, -19.65, -22.80, -23.27, -30.96, -23.80, -24.39, -19.83, 0.000, 0.000, 0.000, 15:37:24.187
34, -28.74, -21.99, -27.11, -20.00, -18.98, -25.06, -23.69, -20.50, -21.37, -19.54, -22.64, -23.36, -30.93, -23.58, -24.36, -19.96, -0.026, 0.904, -0.314, 15:37:24.187
35, -29.12, -21.93, -27.05, -20.07, -19.02, -25.17, -23.89, -20.50, -21.37, -19.54, -22.64, -23.36, -30.93, -23.58, -24.36, -19.96, 0.000, 0.000, 0.000, 15:37:24.188
36, -29.12, -21.93, -27.05, -20.07, -19.02, -25.17, -23.89, -20.50, -21.46, -19.45, -22.66, -23.45, -30.98, -23.42, -24.50, -19.85, 0.000, 0.000, 0.000, 15:37:24.188
37, -28.65, -21.88, -27.00, -20.07, -18.55, -25.17, -23.69, -20.30, -21.46, -19.45, -22.66, -23.45, -30.98, -23.42, -24.50, -19.85, 0.000, 0.000, 0.000, 15:37:24.188
38, -28.65, -21.88, -27.00, -20.07, -18.55, -25.17, -23.69, -20.30, -21.44, -19.83, -22.66, -23.34, -30.82, -23.49, -24.56, -19.96, 0.000, 0.000, 0.000, 15:37:24.188
39, -28.83, -21.95, -26.93, -20.03, -18.84, -25.41, -23.80, -20.27, -21.44, -19.83, -22.66, -23.34, -30.82, -23.49, -24.56, -19.96, 0.000, 0.000, 0.000, 15:37:24.189
40, -28.83, -21.95, -26.93, -20.03, -18.84, -25.41, -23.80, -20.27, -21.41, -19.89, -22.78, -23.07, -30.98, -23.60, -24.30, -20.00, 0.000, 0.000, 0.000, 15:37:24.189
41, -28.74, -21.86, -26.89, -20.16, -18.91, -25.17, -23.80, -20.43, -21.41, -19.89, -22.78, -23.07, -30.98, -23.60, -24.30, -20.00, 0.000, 0.000, 0.000, 15:37:24.189
42, -28.74, -21.86, -26.89, -20.16, -18.91, -25.17, -23.80, -20.43, -21.57, -19.80, -22.69, -23.29, -30.93, -23.65, -24.56, -19.96, 0.000, 0.000, 0.000, 15:37:24.189
43, -28.92, -21.84, -27.02, -20.14, -18.86, -25.46, -23.80, -20.32, -21.57, -19.80, -22.69, -23.29, -30.93, -23.65, -24.56, -19.96, 0.000, 0.000, 0.000, 15:37:24.189
44, -28.92, -21.84, -27.02, -20.14, -18.86, -25.46, -23.80, -20.32, -21.48, -19.54, -22.89, -23.40, -30.91, -23.63, -24.54, -19.74, -0.038, 0.906, -0.310, 15:37:24.189
45, -28.90, -22.22, -27.16, -19.92, -18.86, -25.41, -23.65, -20.36, -21.48, -19.54, -22.89, -23.40, -30.91, -23.63, -24.54, -19.74, 0.000, 0.000, 0.000, 15:37:24.190
46, -28.90, -22.22, -27.16, -19.92, -18.86, -25.41, -23.65, -20.36, -21.44, -19.74, -22.80, -23.22, -30.89, -23.83, -24.59, -19.83, 0.000, 0.000, 0.000, 15:37:24.190
47, -28.99, -21.73, -27.22, -20.00, -18.80, -25.15, -23.85, -20.54, -21.44, -19.74, -22.80, -23.22, -30.89, -23.83, -24.59, -19.83, 0.000, 0.000, 0.000, 15:37:24.190
48, -28.99, -21.73, -27.22, -20.00, -18.80, -25.15, -23.85, -20.54, -21.48, -19.65, -22.60, -23.49, -30.98, -23.78, -24.59, -19.89, 0.000, 0.000, 0.000, 15:37:24.190
49, -28.79, -21.90, -27.25, -19.96, -18.75, -25.28, -23.83, -20.56, -21.48, -19.65, -22.60, -23.49, -30.98, -23.78, -24.59, -19.89, 0.000, 0.000, 0.000, 15:37:24.190
50, -28.79, -21.90, -27.25, -19.96, -18.75, -25.28, -23.83, -20.56, -21.30, -19.69, -22.69, -23.38, -30.78, -23.40, -24.52, -19.85, 0.000, 0.000, 0.000, 15:37:24.190
51, -29.12, -21.86, -26.98, -19.87, -19.02, -25.32, -23.60, -20.41, -21.30, -19.69, -22.69, -23.38, -30.78, -23.40, -24.52, -19.85, 0.000, 0.000, 0.000, 15:37:24.191
52, -29.12, -21.86, -26.98, -19.87, -19.02, -25.32, -23.60, -20.41, -21.35, -19.78, -22.73, -23.38, -30.91, -23.38, -24.52, -19.87, 0.000, 0.000, 0.000, 15:37:24.191
53, -28.95, -21.79, -26.93, -20.05, -18.80, -25.28, -23.74, -20.36, -21.35, -19.78, -22.73, -23.38, -30.91, -23.38, -24.52, -19.87, 0.000, 0.000, 0.000, 15:37:24.191
54, -28.95, -21.79, -26.93, -20.05, -18.80, -25.28, -23.74, -20.36, -21.17, -19.76, -22.82, -23.25, -30.91, -23.40, -24.59, -19.94, -0.042, 0.892, -0.314, 15:37:24.191
55, -28.88, -21.86, -27.14, -19.89, -18.78, -25.12, -23.63, -20.36, -21.17, -19.76, -22.82, -23.25, -30.91, -23.40, -24.59, -19.94, 0.000, 0.000, 0.000, 15:37:24.191
