%OpenBCI Raw EEG Data
%
%Sample Rate = 250.0 Hz
%First Column = SampleIndex
%Last Column = Timestamp 
%Other Columns = EEG data in microvolts followed by Accel Data (in G) interleaved with Aux Data
0, 0.00, 0.00, 0.00, 0.00, 0.00, 0.00, 0.00, 0.00, -12317.80, -37381.95, -37616.35, -828.09, -37485.28, -42990.07, -31286.63, -33113.04, -0.288, 0.904, -0.100, 17:06:53.334
1, -14.62, -10.80, -13.55, -10.10, -9.43, -12.79, -11.96, -10.26, -12317.80, -37381.95, -37616.35, -828.09, -37485.28, -42990.07, -31286.63, -33113.04, 0.000, 0.000, 0.000, 17:06:53.811
2, -14.62, -10.80, -13.55, -10.10, -9.43, -12.79, -11.96, -10.26, -21.48, -19.69, -22.87, -23.40, -30.76, -23.58, -24.74, -19.89, 0.000, 0.000, 0.000, 17:06:53.811
3, -29.01, -21.75, -26.73, -20.00, -19.20, -25.48, -23.67, -20.52, -21.48, -19.69, -22.87, -23.40, -30.76, -23.58, -24.74, -19.89, 0.000, 0.000, 0.000, 17:06:53.812
4, -29.01, -21.75, -26.73, -20.00, -19.20, -25.48, -23.67, -20.52, -21.39, -19.54, -22.87, -23.34, -30.93, -23.65, -24.61, -19.78, 0.000, 0.000, 0.000, 17:06:53.812
5, -28.70, -21.77, -26.78, -20.07, -18.98, -25.39, -23.49, -20.41, -21.39, -19.54, -22.87, -23.34, -30.93, -23.65, -24.61, -19.78, 0.000, 0.000, 0.000, 17:06:53.812
6, -28.70, -21.77, -26.78, -20.07, -18.98, -25.39, -23.49, -20.41, -21.19, -19.69, -22.66, -23.36, -30.91, -23.76, -24.81, -19.85, 0.000, 0.000, 0.000, 17:06:53.812
7, -28.74, -21.70, -26.89, -20.09, -19.02, -25.35, -23.69, -20.34, -21.19, -19.69, -22.66, -23.36, -30.91, -23.76, -24.81, -19.85, -0.104, 0.924, -0.112, 17:06:53.812
8, -28.74, -21.70, -26.89, -20.09, -19.02, -25.35, -23.69, -20.34, -21.50, -19.71, -22.71, -23.29, -30.98, -23.47, -24.45, -19.67, 0.000, 0.000, 0.000, 17:06:53.813
9, -28.83, -22.06, -27.20, -20.09, -18.80, -25.28, -23.92, -20.23, -21.50, -19.71, -22.71, -23.29, -30.98, -23.47, -24.45, -19.67, 0.000, 0.000, 0.000, 17:06:53.813
10, -28.83, -22.06, -27.20, -20.09, -18.80, -25.28, -23.92, -20.23, -21.37, -19.58, -22.60, -23.45, -30.91, -23.65, -24.34, -19.85, 0.000, 0.000, 0.000, 17:06:53.813
11, -28.95, -21.79, -26.89, -19.94, -19.07, -25.39, -23.96, -20.41, -21.37, -19.58, -22.60, -23.45, -30.91, -23.65, -24.34, -19.85, 0.000, 0.000, 0.000, 17:06:53.813
12, -28.95, -21.79, -26.89, -19.94, -19.07, -25.39, -23.96, -20.41, -21.46, -19.60, -22.58, -23.63, -30.96, -23.49, -24.50, -19.98, 0.000, 0.000, 0.000, 17:06:53.813
13, -28.97, -21.88, -26.80, -19.94, -19.02, -25.37, -23.72, -20.52, -21.46, -19.60, -22.58, -23.63, -30.96, -23.49, -24.50, -19.98, 0.000, 0.000, 0.000, 17:06:53.814
14, -28.97, -21.88, -26.80, -19.94, -19.02, -25.37, -23.72, -20.52, -21.50, -19.71, -22.71, -23.22, -30.76, -23.47, -24.68, -20.00, 0.000, 0.000, 0.000, 17:06:53.814
15, -29.08, -21.61, -26.89, -19.94, -18.98, -25.41, -23.54, -20.70, -21.50, -19.71, -22.71, -23.22, -30.76, -23.47, -24.68, -20.00, 0.000, 0.000, 0.000, 17:06:53.814
16, -29.08, -21.61, -26.89, -19.94, -18.98, -25.41, -23.54, -20.70, -21.59, -19.78, -22.78, -23.07, -30.64, -23.72, -24.65, -19.89, 0.000, 0.000, 0.000, 17:06:53.815
17, -28.77, -21.93, -27.07, -19.80, -19.27, -25.26, -23.80, -20.43, -21.59, -19.78, -22.78, -23.07, -30.64, -23.72, -24.65, -19.89, -0.108, 0.936, -0.114, 17:06:53.815
18, -28.77, -21.93, -27.07, -19.80, -19.27, -25.26, -23.80, -20.43, -21.37, -19.85, -22.82, -23.27, -30.80, -23.63, -24.56, -19.89, 0.000, 0.000, 0.000, 17:06:53.815
19, -28.86, -21.64, -27.20, -19.96, -19.09, -25.30, -23.60, -20.50, -21.37, -19.85, -22.82, -23.27, -30.80, -23.63, -24.56, -19.89, 0.000, 0.000, 0.000, 17:06:53.815
20, -28.86, -21.64, -27.20, -19.96, -19.09, -25.30, -23.60, -20.50, -21.12, -19.80, -22.87, -23.42, -30.85, -23.65, -24.52, -20.07, 0.000, 0.000, 0.000, 17:06:53.815
21, -28.90, -21.68, -26.96, -20.05, -19.00, -25.46, -23.60, -20.61, -21.12, -19.80, -22.87, -23.42, -30.85, -23.65, -24.52, -20.07, 0.000, 0.000, 0.000, 17:06:53.815
22, -28.90, -21.68, -26.96, -20.05, -19.00, -25.46, -23.60, -20.61, -21.17, -19.49, -22.71, -23.34, -30.82, -23.58, -24.72, -19.74, 0.000, 0.000, 0.000, 17:06:53.816
23, -29.10, -21.88, -26.87, -20.00, -19.00, -25.26, -23.47, -20.36, -21.17, -19.49, -22.71, -23.34, -30.82, -23.58, -24.72, -19.74, 0.000, 0.000, 0.000, 17:06:53.816
24, -29.10, -21.88, -26.87, -20.00, -19.00, -25.26, -23.47, -20.36, -21.39, -19.74, -22.80, -23.29, -30.82, -23.45, -24.43, -19.58, 0.000, 0.000, 0.000, 17:06:53.816
25, -28.79, -21.66, -26.87, -20.00, -19.09, -25.28, -23.60, -20.59, -21.39, -19.74, -22.80, -23.29, -30.82, -23.45, -24.43, -19.58, 0.000, 0.000, 0.000, 17:06:53.816
26, -28.79, -21.66, -26.87, -20.00, -19.09, -25.28, -23.60, -20.59, -21.35, -19.89, -22.89, -23.45, -30.98, -23.76, -24.65, -19.98, 0.000, 0.000, 0.000, 17:06:53.817
27, -28.90, -21.61, -27.00, -20.09, -18.86, -25.30, -23.60, -20.54, -21.35, -19.89, -22.89, -23.45, -30.98, -23.76, -24.65, -19.98, -0.106, 0.946, -0.114, 17:06:53.817
28, -28.90, -21.61, -27.00, -20.09, -18.86, -25.30, -23.60, -20.54, -21.35, -19.87, -22.75, -23.25, -30.93, -23.51, -24.48, -19.83, 0.000, 0.000, 0.000, 17:06:53.817
29, -29.03, -21.88, -27.14, -20.05, -18.86, -25.19, -23.72, -20.61, -21.35, -19.87, -22.75, -23.25, -30.93, -23.51, -24.48, -19.83, 0.000, 0.000, 0.000, 17:06:53.818
30, -29.03, -21.88, -27.14, -20.05, -18.86, -25.19, -23.72, -20.61, -21.37, -19.83, -23.02, -23.25, -30.67, -23.47, -24.34, -19.89, 0.000, 0.000, 0.000, 17:06:53.818
31, -29.28, -21.57, -27.02, -20.03, -19.02, -25.32, -23.67, -20.43, -21.37, -19.83, -23.02, -23.25, -30.67, -23.47, -24.34, -19.89, 0.000, 0.000, 0.000, 17:06:53.818
32, -29.28, -21.57, -27.02, -20.03, -19.02, -25.32, -23.67, -20.43, -21.50, -19.80, -22.87, -23.22, -30.78, -23.45, -24.36, -19.87, 0.000, 0.000, 0.000, 17:06:53.818
33, -28.86, -21.64, -26.87, -20.09, -19.22, -25.37, -23.69, -20.52, -21.50, -19.80, -22.87, -23.22, -30.78, -23.45, -24.36, -19.87, 0.000, 0.000, 0.000, 17:06:53.819
34, -28.86, -21.64, -26.87, -20.09, -19.22, -25.37, -23.69, -20.52, -21.48, -19.87, -22.98, -23.31, -30.93, -23.65, -24.41, -20.07, 0.000, 0.000, 0.000, 17:06:53.819
35, -28.86, -21.73, -27.14, -20.03, -19.09, -25.24, -23.51, -20.59, -21.48, -19.87, -22.98, -23.31, -30.93, -23.65, -24.41, -20.07, 0.000, 0.000, 0.000, 17:06:53.819
36, -28.86, -21.73, -27.14, -20.03, -19.09, -25.24, -23.51, -20.59, -21.44, -19.83, -22.82, -23.40, -30.82, -23.56, -24.65, -19.76, 0.000, 0.000, 0.000, 17:06:53.819
37, -28.92, -22.04, -27.14, -20.09, -19.00, -25.24, -23.47, -20.50, -21.44, -19.83, -22.82, -23.40, -30.82, -23.56, -24.65, -19.76, -0.106, 0.952, -0.114, 17:06:53.820
38, -28.92, -22.04, -27.14, -20.09, -19.00, -25.24, -23.47, -20.50, -21.28, -19.60, -22.91, -23.36, -30.62, -23.58, -24.48, -19.67, 0.000, 0.000, 0.000, 17:06:53.820
39, -28.97, -21.68, -27.07, -20.00, -18.98, -25.17, -23.87, -20.50, -21.28, -19.60, -22.91, -23.36, -30.62, -23.58, -24.48, -19.67, 0.000, 0.000, 0.000, 17:06:53.820
40, -28.97, -21.68, -27.07, -20.00, -18.98, -25.17, -23.87, -20.50, -21.32, -19.67, -22.71, -23.51, -30.93, -23.60, -24.34, -19.85, 0.000, 0.000, 0.000, 17:06:53.820
41, -28.79, -21.68, -26.91, -20.16, -19.24, -25.44, -23.72, -20.25, -21.32, -19.67, -22.71, -23.51, -30.93, -23.60, -24.34, -19.85, 0.000, 0.000, 0.000, 17:06:53.820
42, -28.79, -21.68, -26.91, -20.16, -19.24, -25.44, -23.72, -20.25, -21.26, -19.67, -22.75, -23.58, -30.78, -23.45, -24.43, -19.83, 0.000, 0.000, 0.000, 17:06:53.821
43, -28.92, -21.55, -27.09, -19.94, -18.95, -25.24, -23.56, -20.38, -21.26, -19.67, -22.75, -23.58, -30.78, -23.45, -24.43, -19.83, 0.000, 0.000, 0.000, 17:06:53.821
44, -28.92, -21.55, -27.09, -19.94, -18.95, -25.24, -23.56, -20.38, -21.41, -19.78, -22.96, -23.16, -30.98, -23.42, -24.54, -19.87, 0.000, 0.000, 0.000, 17:06:53.821
45, -28.83, -21.61, -27.00, -19.92, -18.86, -25.35, -23.89, -20.41, -21.41, -19.78, -22.96, -23.16, -30.98, -23.42, -24.54, -19.87, 0.000, 0.000, 0.000, 17:06:53.821
46, -28.83, -21.61, -27.00, -19.92, -18.86, -25.35, -23.89, -20.41, -21.23, -19.67, -22.64, -23.38, -30.87, -23.49, -24.63, -19.71, 0.000, 0.000, 0.000, 17:06:53.821
47, -28.83, -21.77, -27.14, -19.98, -19.18, -25.24, -23.47, -20.52, -21.23, -19.67, -22.64, -23.38, -30.87, -23.49, -24.63, -19.71, -0.104, 0.948, -0.102, 17:06:53.822
48, -28.83, -21.77, -27.14, -19.98, -19.18, -25.24, -23.47, -20.52, -21.50, -19.76, -22.91, -23.25, -31.02, -23.49, -24.43, -19.94, 0.000, 0.000, 0.000, 17:06:53.822
49, -29.01, -21.84, -26.80, -19.96, -18.95, -25.35, -23.80, -20.50, -21.50, -19.76, -22.91, -23.25, -31.02, -23.49, -24.43, -19.94, 0.000, 0.000, 0.000, 17:06:53.822
50, -29.01, -21.84, -26.80, -19.96, -18.95, -25.35, -23.80, -20.50, -21.52, -19.49, -22.80, -23.34, -30.87, -23.45, -24.43, -19.78, 0.000, 0.000, 0.000, 17:06:53.823
51, -29.06, -21.55, -26.91, -20.03, -19.27, -25.21, -23.85, -20.36, -21.52, -19.49, -22.80, -23.34, -30.87, -23.45, -24.43, -19.78, 0.000, 0.000, 0.000, 17:06:53.823
52, -29.06, -21.55, -26.91, -20.03, -19.27, -25.21, -23.85, -20.36, -21.48, -19.65, -22.84, -23.40, -30.67, -23.51, -24.54, -19.94, 0.000, 0.000, 0.000, 17:06:53.824
53, -28.72, -21.84, -27.07, -19.83, -19.11, -25.44, -23.78, -20.43, -21.48, -19.65, -22.84, -23.40, -30.67, -23.51, -24.54, -19.94, 0.000, 0.000, 0.000, 17:06:53.824
54, -28.72, -21.84, -27.07, -19.83, -19.11, -25.44, -23.78, -20.43, -21.35, -19.98, -22.93, -23.36, -30.60, -23.56, -24.56, -19.89, 0.000, 0.000, 0.000, 17:06:53.824
55, -28.92, -21.88, -27.02, -20.25, -19.13, -25.44, -23.78, -20.36, -21.35, -19.98, -22.93, -23.36, -30.60, -23.56, -24.56, -19.89, 0.000, 0.000, 0.000, 17:06:53.824
56, -28.92, -21.88, -27.02, -20.25, -19.13, -25.44, -23.78, -20.36, -21.50, -19.87, -22.78, -23.31, -30.80, -23.60, -24.39, -19.65, -0.108, 0.950, -0.106, 17:06:53.824
57, -29.28, -21.93, -27.00, -20.00, -19.02, -25.21, -23.85, -20.50, -21.50, -19.87, -22.78, -23.31, -30.80, -23.60, -24.39, -19.65, 0.000, 0.000, 0.000, 17:06:53.824
58, -29.28, -21.93, -27.00, -20.00, -19.02, -25.21, -23.85, -20.50, -21.41, -19.60, -22.91, -23.29, -30.60, -23.72, -24.61, -19.69, 0.000, 0.000, 0.000, 17:06:53.825
59, -28.99, -21.66, -26.98, -19.92, -18.95, -25.26, -23.67, -20.36, -21.41, -19.60, -22.91, -23.29, -30.60, -23.72, -24.61, -19.69, 0.000, 0.000, 0.000, 17:06:53.825
60, -28.99, -21.66, -26.98, -19.92, -18.95, -25.26, -23.67, -20.36, -21.21, -19.69, -22.93, -23.45, -30.64, -23.54, -24.63, -19.96, 0.000, 0.000, 0.000, 17:06:53.825
61, -28.72, -21.84, -26.89, -20.14, -18.86, -25.21, -23.63, -20.41, -21.21, -19.69, -22.93, -23.45, -30.64, -23.54, -24.63, -19.96, 0.000, 0.000, 0.000, 17:06:53.825
62, -28.72, -21.84, -26.89, -20.14, -18.86, -25.21, -23.63, -20.41, -21.39, -19.65, -22.78, -23.38, -30.82, -23.78, -24.45, -19.87, 0.000, 0.000, 0.000, 17:06:53.825
63, -28.97, -21.82, -27.00, -19.80, -18.98, -25.32, -23.63, -20.45, -21.39, -19.65, -22.78, -23.38, -30.82, -23.78, -24.45, -19.87, 0.000, 0.000, 0.000, 17:06:53.825
64, -28.97, -21.82, -27.00, -19.80, -18.98, -25.32, -23.63, -20.45, -21.21, -19.74, -22.89, -23.16, -30.96, -23.47, -24.48, -19.89, 0.000, 0.000, 0.000, 17:06:53.826
65, -28.86, -21.88, -27.05, -19.89, -19.09, -25.06, -23.56, -20.54, -21.21, -19.74, -22.89, -23.16, -30.96, -23.47, -24.48, -19.89, 0.000, 0.000, 0.000, 17:06:53.826
66, -28.86, -21.88, -27.05, -19.89, -19.09, -25.06, -23.56, -20.54, -21.37, -19.87, -22.64, -23.36, -30.78, -23.63, -24.48, -20.07, -0.112, 0.950, -0.110, 17:06:53.826
67, -28.99, -21.70, -27.02, -19.85, -19.24, -25.15, -23.49, -20.38, -21.37, -19.87, -22.64, -23.36, -30.78, -23.63, -24.48, -20.07, 0.000, 0.000, 0.000, 17:06:53.826
68, -28.99, -21.70, -27.02, -19.85, -19.24, -25.15, -23.49, -20.38, -21.52, -19.56, -22.71, -23.38, -30.80, -23.58, -24.74, -19.92, 0.000, 0.000, 0.000, 17:06:53.826
69, -28.86, -21.68, -27.05, -19.85, -19.11, -25.37, -23.67, -20.32, -21.52, -19.56, -22.71, -23.38, -30.80, -23.58, -24.74, -19.92, 0.000, 0.000, 0.000, 17:06:53.826
70, -28.86, -21.68, -27.05, -19.85, -19.11, -25.37, -23.67, -20.32, -21.41, -19.96, -22.75, -23.27, -30.98, -23.56, -24.56, -19.85, 0.000, 0.000, 0.000, 17:06:53.827
71, -28.65, -21.82, -27.00, -20.00, -19.07, -25.24, -23.83, -20.23, -21.41, -19.96, -22.75, -23.27, -30.98, -23.56, -24.56, -19.85, 0.000, 0.000, 0.000, 17:06:53.827
72, -28.65, -21.82, -27.00, -20.00, -19.07, -25.24, -23.83, -20.23, -21.35, -19.76, -22.60, -23.29, -30.89, -23.51, -24.70, -19.87, 0.000, 0.000, 0.000, 17:06:53.827
73, -29.01, -21.57, -27.00, -19.98, -19.16, -25.53, -23.76, -20.47, -21.35, -19.76, -22.60, -23.29, -30.89, -23.51, -24.70, -19.87, 0.000, 0.000, 0.000, 17:06:53.827
74, -29.01, -21.57, -27.00, -19.98, -19.16, -25.53, -23.76, -20.47, -21.21, -19.69, -22.80, -23.45, -30.89, -23.63, -24.36, -19.96, 0.000, 0.000, 0.000, 17:06:53.827
75, -28.90, -21.88, -26.93, -20.14, -19.16, -25.37, -23.87, -20.43, -21.21, -19.69, -22.80, -23.45, -30.89, -23.63, -24.36, -19.96, 0.000, 0.000, 0.000, 17:06:53.827
76, -28.90, -21.88, -26.93, -20.14, -19.16, -25.37, -23.87, -20.43, -21.08, -19.56, -22.69, -23.31, -30.87, -23.58, -24.36, -19.89, -0.110, 0.946, -0.116, 17:06:53.828
77, -28.86, -21.86, -27.02, -20.16, -19.24, -25.39, -23.78, -20.27, -21.08, -19.56, -22.69, -23.31, -30.87, -23.58, -24.36, -19.89, 0.000, 0.000, 0.000, 17:06:53.828
78, -28.86, -21.86, -27.02, -20.16, -19.24, -25.39, -23.78, -20.27, -21.37, -19.42, -22.73, -23.27, -30.60, -23.76, -24.32, -19.96, 0.000, 0.000, 0.000, 17:06:53.828
79, -29.01, -21.66, -27.02, -19.98, -19.40, -25.37, -23.78, -20.34, -21.37, -19.42, -22.73, -23.27, -30.60, -23.76, -24.32, -19.96, 0.000, 0.000, 0.000, 17:06:53.828
80, -29.01, -21.66, -27.02, -19.98, -19.40, -25.37, -23.78, -20.34, -21.37, -19.47, -22.64, -23.40, -30.64, -23.69, -24.43, -19.87, 0.000, 0.000, 0.000, 17:06:53.828
81, -28.92, -21.75, -27.00, -19.83, -19.00, -25.30, -23.92, -20.45, -21.37, -19.47, -22.64, -23.40, -30.64, -23.69, -24.43, -19.87, 0.000, 0.000, 0.000, 17:06:53.828
82, -28.92, -21.75, -27.00, -19.83, -19.00, -25.30, -23.92, -20.45, -21.55, -19.80, -22.66, -23.36, -30.93, -23.47, -24.59, -19.94, 0.000, 0.000, 0.000, 17:06:53.829
83, -28.97, -21.75, -27.09, -20.14, -19.16, -25.53, -23.76, -20.38, -21.55, -19.80, -22.66, -23.36, -30.93, -23.47, -24.59, -19.94, 0.000, 0.000, 0.000, 17:06:53.829
84, -28.97, -21.75, -27.09, -20.14, -19.16, -25.53, -23.76, -20.38, -21.28, -19.65, -22.84, -23.40, -30.91, -23.56, -24.41, -19.85, 0.000, 0.000, 0.000, 17:06:53.829
85, -29.08, -21.84, -27.16, -19.87, -19.07, -25.35, -23.56, -20.61, -21.28, -19.65, -22.84, -23.40, -30.91, -23.56, -24.41, -19.85, 0.000, 0.000, 0.000, 17:06:53.830
86, -29.08, -21.84, -27.16, -19.87, -19.07, -25.35, -23.56, -20.61, -21.37, -19.83, -22.82, -23.45, -30.82, -23.69, -24.56, -19.89, -0.112, 0.948, -0.120, 17:06:53.830
87, -28.97, -21.84, -27.16, -20.00, -19.00, -25.28, -23.78, -20.45, -21.37, -19.83, -22.82, -23.45, -30.82, -23.69, -24.56, -19.89, 0.000, 0.000, 0.000, 17:06:53.830
88, -28.97, -21.84, -27.16, -20.00, -19.00, -25.28, -23.78, -20.45, -21.30, -19.80, -22.78, -23.38, -30.69, -23.56, -24.36, -19.89, 0.000, 0.000, 0.000, 17:06:53.830
89, -28.88, -22.04, -26.98, -20.03, -19.20, -25.26, -23.74, -20.47, -21.30, -19.80, -22.78, -23.38, -30.69, -23.56, -24.36, -19.89, 0.000, 0.000, 0.000, 17:06:53.831
90, -28.88, -22.04, -26.98, -20.03, -19.20, -25.26, -23.74, -20.47, -21.30, -19.60, -22.64, -23.47, -30.60, -23.78, -24.45, -19.87, 0.000, 0.000, 0.000, 17:06:53.831
91, -28.83, -21.68, -27.09, -20.03, -19.07, -25.26, -23.58, -20.41, -21.30, -19.60, -22.64, -23.47, -30.60, -23.78, -24.45, -19.87, 0.000, 0.000, 0.000, 17:06:53.831
92, -28.83, -21.68, -27.09, -20.03, -19.07, -25.26, -23.58, -20.41, -21.39, -19.87, -22.89, -23.36, -30.89, -23.38, -24.56, -19.89, 0.000, 0.000, 0.000, 17:06:53.831
93, -28.95, -21.73, -27.05, -20.07, -18.98, -25.26, -23.67, -20.43, -21.39, -19.87, -22.89, -23.36, -30.89, -23.38, -24.56, -19.89, 0.000, 0.000, 0.000, 17:06:53.832
94, -28.95, -21.73, -27.05, -20.07, -18.98, -25.26, -23.67, -20.43, -21.21, -19.69, -22.82, -23.60, -30.80, -23.56, -24.48, -19.71, 0.000, 0.000, 0.000, 17:06:53.832
95, -28.86, -21.86, -27.07, -19.96, -19.04, -25.15, -23.72, -20.45, -21.21, -19.69, -22.82, -23.60, -30.80, -23.56, -24.48, -19.71, 0.000, 0.000, 0.000, 17:06:53.832
96, -28.86, -21.86, -27.07, -19.96, -19.04, -25.15, -23.72, -20.45, -21.26, -19.62, -22.96, -23.45, -30.71, -23.69, -24.65, -19.87, -0.110, 0.950, -0.120, 17:06:53.832
97, -28.90, -21.70, -27.05, -20.00, -19.20, -25.28, -23.58, -20.45, -21.26, -19.62, -22.96, -23.45, -30.71, -23.69, -24.65, -19.87, 0.000, 0.000, 0.000, 17:06:53.832
98, -28.90, -21.70, -27.05, -20.00, -19.20, -25.28, -23.58, -20.45, -21.26, -19.85, -22.80, -23.07, -30.87, -23.65, -24.30, -19.96, 0.000, 0.000, 0.000, 17:06:53.833
99, -28.77, -21.79, -26.76, -19.92, -19.20, -25.12, -23.58, -20.54, -21.26, -19.85, -22.80, -23.07, -30.87, -23.65, -24.30, -19.96, 0.000, 0.000, 0.000, 17:06:53.833
100, -28.77, -21.79, -26.76, -19.92, -19.20, -25.12, -23.58, -20.54, -21.41, -19.80, -22.73, -23.38, -30.87, -23.49, -24.54, -19.69, 0.000, 0.000, 0.000, 17:06:53.833
101, -28.72, -21.64, -26.84, -19.96, -19.07, -25.35, -23.76, -20.52, -21.41, -19.80, -22.73, -23.38, -30.87, -23.49, -24.54, -19.69, 0.000, 0.000, 0.000, 17:06:53.833
102, -28.72, -21.64, -26.84, -19.96, -19.07, -25.35, -23.76, -20.52, -21.39, -19.80, -22.89, -23.38, -30.85, -23.60, -24.27, -19.89, 0.000, 0.000, 0.000, 17:06:53.833
103, -28.95, -21.77, -27.16, -19.89, -18.98, -25.12, -23.83, -20.54, -21.39, -19.80, -22.89, -23.38, -30.85, -23.60, -24.27, -19.89, 0.000, 0.000, 0.000, 17:06:53.834
104, -28.95, -21.77, -27.16, -19.89, -18.98, -25.12, -23.83, -20.54, -21.30, -19.98, -22.78, -23.29, -30.58, -23.49, -24.43, -19.60, 0.000, 0.000, 0.000, 17:06:53.834
105, -28.92, -21.66, -26.89, -19.96, -19.22, -25.26, -23.45, -20.52, -21.30, -19.98, -22.78, -23.29, -30.58, -23.49, -24.43, -19.60, 0.000, 0.000, 0.000, 17:06:53.834
106, -28.92, -21.66, -26.89, -19.96, -19.22, -25.26, -23.45, -20.52, -21.28, -19.83, -22.71, -23.45, -31.18, -23.58, -24.52, -19.89, -0.108, 0.944, -0.124, 17:06:53.835
107, -29.03, -21.79, -26.96, -19.94, -19.07, -25.64, -23.67, -20.36, -21.28, -19.83, -22.71, -23.45, -31.18, -23.58, -24.52, -19.89, 0.000, 0.000, 0.000, 17:06:53.835
108, -29.03, -21.79, -26.96, -19.94, -19.07, -25.64, -23.67, -20.36, -21.50, -19.80, -22.80, -23.20, -31.00, -23.58, -24.59, -19.89, 0.000, 0.000, 0.000, 17:06:53.835
109, -28.83, -21.82, -27.09, -20.03, -19.18, -25.32, -23.80, -20.41, -21.50, -19.80, -22.80, -23.20, -31.00, -23.58, -24.59, -19.89, 0.000, 0.000, 0.000, 17:06:53.835
110, -28.83, -21.82, -27.09, -20.03, -19.18, -25.32, -23.80, -20.41, -21.44, -19.65, -22.75, -23.31, -30.87, -23.63, -24.45, -19.98, 0.000, 0.000, 0.000, 17:06:53.835
111, -28.81, -21.84, -27.09, -19.94, -19.07, -25.30, -23.78, -20.54, -21.44, -19.65, -22.75, -23.31, -30.87, -23.63, -24.45, -19.98, 0.000, 0.000, 0.000, 17:06:53.835
112, -28.81, -21.84, -27.09, -19.94, -19.07, -25.30, -23.78, -20.54, -21.46, -19.78, -22.71, -23.40, -30.85, -23.65, -24.52, -19.94, 0.000, 0.000, 0.000, 17:06:53.836
113, -29.03, -21.66, -26.98, -19.98, -19.13, -25.39, -23.74, -20.65, -21.46, -19.78, -22.71, -23.40, -30.85, -23.65, -24.52, -19.94, 0.000, 0.000, 0.000, 17:06:53.836
114, -29.03, -21.66, -26.98, -19.98, -19.13, -25.39, -23.74, -20.65, -21.21, -19.92, -22.80, -23.16, -31.02, -23.85, -24.48, -19.98, 0.000, 0.000, 0.000, 17:06:53.836
115, -28.86, -21.75, -26.89, -20.03, -18.98, -25.46, -23.65, -20.45, -21.21, -19.92, -22.80, -23.16, -31.02, -23.85, -24.48, -19.98, -0.110, 0.944, -0.120, 17:06:53.836
116, -28.86, -21.75, -26.89, -20.03, -18.98, -25.46, -23.65, -20.45, -21.21, -19.74, -22.71, -23.25, -30.96, -23.67, -24.54, -19.78, 0.000, 0.000, 0.000, 17:06:53.836
117, -28.90, -21.79, -27.16, -20.03, -19.07, -25.35, -23.85, -20.47, -21.21, -19.74, -22.71, -23.25, -30.96, -23.67, -24.54, -19.78, 0.000, 0.000, 0.000, 17:06:53.836
118, -28.90, -21.79, -27.16, -20.03, -19.07, -25.35, -23.85, -20.47, -21.46, -19.65, -22.73, -23.36, -30.91, -23.58, -24.61, -19.92, 0.000, 0.000, 0.000, 17:06:53.837
119, -28.90, -21.68, -27.05, -20.03, -19.00, -25.37, -23.94, -20.36, -21.46, -19.65, -22.73, -23.36, -30.91, -23.58, -24.61, -19.92, 0.000, 0.000, 0.000, 17:06:53.837
120, -28.90, -21.68, -27.05, -20.03, -19.00, -25.37, -23.94, -20.36, -21.30, -19.85, -22.84, -23.31, -30.82, -23.47, -24.70, -19.89, 0.000, 0.000, 0.000, 17:06:53.837
121, -28.90, -21.95, -27.05, -19.83, -18.75, -25.17, -23.74, -20.50, -21.30, -19.85, -22.84, -23.31, -30.82, -23.47, -24.70, -19.89, 0.000, 0.000, 0.000, 17:06:53.896
122, -28.90, -21.95, -27.05, -19.83, -18.75, -25.17, -23.74, -20.50, -21.57, -19.78, -22.78, -23.11, -30.85, -23.72, -24.56, -19.80, 0.000, 0.000, 0.000, 17:06:53.896
123, -28.99, -21.79, -27.07, -19.80, -18.98, -25.26, -23.87, -20.43, -21.57, -19.78, -22.78, -23.11, -30.85, -23.72, -24.56, -19.80, 0.000, 0.000, 0.000, 17:06:53.896
124, -28.99, -21.79, -27.07, -19.80, -18.98, -25.26, -23.87, -20.43, -21.52, -19.67, -22.69, -23.31, -30.71, -23.51, -24.36, -19.78, 0.000, 0.000, 0.000, 17:06:53.897
125, -28.83, -21.82, -26.84, -19.89, -19.09, -25.62, -23.65, -20.34, -21.52, -19.67, -22.69, -23.31, -30.71, -23.51, -24.36, -19.78, -0.114, 0.950, -0.116, 17:06:53.897
126, -28.83, -21.82, -26.84, -19.89, -19.09, -25.62, -23.65, -20.34, -21.26, -19.83, -22.78, -23.11, -30.69, -23.65, -24.32, -19.83, 0.000, 0.000, 0.000, 17:06:53.897
127, -28.88, -21.99, -26.89, -20.03, -19.11, -25.37, -23.51, -20.68, -21.26, -19.83, -22.78, -23.11, -30.69, -23.65, -24.32, -19.83, 0.000, 0.000, 0.000, 17:06:53.897
128, -28.88, -21.99, -26.89, -20.03, -19.11, -25.37, -23.51, -20.68, -21.28, -19.80, -22.82, -23.40, -30.85, -23.47, -24.61, -19.89, 0.000, 0.000, 0.000, 17:06:53.897
129, -29.03, -21.99, -26.89, -19.94, -19.16, -25.19, -23.63, -20.63, -21.28, -19.80, -22.82, -23.40, -30.85, -23.47, -24.61, -19.89, 0.000, 0.000, 0.000, 17:06:53.897
130, -29.03, -21.99, -26.89, -19.94, -19.16, -25.19, -23.63, -20.63, -21.30, -19.62, -22.80, -23.45, -30.64, -23.56, -24.56, -19.87, 0.000, 0.000, 0.000, 17:06:53.898
131, -28.86, -21.82, -27.07, -19.98, -19.09, -25.37, -23.94, -20.52, -21.30, -19.62, -22.80, -23.45, -30.64, -23.56, -24.56, -19.87, 0.000, 0.000, 0.000, 17:06:53.898
132, -28.86, -21.82, -27.07, -19.98, -19.09, -25.37, -23.94, -20.52, -21.59, -19.69, -22.82, -23.29, -30.69, -23.65, -24.39, -20.09, 0.000, 0.000, 0.000, 17:06:53.898
133, -28.83, -21.61, -27.11, -19.96, -19.13, -25.03, -23.40, -20.65, -21.59, -19.69, -22.82, -23.29, -30.69, -23.65, -24.39, -20.09, 0.000, 0.000, 0.000, 17:06:53.898
134, -28.83, -21.61, -27.11, -19.96, -19.13, -25.03, -23.40, -20.65, -21.55, -19.89, -22.96, -23.27, -30.78, -23.72, -24.56, -19.78, 0.000, 0.000, 0.000, 17:06:53.898
135, -28.77, -21.97, -26.96, -19.92, -19.18, -24.97, -23.78, -20.43, -21.55, -19.89, -22.96, -23.27, -30.78, -23.72, -24.56, -19.78, -0.116, 0.948, -0.122, 17:06:53.898
136, -28.77, -21.97, -26.96, -19.92, -19.18, -24.97, -23.78, -20.43, -21.23, -19.71, -22.87, -23.36, -30.78, -23.67, -24.56, -19.89, 0.000, 0.000, 0.000, 17:06:53.899
137, -29.19, -21.57, -27.07, -19.96, -18.93, -25.28, -23.65, -20.14, -21.23, -19.71, -22.87, -23.36, -30.78, -23.67, -24.56, -19.89, 0.000, 0.000, 0.000, 17:06:53.899
0, -29.19, -21.57, -27.07, -19.96, -18.93, -25.28, -23.65, -20.14, -10.64, -9.88, -11.38, -11.69, -15.42, -11.73, -12.27, -9.83, -0.120, 0.946, -0.114, 17:06:54.926
1, -14.44, -10.95, -13.52, -9.99, -9.63, -12.58, -11.76, -10.33, -10.64, -9.88, -11.38, -11.69, -15.42, -11.73, -12.27, -9.83, 0.000, 0.000, 0.000, 17:06:54.926
2, -14.44, -10.95, -13.52, -9.99, -9.63, -12.58, -11.76, -10.33, -21.41, -19.78, -22.73, -23.51, -30.82, -23.69, -24.41, -19.67, 0.000, 0.000, 0.000, 17:06:54.926
3, -28.74, -21.93, -27.02, -19.96, -19.02, -25.48, -23.69, -20.54, -21.41, -19.78, -22.73, -23.51, -30.82, -23.69, -24.41, -19.67, 0.000, 0.000, 0.000, 17:06:54.927
4, -28.74, -21.93, -27.02, -19.96, -19.02, -25.48, -23.69, -20.54, -21.39, -19.74, -22.69, -23.40, -30.69, -23.49, -24.30, -19.76, 0.000, 0.000, 0.000, 17:06:54.927
5, -28.81, -21.64, -26.96, -19.92, -19.07, -25.30, -23.85, -20.47, -21.39, -19.74, -22.69, -23.40, -30.69, -23.49, -24.30, -19.76, 0.000, 0.000, 0.000, 17:06:54.927
6, -28.81, -21.64, -26.96, -19.92, -19.07, -25.30, -23.85, -20.47, -21.44, -19.69, -22.96, -23.47, -30.69, -23.78, -24.41, -19.87, 0.000, 0.000, 0.000, 17:06:54.927
7, -28.79, -21.68, -26.98, -20.05, -19.04, -25.21, -23.76, -20.59, -21.44, -19.69, -22.96, -23.47, -30.69, -23.78, -24.41, -19.87, -0.120, 0.948, -0.110, 17:06:54.927
8, -28.79, -21.68, -26.98, -20.05, -19.04, -25.21, -23.76, -20.59, -21.48, -19.67, -22.80, -23.58, -30.89, -23.89, -24.72, -19.89, 0.000, 0.000, 0.000, 17:06:54.928
9, -28.92, -21.97, -26.91, -19.89, -19.24, -25.35, -23.78, -20.47, -21.48, -19.67, -22.80, -23.58, -30.89, -23.89, -24.72, -19.89, 0.000, 0.000, 0.000, 17:06:54.928
10, -28.92, -21.97, -26.91, -19.89, -19.24, -25.35, -23.78, -20.47, -21.32, -19.67, -22.80, -23.36, -30.89, -23.65, -24.70, -19.85, 0.000, 0.000, 0.000, 17:06:54.928
11, -28.92, -21.82, -26.80, -20.30, -19.24, -25.24, -23.69, -20.59, -21.32, -19.67, -22.80, -23.36, -30.89, -23.65, -24.70, -19.85, 0.000, 0.000, 0.000, 17:06:54.928
12, -28.92, -21.82, -26.80, -20.30, -19.24, -25.24, -23.69, -20.59, -21.32, -19.67, -22.89, -23.22, -30.85, -23.72, -24.59, -19.98, 0.000, 0.000, 0.000, 17:06:54.928
13, -28.92, -21.75, -26.91, -20.00, -19.00, -25.19, -23.58, -20.47, -21.32, -19.67, -22.89, -23.22, -30.85, -23.72, -24.59, -19.98, 0.000, 0.000, 0.000, 17:06:54.929
14, -28.92, -21.75, -26.91, -20.00, -19.00, -25.19, -23.58, -20.47, -21.50, -19.76, -22.91, -23.54, -30.71, -23.67, -24.59, -19.80, 0.000, 0.000, 0.000, 17:06:54.929
15, -28.81, -21.75, -27.11, -20.12, -19.04, -25.39, -23.85, -20.21, -21.50, -19.76, -22.91, -23.54, -30.71, -23.67, -24.59, -19.80, 0.000, 0.000, 0.000, 17:06:54.929
16, -28.81, -21.75, -27.11, -20.12, -19.04, -25.39, -23.85, -20.21, -21.46, -19.80, -22.93, -23.34, -30.64, -23.58, -24.68, -20.03, 0.000, 0.000, 0.000, 17:06:54.929
17, -28.88, -21.66, -27.14, -20.07, -19.18, -25.41, -23.78, -20.56, -21.46, -19.80, -22.93, -23.34, -30.64, -23.58, -24.68, -20.03, -0.114, 0.948, -0.106, 17:06:54.929
18, -28.88, -21.66, -27.14, -20.07, -19.18, -25.41, -23.78, -20.56, -21.26, -19.85, -22.75, -23.36, -30.82, -23.83, -24.59, -19.83, 0.000, 0.000, 0.000, 17:06:54.929
19, -28.86, -21.84, -27.11, -20.07, -18.98, -25.21, -23.72, -20.30, -21.26, -19.85, -22.75, -23.36, -30.82, -23.83, -24.59, -19.83, 0.000, 0.000, 0.000, 17:06:54.930
20, -28.86, -21.84, -27.11, -20.07, -18.98, -25.21, -23.72, -20.30, -21.46, -19.69, -22.96, -23.34, -30.80, -23.87, -24.70, -19.96, 0.000, 0.000, 0.000, 17:06:54.930
21, -29.06, -21.61, -27.22, -20.05, -18.95, -25.26, -23.54, -20.36, -21.46, -19.69, -22.96, -23.34, -30.80, -23.87, -24.70, -19.96, 0.000, 0.000, 0.000, 17:06:54.930
22, -29.06, -21.61, -27.22, -20.05, -18.95, -25.26, -23.54, -20.36, -21.59, -19.80, -22.80, -23.20, -30.96, -23.54, -24.45, -20.00, 0.000, 0.000, 0.000, 17:06:54.930
23, -29.08, -21.73, -27.11, -20.07, -18.75, -25.57, -23.60, -20.45, -21.59, -19.80, -22.80, -23.20, -30.96, -23.54, -24.45, -20.00, 0.000, 0.000, 0.000, 17:06:54.931
24, -29.08, -21.73, -27.11, -20.07, -18.75, -25.57, -23.60, -20.45, -21.26, -19.65, -22.84, -23.20, -31.16, -23.69, -24.59, -19.89, 0.000, 0.000, 0.000, 17:06:54.931
25, -28.77, -21.70, -26.96, -19.96, -19.02, -25.39, -23.58, -20.38, -21.26, -19.65, -22.84, -23.20, -31.16, -23.69, -24.59, -19.89, 0.000, 0.000, 0.000, 17:06:54.931
26, -28.77, -21.70, -26.96, -19.96, -19.02, -25.39, -23.58, -20.38, -21.28, -19.71, -22.93, -23.36, -30.89, -23.60, -24.65, -19.67, 0.000, 0.000, 0.000, 17:06:54.931
27, -29.10, -21.48, -26.84, -20.23, -19.09, -25.19, -23.85, -20.38, -21.28, -19.71, -22.93, -23.36, -30.89, -23.60, -24.65, -19.67, -0.114, 0.948, -0.104, 17:06:54.931
28, -29.10, -21.48, -26.84, -20.23, -19.09, -25.19, -23.85, -20.38, -21.26, -19.85, -22.82, -23.47, -30.69, -23.54, -24.48, -19.92, 0.000, 0.000, 0.000, 17:06:54.931
29, -29.06, -21.61, -26.82, -20.09, -19.18, -25.08, -23.83, -20.54, -21.26, -19.85, -22.82, -23.47, -30.69, -23.54, -24.48, -19.92, 0.000, 0.000, 0.000, 17:06:54.932
30, -29.06, -21.61, -26.82, -20.09, -19.18, -25.08, -23.83, -20.54, -21.57, -19.71, -22.93, -23.22, -30.89, -23.42, -24.61, -20.14, 0.000, 0.000, 0.000, 17:06:54.932
31, -28.79, -21.84, -26.91, -20.25, -19.56, -25.30, -23.80, -20.52, -21.57, -19.71, -22.93, -23.22, -30.89, -23.42, -24.61, -20.14, 0.000, 0.000, 0.000, 17:06:54.932
32, -28.79, -21.84, -26.91, -20.25, -19.56, -25.30, -23.80, -20.52, -21.48, -19.78, -22.91, -23.18, -31.00, -23.72, -24.34, -19.83, 0.000, 0.000, 0.000, 17:06:54.932
33, -28.90, -21.77, -26.96, -20.00, -19.29, -25.55, -23.67, -20.63, -21.48, -19.78, -22.91, -23.18, -31.00, -23.72, -24.34, -19.83, 0.000, 0.000, 0.000, 17:06:54.932
34, -28.90, -21.77, -26.96, -20.00, -19.29, -25.55, -23.67, -20.63, -21.48, -19.76, -22.87, -23.58, -30.82, -23.63, -24.56, -19.87, 0.000, 0.000, 0.000, 17:06:54.932
35, -28.92, -21.66, -26.91, -20.03, -19.18, -25.46, -23.63, -20.43, -21.48, -19.76, -22.87, -23.58, -30.82, -23.63, -24.56, -19.87, 0.000, 0.000, 0.000, 17:06:54.933
36, -28.92, -21.66, -26.91, -20.03, -19.18, -25.46, -23.63, -20.43, -21.46, -19.76, -22.87, -23.36, -30.58, -23.58, -24.50, -19.85, 0.000, 0.000, 0.000, 17:06:54.933
37, -28.74, -21.75, -27.09, -19.76, -19.07, -25.21, -23.65, -20.41, -21.46, -19.76, -22.87, -23.36, -30.58, -23.58, -24.50, -19.85, -0.108, 0.952, -0.106, 17:06:54.933
38, -28.74, -21.75, -27.09, -19.76, -19.07, -25.21, -23.65, -20.41, -21.46, -19.69, -22.75, -23.31, -30.80, -23.45, -24.34, -19.78, 0.000, 0.000, 0.000, 17:06:54.933
39, -28.92, -21.82, -26.84, -20.00, -18.89, -25.08, -23.89, -20.52, -21.46, -19.69, -22.75, -23.31, -30.80, -23.45, -24.34, -19.78, 0.000, 0.000, 0.000, 17:06:54.934
40, -28.92, -21.82, -26.84, -20.00, -18.89, -25.08, -23.89, -20.52, -21.30, -20.03, -22.78, -23.45, -30.55, -23.49, -24.54, -19.96, 0.000, 0.000, 0.000, 17:06:54.934
41, -29.03, -21.79, -27.16, -19.94, -18.98, -25.41, -23.80, -20.47, -21.30, -20.03, -22.78, -23.45, -30.55, -23.49, -24.54, -19.96, 0.000, 0.000, 0.000, 17:06:54.934
42, -29.03, -21.79, -27.16, -19.94, -18.98, -25.41, -23.80, -20.47, -21.41, -19.92, -22.64, -23.63, -30.85, -23.49, -24.65, -19.89, 0.000, 0.000, 0.000, 17:06:54.934
43, -28.83, -21.68, -27.02, -20.14, -19.00, -25.35, -23.56, -20.52, -21.41, -19.92, -22.64, -23.63, -30.85, -23.49, -24.65, -19.89, 0.000, 0.000, 0.000, 17:06:54.935
44, -28.83, -21.68, -27.02, -20.14, -19.00, -25.35, -23.56, -20.52, -21.46, -19.80, -22.78, -23.40, -30.73, -23.63, -24.63, -19.71, 0.000, 0.000, 0.000, 17:06:54.935
45, -28.90, -21.44, -26.96, -19.87, -18.93, -25.26, -23.45, -20.59, -21.46, -19.80, -22.78, -23.40, -30.73, -23.63, -24.63, -19.71, 0.000, 0.000, 0.000, 17:06:54.935
46, -28.90, -21.44, -26.96, -19.87, -18.93, -25.26, -23.45, -20.59, -21.41, -19.92, -22.91, -23.56, -30.64, -23.47, -24.54, -19.62, 0.000, 0.000, 0.000, 17:06:55.000
47, -29.06, -21.57, -26.82, -20.18, -18.98, -25.21, -23.63, -20.50, -21.41, -19.92, -22.91, -23.56, -30.64, -23.47, -24.54, -19.62, -0.116, 0.950, -0.110, 17:06:55.000
48, -29.06, -21.57, -26.82, -20.18, -18.98, -25.21, -23.63, -20.50, -21.68, -19.76, -22.87, -23.16, -30.82, -23.72, -24.61, -19.80, 0.000, 0.000, 0.000, 17:06:55.001
49, -28.90, -21.84, -26.76, -20.14, -19.09, -25.30, -23.76, -20.43, -21.68, -19.76, -22.87, -23.16, -30.82, -23.72, -24.61, -19.80, 0.000, 0.000, 0.000, 17:06:55.001
50, -28.90, -21.84, -26.76, -20.14, -19.09, -25.30, -23.76, -20.43, -21.50, -19.87, -23.02, -23.31, -30.80, -23.54, -24.48, -20.07, 0.000, 0.000, 0.000, 17:06:55.001
51, -28.90, -21.77, -26.87, -19.94, -19.04, -25.15, -23.83, -20.50, -21.50, -19.87, -23.02, -23.31, -30.80, -23.54, -24.48, -20.07, 0.000, 0.000, 0.000, 17:06:55.002
52, -28.90, -21.77, -26.87, -19.94, -19.04, -25.15, -23.83, -20.50, -21.26, -19.69, -22.91, -23.38, -31.14, -23.54, -24.30, -19.92, 0.000, 0.000, 0.000, 17:06:55.002
53, -29.10, -21.86, -27.07, -19.92, -18.95, -25.32, -23.94, -20.59, -21.26, -19.69, -22.91, -23.38, -31.14, -23.54, -24.30, -19.92, 0.000, 0.000, 0.000, 17:06:55.002
54, -29.10, -21.86, -27.07, -19.92, -18.95, -25.32, -23.94, -20.59, -21.59, -19.80, -22.53, -23.31, -30.85, -23.80, -24.23, -19.96, 0.000, 0.000, 0.000, 17:06:55.002
55, -28.97, -21.73, -27.02, -19.85, -19.13, -25.08, -23.78, -20.54, -21.59, -19.80, -22.53, -23.31, -30.85, -23.80, -24.23, -19.96, 0.000, 0.000, 0.000, 17:06:55.002
56, -28.97, -21.73, -27.02, -19.85, -19.13, -25.08, -23.78, -20.54, -21.52, -19.76, -22.62, -23.16, -30.80, -23.60, -24.43, -20.03, -0.112, 0.954, -0.112, 17:06:55.003
57, -29.19, -21.68, -27.05, -19.85, -19.11, -25.30, -23.83, -20.34, -21.52, -19.76, -22.62, -23.16, -30.80, -23.60, -24.43, -20.03, 0.000, 0.000, 0.000, 17:06:55.003
58, -29.19, -21.68, -27.05, -19.85, -19.11, -25.30, -23.83, -20.34, -21.32, -19.71, -22.60, -23.31, -30.89, -23.54, -24.59, -19.87, 0.000, 0.000, 0.000, 17:06:55.003
59, -28.81, -21.73, -26.91, -19.98, -19.07, -25.35, -23.74, -20.47, -21.32, -19.71, -22.60, -23.31, -30.89, -23.54, -24.59, -19.87, 0.000, 0.000, 0.000, 17:06:55.003
60, -28.81, -21.73, -26.91, -19.98, -19.07, -25.35, -23.74, -20.47, -21.46, -19.80, -22.78, -23.18, -31.14, -23.65, -24.61, -19.78, 0.000, 0.000, 0.000, 17:06:55.016
61, -28.95, -21.77, -27.16, -20.09, -19.11, -25.26, -23.69, -20.54, -21.46, -19.80, -22.78, -23.18, -31.14, -23.65, -24.61, -19.78, 0.000, 0.000, 0.000, 17:06:55.456
62, -28.95, -21.77, -27.16, -20.09, -19.11, -25.26, -23.69, -20.54, -21.50, -19.78, -22.84, -23.45, -30.76, -23.63, -24.52, -19.96, 0.000, 0.000, 0.000, 17:06:55.457
63, -28.81, -21.52, -27.05, -20.07, -19.00, -25.26, -23.54, -20.45, -21.50, -19.78, -22.84, -23.45, -30.76, -23.63, -24.52, -19.96, 0.000, 0.000, 0.000, 17:06:55.457
64, -28.81, -21.52, -27.05, -20.07, -19.00, -25.26, -23.54, -20.45, -21.46, -20.05, -22.78, -23.27, -30.93, -23.60, -24.48, -19.83, 0.000, 0.000, 0.000, 17:06:55.457
65, -28.68, -21.82, -27.05, -19.98, -19.00, -25.35, -23.60, -20.52, -21.46, -20.05, -22.78, -23.27, -30.93, -23.60, -24.48, -19.83, 0.000, 0.000, 0.000, 17:06:55.457
66, -28.68, -21.82, -27.05, -19.98, -19.00, -25.35, -23.60, -20.52, -21.57, -19.65, -22.78, -23.40, -30.71, -23.58, -24.41, -19.94, -0.114, 0.958, -0.110, 17:06:55.457
67, -29.01, -21.82, -26.69, -19.87, -18.98, -25.24, -23.87, -20.56, -21.57, -19.65, -22.78, -23.40, -30.71, -23.58, -24.41, -19.94, 0.000, 0.000, 0.000, 17:06:55.457
68, -29.01, -21.82, -26.69, -19.87, -18.98, -25.24, -23.87, -20.56, -21.30, -19.78, -22.66, -23.40, -31.00, -23.76, -24.45, -20.00, 0.000, 0.000, 0.000, 17:06:55.457
69, -28.90, -21.59, -26.91, -20.03, -19.02, -25.30, -23.83, -20.63, -21.30, -19.78, -22.66, -23.40, -31.00, -23.76, -24.45, -20.00, 0.000, 0.000, 0.000, 17:06:55.458
70, -28.90, -21.59, -26.91, -20.03, -19.02, -25.30, -23.83, -20.63, -21.46, -19.69, -22.84, -23.45, -30.98, -23.60, -24.70, -19.76, 0.000, 0.000, 0.000, 17:06:55.458
71, -28.92, -21.61, -27.07, -20.34, -19.02, -25.30, -23.72, -20.59, -21.46, -19.69, -22.84, -23.45, -30.98, -23.60, -24.70, -19.76, 0.000, 0.000, 0.000, 17:06:55.458
72, -28.92, -21.61, -27.07, -20.34, -19.02, -25.30, -23.72, -20.59, -21.35, -19.89, -23.00, -23.40, -31.07, -23.72, -24.56, -19.76, 0.000, 0.000, 0.000, 17:06:55.458
73, -28.83, -21.86, -27.09, -19.89, -18.84, -25.30, -23.78, -20.56, -21.35, -19.89, -23.00, -23.40, -31.07, -23.72, -24.56, -19.76, 0.000, 0.000, 0.000, 17:06:55.458
74, -28.83, -21.86, -27.09, -19.89, -18.84, -25.30, -23.78, -20.56, -21.57, -19.85, -22.80, -23.29, -30.96, -23.51, -24.68, -19.89, 0.000, 0.000, 0.000, 17:06:55.459
75, -28.95, -21.88, -26.98, -20.07, -18.95, -25.35, -23.74, -20.45, -21.57, -19.85, -22.80, -23.29, -30.96, -23.51, -24.68, -19.89, 0.000, 0.000, 0.000, 17:06:55.459
76, -28.95, -21.88, -26.98, -20.07, -18.95, -25.35, -23.74, -20.45, -21.39, -19.85, -22.73, -23.22, -30.80, -23.56, -24.48, -19.89, -0.114, 0.954, -0.106, 17:06:55.459
77, -28.77, -21.64, -27.00, -20.03, -19.07, -25.12, -23.87, -20.50, -21.39, -19.85, -22.73, -23.22, -30.80, -23.56, -24.48, -19.89, 0.000, 0.000, 0.000, 17:06:55.459
78, -28.77, -21.64, -27.00, -20.03, -19.07, -25.12, -23.87, -20.50, -21.48, -19.80, -22.69, -23.40, -30.87, -23.45, -24.63, -19.74, 0.000, 0.000, 0.000, 17:06:55.459
79, -28.70, -21.70, -26.89, -19.94, -19.36, -25.19, -23.54, -20.32, -21.48, -19.80, -22.69, -23.40, -30.87, -23.45, -24.63, -19.74, 0.000, 0.000, 0.000, 17:06:55.459
80, -28.70, -21.70, -26.89, -19.94, -19.36, -25.19, -23.54, -20.32, -21.50, -19.49, -22.53, -23.56, -30.80, -23.63, -24.54, -19.85, 0.000, 0.000, 0.000, 17:06:55.460
81, -28.83, -21.68, -27.05, -20.09, -18.89, -25.35, -23.85, -20.45, -21.50, -19.49, -22.53, -23.56, -30.80, -23.63, -24.54, -19.85, 0.000, 0.000, 0.000, 17:06:55.460
82, -28.83, -21.68, -27.05, -20.09, -18.89, -25.35, -23.85, -20.45, -21.17, -19.38, -22.93, -23.22, -30.60, -23.58, -24.39, -19.98, 0.000, 0.000, 0.000, 17:06:55.460
83, -28.95, -21.82, -27.16, -19.89, -19.11, -25.30, -23.74, -20.36, -21.17, -19.38, -22.93, -23.22, -30.60, -23.58, -24.39, -19.98, 0.000, 0.000, 0.000, 17:06:55.460
84, -28.95, -21.82, -27.16, -19.89, -19.11, -25.30, -23.74, -20.36, -21.26, -19.76, -22.78, -23.29, -30.80, -23.63, -24.36, -19.76, 0.000, 0.000, 0.000, 17:06:55.460
85, -28.92, -21.86, -27.07, -20.16, -19.09, -25.15, -23.67, -20.47, -21.26, -19.76, -22.78, -23.29, -30.80, -23.63, -24.36, -19.76, 0.000, 0.000, 0.000, 17:06:55.460
86, -28.92, -21.86, -27.07, -20.16, -19.09, -25.15, -23.67, -20.47, -21.44, -19.71, -22.93, -23.56, -30.64, -23.45, -24.52, -19.85, -0.112, 0.946, -0.106, 17:06:55.461
87, -28.90, -21.66, -27.11, -19.98, -19.09, -25.24, -23.65, -20.41, -21.44, -19.71, -22.93, -23.56, -30.64, -23.45, -24.52, -19.85, 0.000, 0.000, 0.000, 17:06:55.461
88, -28.90, -21.66, -27.11, -19.98, -19.09, -25.24, -23.65, -20.41, -21.57, -19.83, -22.87, -23.29, -30.76, -23.56, -24.63, -19.89, 0.000, 0.000, 0.000, 17:06:55.461
89, -29.03, -21.95, -26.98, -19.94, -19.16, -25.57, -23.85, -20.61, -21.57, -19.83, -22.87, -23.29, -30.76, -23.56, -24.63, -19.89, 0.000, 0.000, 0.000, 17:06:55.461
90, -29.03, -21.95, -26.98, -19.94, -19.16, -25.57, -23.85, -20.61, -21.32, -19.65, -23.00, -23.38, -30.67, -23.60, -24.54, -19.80, 0.000, 0.000, 0.000, 17:06:55.462
91, -28.97, -21.66, -26.78, -20.03, -19.07, -25.37, -23.78, -20.61, -21.32, -19.65, -23.00, -23.38, -30.67, -23.60, -24.54, -19.80, 0.000, 0.000, 0.000, 17:06:55.462
92, -28.97, -21.66, -26.78, -20.03, -19.07, -25.37, -23.78, -20.61, -21.21, -19.76, -22.89, -23.31, -30.69, -23.51, -24.52, -19.83, 0.000, 0.000, 0.000, 17:06:55.462
93, -28.83, -21.68, -26.96, -20.14, -19.02, -25.32, -23.76, -20.59, -21.21, -19.76, -22.89, -23.31, -30.69, -23.51, -24.52, -19.83, 0.000, 0.000, 0.000, 17:06:55.462
94, -28.83, -21.68, -26.96, -20.14, -19.02, -25.32, -23.76, -20.59, -21.30, -19.87, -22.87, -23.54, -30.82, -23.42, -24.39, -20.03, 0.000, 0.000, 0.000, 17:06:55.462
95, -28.79, -21.82, -27.00, -20.14, -18.91, -25.37, -23.76, -20.38, -21.30, -19.87, -22.87, -23.54, -30.82, -23.42, -24.39, -20.03, 0.000, 0.000, 0.000, 17:06:55.462
96, -28.79, -21.82, -27.00, -20.14, -18.91, -25.37, -23.76, -20.38, -21.37, -19.85, -22.98, -23.56, -31.05, -23.58, -24.54, -20.18, -0.114, 0.950, -0.100, 17:06:55.463
97, -28.72, -21.86, -26.76, -19.92, -18.89, -25.39, -23.83, -20.47, -21.37, -19.85, -22.98, -23.56, -31.05, -23.58, -24.54, -20.18, 0.000, 0.000, 0.000, 17:06:55.463
98, -28.72, -21.86, -26.76, -19.92, -18.89, -25.39, -23.83, -20.47, -21.37, -19.89, -22.96, -23.40, -30.87, -23.92, -24.56, -20.05, 0.000, 0.000, 0.000, 17:06:55.463
99, -28.95, -21.82, -27.09, -20.05, -19.09, -25.28, -23.89, -20.56, -21.37, -19.89, -22.96, -23.40, -30.87, -23.92, -24.56, -20.05, 0.000, 0.000, 0.000, 17:06:55.463
100, -28.95, -21.82, -27.09, -20.05, -19.09, -25.28, -23.89, -20.56, -21.44, -19.65, -22.78, -23.45, -30.64, -23.69, -24.39, -20.03, 0.000, 0.000, 0.000, 17:06:55.463
101, -28.77, -21.57, -26.87, -20.05, -18.89, -25.24, -23.89, -20.61, -21.44, -19.65, -22.78, -23.45, -30.64, -23.69, -24.39, -20.03, 0.000, 0.000, 0.000, 17:06:55.464
102, -28.77, -21.57, -26.87, -20.05, -18.89, -25.24, -23.89, -20.61, -21.39, -19.62, -22.69, -23.40, -30.89, -23.51, -24.16, -20.07, 0.000, 0.000, 0.000, 17:06:55.464
103, -28.83, -21.84, -26.82, -19.76, -19.07, -25.37, -23.51, -20.59, -21.39, -19.62, -22.69, -23.40, -30.89, -23.51, -24.16, -20.07, 0.000, 0.000, 0.000, 17:06:55.464
104, -28.83, -21.84, -26.82, -19.76, -19.07, -25.37, -23.51, -20.59, -21.46, -19.67, -22.75, -23.38, -30.35, -23.29, -24.36, -20.14, 0.000, 0.000, 0.000, 17:06:55.464
105, -28.92, -21.75, -27.14, -19.83, -19.13, -25.28, -23.72, -20.56, -21.46, -19.67, -22.75, -23.38, -30.35, -23.29, -24.36, -20.14, 0.000, 0.000, 0.000, 17:06:55.464
106, -28.92, -21.75, -27.14, -19.83, -19.13, -25.28, -23.72, -20.56, -21.48, -19.80, -23.02, -23.34, -30.91, -23.60, -24.59, -19.80, -0.116, 0.952, -0.106, 17:06:55.465
107, -28.88, -21.68, -27.05, -19.83, -19.02, -25.35, -23.58, -20.41, -21.48, -19.80, -23.02, -23.34, -30.91, -23.60, -24.59, -19.80, 0.000, 0.000, 0.000, 17:06:55.465
108, -28.88, -21.68, -27.05, -19.83, -19.02, -25.35, -23.58, -20.41, -21.35, -19.94, -22.73, -23.47, -30.87, -23.54, -24.61, -19.78, 0.000, 0.000, 0.000, 17:06:55.465
109, -28.70, -21.73, -27.02, -20.05, -19.04, -25.39, -23.63, -20.68, -21.35, -19.94, -22.73, -23.47, -30.87, -23.54, -24.61, -19.78, 0.000, 0.000, 0.000, 17:06:55.465
110, -28.70, -21.73, -27.02, -20.05, -19.04, -25.39, -23.63, -20.68, -21.23, -19.71, -22.62, -23.02, -30.67, -23.42, -24.70, -19.80, 0.000, 0.000, 0.000, 17:06:55.466
111, -28.97, -21.73, -26.98, -20.00, -19.11, -25.46, -23.65, -20.74, -21.23, -19.71, -22.62, -23.02, -30.67, -23.42, -24.70, -19.80, 0.000, 0.000, 0.000, 17:06:55.466
112, -28.97, -21.73, -26.98, -20.00, -19.11, -25.46, -23.65, -20.74, -21.61, -19.69, -22.80, -23.27, -30.71, -23.47, -24.61, -19.98, 0.000, 0.000, 0.000, 17:06:55.466
113, -28.86, -21.95, -26.87, -20.09, -19.07, -25.10, -23.58, -20.54, -21.61, -19.69, -22.80, -23.27, -30.71, -23.47, -24.61, -19.98, 0.000, 0.000, 0.000, 17:06:55.466
114, -28.86, -21.95, -26.87, -20.09, -19.07, -25.10, -23.58, -20.54, -21.48, -19.69, -22.84, -23.58, -30.67, -23.60, -24.70, -19.80, 0.000, 0.000, 0.000, 17:06:55.466
115, -28.81, -21.93, -27.00, -20.14, -19.16, -25.19, -23.69, -20.63, -21.48, -19.69, -22.84, -23.58, -30.67, -23.60, -24.70, -19.80, -0.114, 0.952, -0.102, 17:06:55.467
116, -28.81, -21.93, -27.00, -20.14, -19.16, -25.19, -23.69, -20.63, -21.28, -19.71, -22.66, -23.60, -30.73, -23.56, -24.34, -19.67, 0.000, 0.000, 0.000, 17:06:55.467
117, -28.97, -21.75, -27.20, -20.12, -19.09, -25.59, -23.76, -20.56, -21.28, -19.71, -22.66, -23.60, -30.73, -23.56, -24.34, -19.67, 0.000, 0.000, 0.000, 17:06:55.467
118, -28.97, -21.75, -27.20, -20.12, -19.09, -25.59, -23.76, -20.56, -21.55, -19.71, -22.89, -23.42, -30.80, -23.65, -24.30, -19.74, 0.000, 0.000, 0.000, 17:06:55.467
119, -28.97, -21.95, -27.05, -19.87, -18.93, -25.17, -23.54, -20.47, -21.55, -19.71, -22.89, -23.42, -30.80, -23.65, -24.30, -19.74, 0.000, 0.000, 0.000, 17:06:55.467
120, -28.97, -21.95, -27.05, -19.87, -18.93, -25.17, -23.54, -20.47, -21.52, -19.69, -22.75, -23.58, -30.62, -23.60, -24.41, -19.92, 0.000, 0.000, 0.000, 17:06:55.468
121, -28.88, -21.66, -26.89, -20.07, -19.00, -25.44, -23.78, -20.63, -21.52, -19.69, -22.75, -23.58, -30.62, -23.60, -24.41, -19.92, 0.000, 0.000, 0.000, 17:06:55.468
122, -28.88, -21.66, -26.89, -20.07, -19.00, -25.44, -23.78, -20.63, -21.39, -19.78, -22.78, -23.18, -30.98, -23.54, -24.65, -19.96, 0.000, 0.000, 0.000, 17:06:55.468
123, -28.83, -21.66, -26.84, -20.07, -19.11, -25.46, -23.65, -20.61, -21.39, -19.78, -22.78, -23.18, -30.98, -23.54, -24.65, -19.96, 0.000, 0.000, 0.000, 17:06:55.469
124, -28.83, -21.66, -26.84, -20.07, -19.11, -25.46, -23.65, -20.61, -21.32, -19.74, -22.78, -23.27, -30.89, -23.60, -24.61, -20.09, 0.000, 0.000, 0.000, 17:06:55.469
125, -28.77, -21.75, -26.96, -19.98, -19.16, -25.30, -23.60, -20.45, -21.32, -19.74, -22.78, -23.27, -30.89, -23.60, -24.61, -20.09, -0.112, 0.948, -0.100, 17:06:55.470
126, -28.77, -21.75, -26.96, -19.98, -19.16, -25.30, -23.60, -20.45, -21.35, -19.71, -22.64, -23.40, -30.82, -23.80, -24.79, -19.92, 0.000, 0.000, 0.000, 17:06:55.470
127, -29.12, -21.59, -26.82, -20.14, -18.82, -25.48, -23.76, -20.56, -21.35, -19.71, -22.64, -23.40, -30.82, -23.80, -24.79, -19.92, 0.000, 0.000, 0.000, 17:06:55.470
128, -29.12, -21.59, -26.82, -20.14, -18.82, -25.48, -23.76, -20.56, -21.35, -19.54, -22.91, -23.47, -30.80, -23.58, -24.56, -19.89, 0.000, 0.000, 0.000, 17:06:55.470
129, -28.90, -21.82, -26.82, -20.14, -18.78, -25.19, -23.72, -20.61, -21.35, -19.54, -22.91, -23.47, -30.80, -23.58, -24.56, -19.89, 0.000, 0.000, 0.000, 17:06:55.470
130, -28.90, -21.82, -26.82, -20.14, -18.78, -25.19, -23.72, -20.61, -21.17, -19.60, -22.82, -23.42, -30.80, -23.65, -24.59, -19.80, 0.000, 0.000, 0.000, 17:06:55.471
131, -28.97, -21.66, -27.07, -20.00, -18.93, -25.35, -23.67, -20.72, -21.17, -19.60, -22.82, -23.42, -30.80, -23.65, -24.59, -19.80, 0.000, 0.000, 0.000, 17:06:55.471
132, -28.97, -21.66, -27.07, -20.00, -18.93, -25.35, -23.67, -20.72, -21.28, -19.89, -22.73, -23.22, -30.87, -23.56, -24.68, -19.85, 0.000, 0.000, 0.000, 17:06:55.471
133, -29.01, -21.57, -27.07, -20.30, -19.00, -25.39, -23.54, -20.45, -21.28, -19.89, -22.73, -23.22, -30.87, -23.56, -24.68, -19.85, 0.000, 0.000, 0.000, 17:06:55.471
134, -29.01, -21.57, -27.07, -20.30, -19.00, -25.39, -23.54, -20.45, -21.26, -19.85, -22.66, -23.16, -30.76, -23.56, -24.43, -19.89, 0.000, 0.000, 0.000, 17:06:55.472
135, -28.90, -21.77, -27.02, -20.07, -19.00, -25.37, -23.54, -20.47, -21.26, -19.85, -22.66, -23.16, -30.76, -23.56, -24.43, -19.89, -0.118, 0.954, -0.106, 17:06:55.472
136, -28.90, -21.77, -27.02, -20.07, -19.00, -25.37, -23.54, -20.47, -21.12, -19.76, -22.82, -23.20, -30.80, -23.54, -24.56, -19.87, 0.000, 0.000, 0.000, 17:06:55.472
137, -28.81, -21.77, -26.84, -20.12, -18.95, -25.26, -23.76, -20.52, -21.12, -19.76, -22.82, -23.20, -30.80, -23.54, -24.56, -19.87, 0.000, 0.000, 0.000, 17:06:55.472
138, -28.81, -21.77, -26.84, -20.12, -18.95, -25.26, -23.76, -20.52, -21.48, -19.54, -22.80, -23.22, -30.69, -23.78, -24.63, -19.94, 0.000, 0.000, 0.000, 17:06:55.473
139, -28.99, -21.75, -26.84, -20.12, -18.95, -25.30, -23.72, -20.50, -21.48, -19.54, -22.80, -23.22, -30.69, -23.78, -24.63, -19.94, 0.000, 0.000, 0.000, 17:06:55.473
140, -28.99, -21.75, -26.84, -20.12, -18.95, -25.30, -23.72, -20.50, -21.35, -19.65, -22.78, -23.27, -30.73, -23.60, -24.50, -19.80, 0.000, 0.000, 0.000, 17:06:55.473
141, -29.01, -21.82, -26.80, -20.14, -19.09, -25.24, -23.65, -20.52, -21.35, -19.65, -22.78, -23.27, -30.73, -23.60, -24.50, -19.80, 0.000, 0.000, 0.000, 17:06:55.474
142, -29.01, -21.82, -26.80, -20.14, -19.09, -25.24, -23.65, -20.52, -21.48, -19.71, -22.71, -23.22, -30.67, -23.47, -24.45, -19.78, 0.000, 0.000, 0.000, 17:06:55.474
143, -29.03, -21.84, -26.91, -20.23, -19.02, -25.44, -23.65, -20.52, -21.48, -19.71, -22.71, -23.22, -30.67, -23.47, -24.45, -19.78, 0.000, 0.000, 0.000, 17:06:55.474
144, -29.03, -21.84, -26.91, -20.23, -19.02, -25.44, -23.65, -20.52, -21.55, -19.89, -22.75, -23.47, -30.73, -23.34, -24.70, -19.67, 0.000, 0.000, 0.000, 17:06:55.474
145, -28.95, -21.70, -27.16, -20.18, -19.13, -25.46, -23.63, -20.56, -21.55, -19.89, -22.75, -23.47, -30.73, -23.34, -24.70, -19.67, -0.118, 0.958, -0.102, 17:06:55.475
146, -28.95, -21.70, -27.16, -20.18, -19.13, -25.46, -23.63, -20.56, -21.55, -19.51, -22.69, -23.47, -30.80, -23.67, -24.59, -19.85, 0.000, 0.000, 0.000, 17:06:55.475
147, -28.88, -22.02, -27.02, -19.94, -19.20, -25.41, -23.54, -20.43, -21.55, -19.51, -22.69, -23.47, -30.80, -23.67, -24.59, -19.85, 0.000, 0.000, 0.000, 17:06:55.475
148, -28.88, -22.02, -27.02, -19.94, -19.20, -25.41, -23.54, -20.43, -21.50, -19.54, -22.75, -23.40, -30.64, -23.74, -24.45, -19.65, 0.000, 0.000, 0.000, 17:06:55.475
149, -28.99, -21.57, -26.93, -20.07, -19.16, -25.24, -23.80, -20.68, -21.50, -19.54, -22.75, -23.40, -30.64, -23.74, -24.45, -19.65, 0.000, 0.000, 0.000, 17:06:55.476
150, -28.99, -21.57, -26.93, -20.07, -19.16, -25.24, -23.80, -20.68, -21.59, -19.74, -22.87, -23.38, -30.80, -23.65, -24.72, -19.94, 0.000, 0.000, 0.000, 17:06:55.476
151, -28.95, -21.59, -26.87, -19.98, -18.93, -25.30, -23.74, -20.68, -21.59, -19.74, -22.87, -23.38, -30.80, -23.65, -24.72, -19.94, 0.000, 0.000, 0.000, 17:06:55.476
152, -28.95, -21.59, -26.87, -19.98, -18.93, -25.30, -23.74, -20.68, -21.17, -19.76, -22.62, -23.22, -30.87, -23.72, -24.54, -19.69, 0.000, 0.000, 0.000, 17:06:55.476
153, -28.79, -21.68, -27.00, -19.92, -18.91, -25.39, -23.40, -20.38, -21.17, -19.76, -22.62, -23.22, -30.87, -23.72, -24.54, -19.69, 0.000, 0.000, 0.000, 17:06:55.476
154, -28.79, -21.68, -27.00, -19.92, -18.91, -25.39, -23.40, -20.38, -21.37, -19.69, -22.84, -23.20, -30.76, -23.74, -24.52, -19.85, 0.000, 0.000, 0.000, 17:06:55.476
155, -28.77, -21.73, -26.98, -20.23, -18.86, -25.41, -23.60, -20.43, -21.37, -19.69, -22.84, -23.20, -30.76, -23.74, -24.52, -19.85, -0.118, 0.950, -0.110, 17:06:55.477
156, -28.77, -21.73, -26.98, -20.23, -18.86, -25.41, -23.60, -20.43, -21.17, -19.74, -22.71, -23.36, -30.82, -23.63, -24.65, -19.85, 0.000, 0.000, 0.000, 17:06:55.477
157, -29.01, -21.73, -27.27, -19.98, -19.18, -25.48, -23.69, -20.52, -21.17, -19.74, -22.71, -23.36, -30.82, -23.63, -24.65, -19.85, 0.000, 0.000, 0.000, 17:06:55.477
158, -29.01, -21.73, -27.27, -19.98, -19.18, -25.48, -23.69, -20.52, -21.44, -19.76, -23.04, -23.29, -30.91, -23.49, -24.63, -19.78, 0.000, 0.000, 0.000, 17:06:55.477
159, -28.90, -21.84, -26.98, -19.96, -19.20, -25.24, -23.76, -20.43, -21.44, -19.76, -23.04, -23.29, -30.91, -23.49, -24.63, -19.78, 0.000, 0.000, 0.000, 17:06:55.477
160, -28.90, -21.84, -26.98, -19.96, -19.20, -25.24, -23.76, -20.43, -21.35, -19.74, -22.69, -23.36, -30.64, -23.56, -24.36, -19.74, 0.000, 0.000, 0.000, 17:06:55.477
161, -28.97, -21.82, -27.11, -19.94, -19.13, -25.35, -24.03, -20.52, -21.35, -19.74, -22.69, -23.36, -30.64, -23.56, -24.36, -19.74, 0.000, 0.000, 0.000, 17:06:55.478
162, -28.97, -21.82, -27.11, -19.94, -19.13, -25.35, -24.03, -20.52, -21.61, -19.96, -22.55, -23.04, -30.73, -23.47, -24.56, -19.87, 0.000, 0.000, 0.000, 17:06:55.478
163, -29.10, -21.97, -27.02, -20.07, -18.75, -25.24, -23.72, -20.38, -21.61, -19.96, -22.55, -23.04, -30.73, -23.47, -24.56, -19.87, 0.000, 0.000, 0.000, 17:06:55.478
164, -29.10, -21.97, -27.02, -20.07, -18.75, -25.24, -23.72, -20.38, -21.37, -19.83, -22.80, -23.22, -30.71, -23.60, -24.36, -19.87, -0.120, 0.952, -0.106, 17:06:55.478
165, -28.79, -21.90, -27.07, -19.83, -19.00, -25.21, -23.60, -20.47, -21.37, -19.83, -22.80, -23.22, -30.71, -23.60, -24.36, -19.87, 0.000, 0.000, 0.000, 17:06:55.478
166, -28.79, -21.90, -27.07, -19.83, -19.00, -25.21, -23.60, -20.47, -21.44, -19.87, -23.00, -23.22, -30.85, -23.54, -24.54, -19.60, 0.000, 0.000, 0.000, 17:06:55.478
167, -29.08, -21.82, -26.96, -19.94, -19.11, -25.12, -23.45, -20.54, -21.44, -19.87, -23.00, -23.22, -30.85, -23.54, -24.54, -19.60, 0.000, 0.000, 0.000, 17:06:55.479
168, -29.08, -21.82, -26.96, -19.94, -19.11, -25.12, -23.45, -20.54, -21.35, -19.71, -22.93, -23.31, -31.05, -23.54, -24.63, -19.78, 0.000, 0.000, 0.000, 17:06:55.479
169, -28.86, -21.70, -27.02, -19.87, -18.98, -25.32, -23.60, -20.23, -21.35, -19.71, -22.93, -23.31, -31.05, -23.54, -24.63, -19.78, 0.000, 0.000, 0.000, 17:06:55.479
170, -28.86, -21.70, -27.02, -19.87, -18.98, -25.32, -23.60, -20.23, -21.41, -19.74, -22.89, -23.36, -30.80, -23.67, -24.61, -19.87, 0.000, 0.000, 0.000, 17:06:55.479
171, -28.79, -21.70, -27.14, -19.92, -18.86, -25.37, -23.83, -20.63, -21.41, -19.74, -22.89, -23.36, -30.80, -23.67, -24.61, -19.87, 0.000, 0.000, 0.000, 17:06:55.479
172, -28.79, -21.70, -27.14, -19.92, -18.86, -25.37, -23.83, -20.63, -21.50, -19.76, -22.73, -23.18, -30.89, -23.40, -24.50, -19.78, 0.000, 0.000, 0.000, 17:06:55.479
173, -28.79, -21.57, -26.96, -20.07, -18.98, -25.30, -23.65, -20.56, -21.50, -19.76, -22.73, -23.18, -30.89, -23.40, -24.50, -19.78, 0.000, 0.000, 0.000, 17:06:55.480
174, -28.79, -21.57, -26.96, -20.07, -18.98, -25.30, -23.65, -20.56, -21.35, -19.83, -22.93, -23.40, -30.93, -23.56, -24.65, -19.76, -0.120, 0.950, -0.106, 17:06:55.480
175, -28.97, -21.82, -26.89, -20.03, -19.07, -25.17, -23.72, -20.47, -21.35, -19.83, -22.93, -23.40, -30.93, -23.56, -24.65, -19.76, 0.000, 0.000, 0.000, 17:06:55.480
176, -28.97, -21.82, -26.89, -20.03, -19.07, -25.17, -23.72, -20.47, -21.32, -19.83, -22.82, -23.04, -30.93, -23.96, -24.43, -19.78, 0.000, 0.000, 0.000, 17:06:55.480
177, -29.03, -21.97, -27.09, -20.12, -18.84, -25.44, -23.60, -20.47, -21.32, -19.83, -22.82, -23.04, -30.93, -23.96, -24.43, -19.78, 0.000, 0.000, 0.000, 17:06:55.481
178, -29.03, -21.97, -27.09, -20.12, -18.84, -25.44, -23.60, -20.47, -21.32, -19.67, -22.82, -23.36, -30.85, -23.78, -24.45, -19.85, 0.000, 0.000, 0.000, 17:06:55.481
179, -29.06, -21.57, -27.09, -20.00, -18.91, -25.28, -23.72, -20.59, -21.32, -19.67, -22.82, -23.36, -30.85, -23.78, -24.45, -19.85, 0.000, 0.000, 0.000, 17:06:55.481
180, -29.06, -21.57, -27.09, -20.00, -18.91, -25.28, -23.72, -20.59, -21.37, -19.67, -22.64, -23.45, -30.89, -23.42, -24.48, -19.71, 0.000, 0.000, 0.000, 17:06:55.482
181, -29.03, -21.77, -26.96, -19.85, -19.13, -25.24, -23.89, -20.50, -21.37, -19.67, -22.64, -23.45, -30.89, -23.42, -24.48, -19.71, 0.000, 0.000, 0.000, 17:06:55.567
182, -29.03, -21.77, -26.96, -19.85, -19.13, -25.24, -23.89, -20.50, -21.37, -19.74, -22.75, -23.51, -30.96, -23.51, -24.34, -19.76, 0.000, 0.000, 0.000, 17:06:55.567
183, -28.83, -21.79, -27.11, -19.87, -18.82, -25.28, -24.03, -20.63, -21.37, -19.74, -22.75, -23.51, -30.96, -23.51, -24.34, -19.76, 0.000, 0.000, 0.000, 17:06:55.568
184, -28.83, -21.79, -27.11, -19.87, -18.82, -25.28, -24.03, -20.63, -21.28, -19.78, -22.80, -23.29, -30.62, -23.65, -24.21, -20.09, -0.116, 0.952, -0.104, 17:06:55.568
185, -28.97, -21.79, -26.93, -19.85, -18.75, -25.59, -23.83, -20.56, -21.28, -19.78, -22.80, -23.29, -30.62, -23.65, -24.21, -20.09, 0.000, 0.000, 0.000, 17:06:55.568
186, -28.97, -21.79, -26.93, -19.85, -18.75, -25.59, -23.83, -20.56, -21.37, -19.87, -22.66, -23.20, -30.64, -23.69, -24.39, -19.87, 0.000, 0.000, 0.000, 17:06:55.568
187, -28.92, -21.84, -27.07, -19.89, -18.89, -25.53, -23.83, -20.59, -21.37, -19.87, -22.66, -23.20, -30.64, -23.69, -24.39, -19.87, 0.000, 0.000, 0.000, 17:06:55.568
188, -28.92, -21.84, -27.07, -19.89, -18.89, -25.53, -23.83, -20.59, -21.32, -19.96, -22.64, -23.38, -30.78, -23.78, -24.52, -19.74, 0.000, 0.000, 0.000, 17:06:55.568
189, -28.92, -21.79, -27.11, -19.98, -19.31, -25.39, -23.76, -20.45, -21.32, -19.96, -22.64, -23.38, -30.78, -23.78, -24.52, -19.74, 0.000, 0.000, 0.000, 17:06:55.569
190, -28.92, -21.79, -27.11, -19.98, -19.31, -25.39, -23.76, -20.45, -21.41, -19.80, -22.73, -23.51, -30.69, -23.65, -24.52, -19.76, 0.000, 0.000, 0.000, 17:06:55.569
191, -28.99, -21.88, -26.98, -20.45, -19.11, -25.46, -23.83, -20.45, -21.41, -19.80, -22.73, -23.51, -30.69, -23.65, -24.52, -19.76, 0.000, 0.000, 0.000, 17:06:55.569
192, -28.99, -21.88, -26.98, -20.45, -19.11, -25.46, -23.83, -20.45, -21.48, -19.87, -22.75, -23.42, -30.71, -23.60, -24.43, -20.16, 0.000, 0.000, 0.000, 17:06:55.569
193, -28.86, -21.84, -27.16, -20.27, -18.75, -25.48, -23.60, -20.45, -21.48, -19.87, -22.75, -23.42, -30.71, -23.60, -24.43, -20.16, 0.000, 0.000, 0.000, 17:06:55.569
194, -28.86, -21.84, -27.16, -20.27, -18.75, -25.48, -23.60, -20.45, -21.12, -19.85, -22.84, -23.38, -30.73, -23.72, -24.34, -19.78, -0.116, 0.946, -0.102, 17:06:55.569
195, -28.79, -21.86, -26.91, -20.27, -19.02, -25.48, -23.67, -20.63, -21.12, -19.85, -22.84, -23.38, -30.73, -23.72, -24.34, -19.78, 0.000, 0.000, 0.000, 17:06:55.570
196, -28.79, -21.86, -26.91, -20.27, -19.02, -25.48, -23.67, -20.63, -21.14, -19.87, -22.73, -23.31, -30.80, -23.54, -24.27, -19.87, 0.000, 0.000, 0.000, 17:06:55.570
197, -28.77, -21.75, -26.87, -19.98, -18.84, -25.35, -23.67, -20.59, -21.14, -19.87, -22.73, -23.31, -30.80, -23.54, -24.27, -19.87, 0.000, 0.000, 0.000, 17:06:55.570
198, -28.77, -21.75, -26.87, -19.98, -18.84, -25.35, -23.67, -20.59, -21.17, -19.74, -22.73, -23.34, -30.76, -23.83, -24.48, -19.80, 0.000, 0.000, 0.000, 17:06:55.570
199, -28.99, -21.61, -27.00, -19.96, -19.11, -25.48, -23.67, -20.52, -21.17, -19.74, -22.73, -23.34, -30.76, -23.83, -24.48, -19.80, 0.000, 0.000, 0.000, 17:06:55.570
200, -28.99, -21.61, -27.00, -19.96, -19.11, -25.48, -23.67, -20.52, -21.30, -19.67, -22.87, -23.42, -31.02, -23.54, -24.50, -19.96, 0.000, 0.000, 0.000, 17:06:55.571
201, -29.08, -21.82, -27.07, -19.96, -19.16, -25.21, -23.72, -20.38, -21.30, -19.67, -22.87, -23.42, -31.02, -23.54, -24.50, -19.96, 0.000, 0.000, 0.000, 17:06:55.571
202, -29.08, -21.82, -27.07, -19.96, -19.16, -25.21, -23.72, -20.38, -21.37, -19.74, -22.80, -23.49, -30.82, -23.58, -24.48, -20.03, 0.000, 0.000, 0.000, 17:06:55.571
203, -28.88, -21.66, -26.93, -19.98, -19.00, -25.37, -23.63, -20.41, -21.37, -19.74, -22.80, -23.49, -30.82, -23.58, -24.48, -20.03, 0.000, 0.000, 0.000, 17:06:55.571
204, -28.88, -21.66, -26.93, -19.98, -19.00, -25.37, -23.63, -20.41, -21.46, -19.71, -22.87, -23.38, -30.76, -23.58, -24.83, -19.85, -0.120, 0.946, -0.100, 17:06:55.571
0, -28.88, -21.66, -26.93, -19.98, -19.00, -25.37, -23.63, -20.41, -10.71, -9.88, -11.49, -11.65, -15.36, -11.87, -12.25, -9.92, -0.122, 0.944, -0.098, 17:06:56.112
1, -14.33, -10.89, -13.61, -9.99, -9.52, -12.65, -11.87, -10.24, -10.71, -9.88, -11.49, -11.65, -15.36, -11.87, -12.25, -9.92, 0.000, 0.000, 0.000, 17:06:56.329
2, -14.33, -10.89, -13.61, -9.99, -9.52, -12.65, -11.87, -10.24, -21.35, -19.62, -22.66, -23.25, -30.82, -23.60, -24.56, -19.96, 0.000, 0.000, 0.000, 17:06:56.329
3, -28.74, -21.75, -26.84, -20.21, -19.07, -25.48, -23.85, -20.56, -21.35, -19.62, -22.66, -23.25, -30.82, -23.60, -24.56, -19.96, 0.000, 0.000, 0.000, 17:06:56.330
4, -28.74, -21.75, -26.84, -20.21, -19.07, -25.48, -23.85, -20.56, -21.21, -19.69, -22.91, -23.22, -30.76, -23.54, -24.52, -19.92, 0.000, 0.000, 0.000, 17:06:56.330
5, -28.77, -21.90, -27.14, -20.03, -19.16, -25.19, -23.65, -20.54, -21.21, -19.69, -22.91, -23.22, -30.76, -23.54, -24.52, -19.92, 0.000, 0.000, 0.000, 17:06:56.330
6, -28.77, -21.90, -27.14, -20.03, -19.16, -25.19, -23.65, -20.54, -21.30, -19.67, -22.80, -23.31, -30.73, -23.51, -24.36, -20.14, 0.000, 0.000, 0.000, 17:06:56.330
7, -28.97, -21.68, -26.84, -19.92, -19.13, -25.26, -23.45, -20.36, -21.30, -19.67, -22.80, -23.31, -30.73, -23.51, -24.36, -20.14, 0.000, 0.000, 0.000, 17:06:56.330
8, -28.97, -21.68, -26.84, -19.92, -19.13, -25.26, -23.45, -20.36, -21.50, -19.89, -22.66, -23.20, -30.76, -23.56, -24.59, -20.00, -0.124, 0.950, -0.096, 17:06:56.330
9, -28.88, -21.79, -27.05, -20.09, -19.00, -25.30, -23.72, -20.47, -21.50, -19.89, -22.66, -23.20, -30.76, -23.56, -24.59, -20.00, 0.000, 0.000, 0.000, 17:06:56.331
10, -28.88, -21.79, -27.05, -20.09, -19.00, -25.30, -23.72, -20.47, -21.44, -19.47, -22.66, -23.36, -30.76, -23.58, -24.61, -20.07, 0.000, 0.000, 0.000, 17:06:56.331
11, -28.81, -21.90, -26.87, -20.09, -19.11, -25.46, -23.63, -20.47, -21.44, -19.47, -22.66, -23.36, -30.76, -23.58, -24.61, -20.07, 0.000, 0.000, 0.000, 17:06:56.331
12, -28.81, -21.90, -26.87, -20.09, -19.11, -25.46, -23.63, -20.47, -21.50, -19.80, -22.78, -23.34, -30.71, -23.69, -24.48, -19.89, 0.000, 0.000, 0.000, 17:06:56.331
13, -28.86, -21.82, -26.89, -19.98, -18.98, -25.53, -23.56, -20.47, -21.50, -19.80, -22.78, -23.34, -30.71, -23.69, -24.48, -19.89, 0.000, 0.000, 0.000, 17:06:56.331
14, -28.86, -21.82, -26.89, -19.98, -18.98, -25.53, -23.56, -20.47, -21.55, -19.62, -22.66, -23.27, -30.73, -23.60, -24.36, -19.60, 0.000, 0.000, 0.000, 17:06:56.332
15, -28.95, -21.77, -26.89, -20.14, -19.24, -25.46, -23.60, -20.52, -21.55, -19.62, -22.66, -23.27, -30.73, -23.60, -24.36, -19.60, 0.000, 0.000, 0.000, 17:06:56.332
16, -28.95, -21.77, -26.89, -20.14, -19.24, -25.46, -23.60, -20.52, -21.52, -19.74, -22.71, -23.34, -31.00, -23.67, -24.34, -19.87, 0.000, 0.000, 0.000, 17:06:56.332
17, -28.72, -21.99, -27.02, -20.14, -19.04, -25.30, -23.83, -20.36, -21.52, -19.74, -22.71, -23.34, -31.00, -23.67, -24.34, -19.87, -0.118, 0.948, -0.100, 17:06:56.332
18, -28.72, -21.99, -27.02, -20.14, -19.04, -25.30, -23.83, -20.36, -21.35, -19.74, -22.84, -23.16, -30.78, -23.65, -24.41, -19.94, 0.000, 0.000, 0.000, 17:06:56.332
19, -29.19, -21.77, -27.11, -20.00, -18.91, -25.41, -23.65, -20.59, -21.35, -19.74, -22.84, -23.16, -30.78, -23.65, -24.41, -19.94, 0.000, 0.000, 0.000, 17:06:56.333
20, -29.19, -21.77, -27.11, -20.00, -18.91, -25.41, -23.65, -20.59, -21.32, -19.60, -22.82, -23.34, -30.76, -23.60, -24.43, -20.21, 0.000, 0.000, 0.000, 17:06:56.333
21, -29.24, -21.77, -27.07, -20.00, -19.09, -25.44, -23.92, -20.36, -21.32, -19.60, -22.82, -23.34, -30.76, -23.60, -24.43, -20.21, 0.000, 0.000, 0.000, 17:06:56.333
22, -29.24, -21.77, -27.07, -20.00, -19.09, -25.44, -23.92, -20.36, -21.50, -19.47, -22.75, -23.27, -30.89, -23.47, -24.45, -20.16, 0.000, 0.000, 0.000, 17:06:56.333
23, -28.79, -21.93, -27.11, -19.92, -19.04, -25.62, -23.69, -20.50, -21.50, -19.47, -22.75, -23.27, -30.89, -23.47, -24.45, -20.16, 0.000, 0.000, 0.000, 17:06:56.333
24, -28.79, -21.93, -27.11, -19.92, -19.04, -25.62, -23.69, -20.50, -21.37, -20.00, -22.87, -23.31, -30.80, -23.54, -24.61, -19.76, 0.000, 0.000, 0.000, 17:06:56.334
25, -29.01, -21.68, -27.07, -20.05, -19.09, -25.37, -23.69, -20.56, -21.37, -20.00, -22.87, -23.31, -30.80, -23.54, -24.61, -19.76, 0.000, 0.000, 0.000, 17:06:56.334
26, -29.01, -21.68, -27.07, -20.05, -19.09, -25.37, -23.69, -20.56, -21.30, -19.67, -22.84, -23.25, -30.64, -23.65, -24.54, -19.89, 0.000, 0.000, 0.000, 17:06:56.335
27, -28.95, -21.84, -27.20, -20.07, -19.11, -25.35, -23.60, -20.54, -21.30, -19.67, -22.84, -23.25, -30.64, -23.65, -24.54, -19.89, -0.124, 0.944, -0.096, 17:06:56.335
28, -28.95, -21.84, -27.20, -20.07, -19.11, -25.35, -23.60, -20.54, -21.52, -19.62, -22.84, -23.45, -30.69, -23.63, -24.48, -19.78, 0.000, 0.000, 0.000, 17:06:56.335
29, -28.88, -21.73, -27.02, -19.87, -18.93, -25.21, -23.60, -20.59, -21.52, -19.62, -22.84, -23.45, -30.69, -23.63, -24.48, -19.78, 0.000, 0.000, 0.000, 17:06:56.335
30, -28.88, -21.73, -27.02, -19.87, -18.93, -25.21, -23.60, -20.59, -21.41, -19.85, -23.00, -23.38, -30.82, -23.56, -24.45, -19.69, 0.000, 0.000, 0.000, 17:06:56.335
31, -28.95, -21.75, -26.87, -19.96, -18.84, -25.21, -23.85, -20.43, -21.41, -19.85, -23.00, -23.38, -30.82, -23.56, -24.45, -19.69, 0.000, 0.000, 0.000, 17:06:56.335
32, -28.95, -21.75, -26.87, -19.96, -18.84, -25.21, -23.85, -20.43, -21.30, -19.60, -22.64, -23.34, -30.89, -23.72, -24.32, -19.80, 0.000, 0.000, 0.000, 17:06:56.335
33, -28.83, -21.64, -27.18, -19.85, -18.95, -25.35, -23.65, -20.45, -21.30, -19.60, -22.64, -23.34, -30.89, -23.72, -24.32, -19.80, 0.000, 0.000, 0.000, 17:06:56.336
34, -28.83, -21.64, -27.18, -19.85, -18.95, -25.35, -23.65, -20.45, -21.37, -19.74, -22.58, -23.22, -30.91, -23.58, -24.50, -19.92, 0.000, 0.000, 0.000, 17:06:56.336
35, -28.99, -21.84, -26.80, -20.18, -18.80, -25.53, -23.69, -20.38, -21.37, -19.74, -22.58, -23.22, -30.91, -23.58, -24.50, -19.92, 0.000, 0.000, 0.000, 17:06:56.336
36, -28.99, -21.84, -26.80, -20.18, -18.80, -25.53, -23.69, -20.38, -21.21, -19.76, -22.87, -23.42, -31.09, -23.60, -24.50, -19.94, 0.000, 0.000, 0.000, 17:06:56.336
37, -28.95, -21.73, -26.91, -20.07, -18.93, -25.55, -23.80, -20.34, -21.21, -19.76, -22.87, -23.42, -31.09, -23.60, -24.50, -19.94, -0.126, 0.944, -0.096, 17:06:56.336
38, -28.95, -21.73, -26.91, -20.07, -18.93, -25.55, -23.80, -20.34, -21.57, -19.62, -22.66, -23.34, -30.80, -23.54, -24.52, -19.89, 0.000, 0.000, 0.000, 17:06:56.337
39, -28.77, -21.77, -27.27, -20.23, -19.02, -25.53, -23.60, -20.43, -21.57, -19.62, -22.66, -23.34, -30.80, -23.54, -24.52, -19.89, 0.000, 0.000, 0.000, 17:06:56.337
40, -28.77, -21.77, -27.27, -20.23, -19.02, -25.53, -23.60, -20.43, -21.32, -19.62, -22.80, -23.27, -30.69, -23.51, -24.74, -19.85, 0.000, 0.000, 0.000, 17:06:56.337
41, -28.81, -21.77, -26.98, -19.78, -19.00, -25.28, -23.83, -20.36, -21.32, -19.62, -22.80, -23.27, -30.69, -23.51, -24.74, -19.85, 0.000, 0.000, 0.000, 17:06:56.337
42, -28.81, -21.77, -26.98, -19.78, -19.00, -25.28, -23.83, -20.36, -21.21, -19.76, -22.87, -23.02, -30.69, -23.60, -24.70, -19.98, 0.000, 0.000, 0.000, 17:06:56.337
43, -29.10, -21.77, -26.91, -19.96, -19.18, -25.59, -23.85, -20.23, -21.21, -19.76, -22.87, -23.02, -30.69, -23.60, -24.70, -19.98, 0.000, 0.000, 0.000, 17:06:56.337
44, -29.10, -21.77, -26.91, -19.96, -19.18, -25.59, -23.85, -20.23, -21.17, -19.71, -22.89, -23.38, -30.73, -23.49, -24.43, -19.92, 0.000, 0.000, 0.000, 17:06:56.338
45, -28.95, -21.70, -26.98, -20.03, -19.13, -25.48, -23.76, -20.41, -21.17, -19.71, -22.89, -23.38, -30.73, -23.49, -24.43, -19.92, 0.000, 0.000, 0.000, 17:06:56.338
46, -28.95, -21.70, -26.98, -20.03, -19.13, -25.48, -23.76, -20.41, -21.12, -19.49, -22.82, -23.18, -30.73, -23.47, -24.39, -19.89, 0.000, 0.000, 0.000, 17:06:56.338
47, -29.03, -21.66, -27.20, -19.69, -19.04, -25.48, -23.83, -20.50, -21.12, -19.49, -22.82, -23.18, -30.73, -23.47, -24.39, -19.89, -0.126, 0.940, -0.098, 17:06:56.338
48, -29.03, -21.66, -27.20, -19.69, -19.04, -25.48, -23.83, -20.50, -21.26, -19.80, -22.80, -23.45, -30.71, -23.63, -24.72, -19.92, 0.000, 0.000, 0.000, 17:06:56.338
49, -29.01, -21.82, -27.22, -19.96, -18.84, -25.46, -23.58, -20.41, -21.26, -19.80, -22.80, -23.45, -30.71, -23.63, -24.72, -19.92, 0.000, 0.000, 0.000, 17:06:56.338
50, -29.01, -21.82, -27.22, -19.96, -18.84, -25.46, -23.58, -20.41, -21.23, -19.78, -22.66, -23.20, -31.00, -23.60, -24.45, -19.78, 0.000, 0.000, 0.000, 17:06:56.339
51, -28.88, -21.79, -27.16, -20.03, -18.89, -25.35, -23.56, -20.32, -21.23, -19.78, -22.66, -23.20, -31.00, -23.60, -24.45, -19.78, 0.000, 0.000, 0.000, 17:06:56.339
52, -28.88, -21.79, -27.16, -20.03, -18.89, -25.35, -23.56, -20.32, -21.21, -19.80, -22.80, -23.22, -31.00, -23.80, -24.54, -19.85, 0.000, 0.000, 0.000, 17:06:56.339
53, -29.10, -21.97, -27.07, -19.85, -19.11, -25.44, -23.87, -20.50, -21.21, -19.80, -22.80, -23.22, -31.00, -23.80, -24.54, -19.85, 0.000, 0.000, 0.000, 17:06:56.573
54, -29.10, -21.97, -27.07, -19.85, -19.11, -25.44, -23.87, -20.50, -21.28, -19.67, -22.71, -23.31, -30.85, -23.87, -24.54, -19.89, 0.000, 0.000, 0.000, 17:06:56.573
55, -28.99, -21.90, -26.98, -20.12, -18.95, -25.53, -23.87, -20.34, -21.28, -19.67, -22.71, -23.31, -30.85, -23.87, -24.54, -19.89, 0.000, 0.000, 0.000, 17:06:56.574
56, -28.99, -21.90, -26.98, -20.12, -18.95, -25.53, -23.87, -20.34, -21.23, -19.80, -22.89, -23.36, -30.93, -23.56, -24.43, -19.89, 0.000, 0.000, 0.000, 17:06:56.574
57, -28.88, -21.68, -27.00, -20.27, -19.29, -25.32, -23.69, -20.38, -21.23, -19.80, -22.89, -23.36, -30.93, -23.56, -24.43, -19.89, -0.128, 0.940, -0.098, 17:06:56.574
58, -28.88, -21.68, -27.00, -20.27, -19.29, -25.32, -23.69, -20.38, -21.46, -19.80, -22.78, -23.29, -30.80, -23.74, -24.63, -20.09, 0.000, 0.000, 0.000, 17:06:56.574
59, -28.97, -21.75, -27.05, -20.03, -19.40, -25.28, -23.67, -20.52, -21.46, -19.80, -22.78, -23.29, -30.80, -23.74, -24.63, -20.09, 0.000, 0.000, 0.000, 17:06:56.574
60, -28.97, -21.75, -27.05, -20.03, -19.40, -25.28, -23.67, -20.52, -21.39, -19.74, -22.51, -23.29, -30.73, -23.36, -24.56, -20.00, 0.000, 0.000, 0.000, 17:06:56.574
61, -28.86, -21.73, -27.00, -20.07, -19.07, -25.62, -23.56, -20.45, -21.39, -19.74, -22.51, -23.29, -30.73, -23.36, -24.56, -20.00, 0.000, 0.000, 0.000, 17:06:56.575
62, -28.86, -21.73, -27.00, -20.07, -19.07, -25.62, -23.56, -20.45, -21.52, -19.74, -22.82, -23.42, -30.82, -23.47, -24.61, -19.76, 0.000, 0.000, 0.000, 17:06:56.575
63, -29.08, -21.79, -26.98, -19.74, -19.18, -25.35, -23.72, -20.47, -21.52, -19.74, -22.82, -23.42, -30.82, -23.47, -24.61, -19.76, 0.000, 0.000, 0.000, 17:06:56.576
64, -29.08, -21.79, -26.98, -19.74, -19.18, -25.35, -23.72, -20.47, -21.57, -19.71, -22.64, -23.11, -30.78, -23.47, -24.32, -19.65, 0.000, 0.000, 0.000, 17:06:56.576
65, -28.86, -21.93, -26.93, -19.92, -18.93, -25.28, -23.56, -20.47, -21.57, -19.71, -22.64, -23.11, -30.78, -23.47, -24.32, -19.65, 0.000, 0.000, 0.000, 17:06:56.576
66, -28.86, -21.93, -26.93, -19.92, -18.93, -25.28, -23.56, -20.47, -21.44, -19.78, -22.87, -23.31, -30.78, -23.56, -24.54, -19.96, -0.132, 0.944, -0.106, 17:06:56.576
67, -28.97, -21.75, -27.00, -19.89, -19.16, -25.28, -23.72, -20.32, -21.44, -19.78, -22.87, -23.31, -30.78, -23.56, -24.54, -19.96, 0.000, 0.000, 0.000, 17:06:56.577
68, -28.97, -21.75, -27.00, -19.89, -19.16, -25.28, -23.72, -20.32, -21.41, -19.65, -22.82, -23.27, -30.67, -23.45, -24.65, -20.03, 0.000, 0.000, 0.000, 17:06:56.577
69, -28.83, -21.79, -26.87, -19.92, -19.11, -25.17, -23.67, -20.38, -21.41, -19.65, -22.82, -23.27, -30.67, -23.45, -24.65, -20.03, 0.000, 0.000, 0.000, 17:06:56.577
70, -28.83, -21.79, -26.87, -19.92, -19.11, -25.17, -23.67, -20.38, -21.21, -19.83, -22.73, -23.18, -30.98, -23.47, -24.59, -19.96, 0.000, 0.000, 0.000, 17:06:56.577
71, -28.92, -21.75, -26.93, -19.71, -19.11, -25.35, -23.60, -20.21, -21.21, -19.83, -22.73, -23.18, -30.98, -23.47, -24.59, -19.96, 0.000, 0.000, 0.000, 17:06:56.577
72, -28.92, -21.75, -26.93, -19.71, -19.11, -25.35, -23.60, -20.21, -21.35, -19.67, -22.78, -23.20, -30.85, -23.58, -24.61, -20.00, 0.000, 0.000, 0.000, 17:06:56.577
73, -28.97, -21.79, -26.87, -19.92, -19.04, -25.44, -23.60, -20.45, -21.35, -19.67, -22.78, -23.20, -30.85, -23.58, -24.61, -20.00, 0.000, 0.000, 0.000, 17:06:56.578
74, -28.97, -21.79, -26.87, -19.92, -19.04, -25.44, -23.60, -20.45, -21.50, -19.67, -22.73, -23.40, -30.80, -23.74, -24.56, -20.07, 0.000, 0.000, 0.000, 17:06:56.578
75, -28.86, -21.99, -27.02, -20.09, -19.00, -25.44, -23.76, -20.74, -21.50, -19.67, -22.73, -23.40, -30.80, -23.74, -24.56, -20.07, 0.000, 0.000, 0.000, 17:06:56.578
76, -28.86, -21.99, -27.02, -20.09, -19.00, -25.44, -23.76, -20.74, -21.44, -19.80, -22.64, -23.18, -30.76, -23.67, -24.65, -19.87, -0.130, 0.948, -0.106, 17:06:56.578
77, -28.79, -21.70, -27.16, -19.96, -19.02, -25.17, -23.89, -20.47, -21.44, -19.80, -22.64, -23.18, -30.76, -23.67, -24.65, -19.87, 0.000, 0.000, 0.000, 17:06:56.578
78, -28.79, -21.70, -27.16, -19.96, -19.02, -25.17, -23.89, -20.47, -21.55, -19.62, -22.60, -23.34, -30.69, -23.42, -24.52, -19.78, 0.000, 0.000, 0.000, 17:06:56.578
79, -28.90, -21.73, -26.82, -19.98, -19.00, -25.26, -23.60, -20.54, -21.55, -19.62, -22.60, -23.34, -30.69, -23.42, -24.52, -19.78, 0.000, 0.000, 0.000, 17:06:56.579
80, -28.90, -21.73, -26.82, -19.98, -19.00, -25.26, -23.60, -20.54, -21.55, -19.76, -22.91, -23.27, -30.82, -23.65, -24.52, -19.89, 0.000, 0.000, 0.000, 17:06:56.579
81, -28.92, -21.79, -27.11, -19.94, -19.09, -25.32, -23.63, -20.41, -21.55, -19.76, -22.91, -23.27, -30.82, -23.65, -24.52, -19.89, 0.000, 0.000, 0.000, 17:06:56.579
82, -28.92, -21.79, -27.11, -19.94, -19.09, -25.32, -23.63, -20.41, -21.37, -19.85, -22.96, -23.31, -30.85, -23.83, -24.34, -19.85, 0.000, 0.000, 0.000, 17:06:56.579
83, -29.03, -21.70, -27.11, -19.80, -18.93, -25.32, -23.78, -20.45, -21.37, -19.85, -22.96, -23.31, -30.85, -23.83, -24.34, -19.85, 0.000, 0.000, 0.000, 17:06:56.579
84, -29.03, -21.70, -27.11, -19.80, -18.93, -25.32, -23.78, -20.45, -21.41, -19.85, -22.91, -23.34, -30.85, -23.80, -24.52, -20.03, 0.000, 0.000, 0.000, 17:06:56.579
85, -29.12, -21.75, -26.98, -19.74, -19.22, -25.26, -23.76, -20.43, -21.41, -19.85, -22.91, -23.34, -30.85, -23.80, -24.52, -20.03, 0.000, 0.000, 0.000, 17:06:56.580
86, -29.12, -21.75, -26.98, -19.74, -19.22, -25.26, -23.76, -20.43, -21.37, -19.58, -22.75, -23.36, -30.67, -23.67, -24.56, -20.00, -0.128, 0.944, -0.108, 17:06:56.580
87, -28.92, -21.88, -26.89, -20.03, -19.02, -25.48, -23.80, -20.47, -21.37, -19.58, -22.75, -23.36, -30.67, -23.67, -24.56, -20.00, 0.000, 0.000, 0.000, 17:06:56.580
88, -28.92, -21.88, -26.89, -20.03, -19.02, -25.48, -23.80, -20.47, -21.32, -19.67, -22.66, -23.20, -30.78, -23.69, -24.54, -19.85, 0.000, 0.000, 0.000, 17:06:56.580
89, -28.81, -21.90, -27.05, -20.00, -19.29, -25.37, -23.87, -20.36, -21.32, -19.67, -22.66, -23.20, -30.78, -23.69, -24.54, -19.85, 0.000, 0.000, 0.000, 17:06:56.580
90, -28.81, -21.90, -27.05, -20.00, -19.29, -25.37, -23.87, -20.36, -21.44, -19.67, -22.80, -23.07, -30.76, -23.49, -24.41, -19.83, 0.000, 0.000, 0.000, 17:06:56.580
91, -28.83, -21.82, -27.02, -20.00, -19.09, -25.41, -23.65, -20.27, -21.44, -19.67, -22.80, -23.07, -30.76, -23.49, -24.41, -19.83, 0.000, 0.000, 0.000, 17:06:56.581
92, -28.83, -21.82, -27.02, -20.00, -19.09, -25.41, -23.65, -20.27, -21.23, -19.87, -22.80, -23.25, -30.98, -23.54, -24.48, -19.87, 0.000, 0.000, 0.000, 17:06:56.581
93, -28.83, -21.73, -27.14, -20.00, -19.11, -25.37, -23.78, -20.50, -21.23, -19.87, -22.80, -23.25, -30.98, -23.54, -24.48, -19.87, 0.000, 0.000, 0.000, 17:06:56.581
94, -28.83, -21.73, -27.14, -20.00, -19.11, -25.37, -23.78, -20.50, -21.44, -19.69, -22.91, -23.16, -30.93, -23.58, -24.45, -19.74, 0.000, 0.000, 0.000, 17:06:56.581
95, -29.06, -21.95, -27.09, -20.12, -18.91, -25.39, -23.76, -20.41, -21.44, -19.69, -22.91, -23.16, -30.93, -23.58, -24.45, -19.74, 0.000, 0.000, 0.000, 17:06:56.581
96, -29.06, -21.95, -27.09, -20.12, -18.91, -25.39, -23.76, -20.41, -21.46, -19.71, -22.93, -23.34, -30.78, -23.56, -24.45, -19.80, -0.130, 0.942, -0.112, 17:06:56.582
97, -28.97, -21.84, -27.02, -19.94, -18.84, -25.57, -23.56, -20.65, -21.46, -19.71, -22.93, -23.34, -30.78, -23.56, -24.45, -19.80, 0.000, 0.000, 0.000, 17:06:56.582
98, -28.97, -21.84, -27.02, -19.94, -18.84, -25.57, -23.56, -20.65, -21.50, -19.51, -22.73, -23.29, -30.78, -23.63, -24.50, -19.83, 0.000, 0.000, 0.000, 17:06:56.582
99, -28.74, -21.88, -26.89, -19.98, -19.09, -25.28, -23.69, -20.32, -21.50, -19.51, -22.73, -23.29, -30.78, -23.63, -24.50, -19.83, 0.000, 0.000, 0.000, 17:06:56.582
100, -28.74, -21.88, -26.89, -19.98, -19.09, -25.28, -23.69, -20.32, -21.37, -19.71, -22.80, -23.31, -30.93, -23.74, -24.43, -19.69, 0.000, 0.000, 0.000, 17:06:56.582
101, -28.99, -21.75, -26.98, -20.00, -19.07, -25.53, -23.51, -20.47, -21.37, -19.71, -22.80, -23.31, -30.93, -23.74, -24.43, -19.69, 0.000, 0.000, 0.000, 17:06:56.583
102, -28.99, -21.75, -26.98, -20.00, -19.07, -25.53, -23.51, -20.47, -21.46, -19.80, -22.75, -23.11, -30.76, -23.54, -24.54, -19.83, 0.000, 0.000, 0.000, 17:06:56.583
103, -28.88, -21.59, -27.09, -20.07, -19.16, -25.41, -23.58, -20.59, -21.46, -19.80, -22.75, -23.11, -30.76, -23.54, -24.54, -19.83, 0.000, 0.000, 0.000, 17:06:56.583
104, -28.88, -21.59, -27.09, -20.07, -19.16, -25.41, -23.58, -20.59, -21.52, -19.67, -22.60, -23.45, -31.18, -23.49, -24.50, -19.85, 0.000, 0.000, 0.000, 17:06:56.583
105, -29.01, -21.82, -27.05, -19.85, -18.91, -25.39, -23.67, -20.52, -21.52, -19.67, -22.60, -23.45, -31.18, -23.49, -24.50, -19.85, 0.000, 0.000, 0.000, 17:06:56.584
106, -29.01, -21.82, -27.05, -19.85, -18.91, -25.39, -23.67, -20.52, -21.30, -19.71, -22.64, -23.42, -31.00, -23.36, -24.61, -19.87, -0.132, 0.944, -0.112, 17:06:56.584
107, -28.86, -21.86, -26.87, -19.83, -19.11, -25.39, -23.80, -20.38, -21.30, -19.71, -22.64, -23.42, -31.00, -23.36, -24.61, -19.87, 0.000, 0.000, 0.000, 17:06:56.585
108, -28.86, -21.86, -26.87, -19.83, -19.11, -25.39, -23.80, -20.38, -21.32, -19.78, -22.96, -23.31, -30.78, -23.56, -24.52, -20.14, 0.000, 0.000, 0.000, 17:06:56.585
109, -28.88, -21.75, -26.82, -19.89, -19.00, -25.41, -23.51, -20.32, -21.32, -19.78, -22.96, -23.31, -30.78, -23.56, -24.52, -20.14, 0.000, 0.000, 0.000, 17:06:56.585
110, -28.88, -21.75, -26.82, -19.89, -19.00, -25.41, -23.51, -20.32, -21.30, -19.60, -22.80, -23.34, -30.62, -23.51, -24.50, -19.89, 0.000, 0.000, 0.000, 17:06:56.585
0, -28.88, -21.75, -26.82, -19.89, -19.00, -25.41, -23.51, -20.32, -10.68, -9.81, -11.44, -11.60, -15.27, -11.80, -12.25, -9.99, -0.130, 0.948, -0.104, 17:06:57.005
1, -14.46, -10.91, -13.55, -10.13, -9.43, -12.79, -11.82, -10.15, -10.68, -9.81, -11.44, -11.60, -15.27, -11.80, -12.25, -9.99, 0.000, 0.000, 0.000, 17:06:57.021
2, -14.46, -10.91, -13.55, -10.13, -9.43, -12.79, -11.82, -10.15, -21.55, -19.65, -22.78, -23.34, -30.87, -23.76, -24.34, -20.14, 0.000, 0.000, 0.000, 17:06:57.351
3, -29.12, -21.66, -26.98, -20.23, -19.02, -25.66, -23.67, -20.56, -21.55, -19.65, -22.78, -23.34, -30.87, -23.76, -24.34, -20.14, 0.000, 0.000, 0.000, 17:06:57.351
4, -29.12, -21.66, -26.98, -20.23, -19.02, -25.66, -23.67, -20.56, -21.57, -19.51, -22.71, -23.27, -30.69, -23.69, -24.41, -19.96, 0.000, 0.000, 0.000, 17:06:57.351
5, -28.95, -21.70, -27.16, -20.03, -19.00, -25.32, -23.69, -20.47, -21.57, -19.51, -22.71, -23.27, -30.69, -23.69, -24.41, -19.96, 0.000, 0.000, 0.000, 17:06:57.351
6, -28.95, -21.70, -27.16, -20.03, -19.00, -25.32, -23.69, -20.47, -21.30, -19.74, -22.66, -23.27, -30.80, -23.69, -24.43, -19.89, 0.000, 0.000, 0.000, 17:06:57.352
7, -28.90, -21.75, -27.29, -19.80, -19.07, -25.44, -23.67, -20.47, -21.30, -19.74, -22.66, -23.27, -30.80, -23.69, -24.43, -19.89, -0.124, 0.946, -0.100, 17:06:57.352
8, -28.90, -21.75, -27.29, -19.80, -19.07, -25.44, -23.67, -20.47, -21.37, -19.65, -22.84, -23.40, -30.89, -23.49, -24.56, -19.76, 0.000, 0.000, 0.000, 17:06:57.352
9, -28.70, -21.93, -26.96, -19.83, -19.22, -25.35, -23.63, -20.54, -21.37, -19.65, -22.84, -23.40, -30.89, -23.49, -24.56, -19.76, 0.000, 0.000, 0.000, 17:06:57.352
10, -28.70, -21.93, -26.96, -19.83, -19.22, -25.35, -23.63, -20.54, -21.46, -19.47, -22.73, -23.34, -30.76, -23.56, -24.59, -19.76, 0.000, 0.000, 0.000, 17:06:57.352
11, -28.90, -21.77, -27.18, -20.00, -19.09, -25.19, -23.72, -20.38, -21.46, -19.47, -22.73, -23.34, -30.76, -23.56, -24.59, -19.76, 0.000, 0.000, 0.000, 17:06:57.352
12, -28.90, -21.77, -27.18, -20.00, -19.09, -25.19, -23.72, -20.38, -21.52, -19.60, -22.87, -23.20, -30.76, -23.45, -24.65, -19.83, 0.000, 0.000, 0.000, 17:06:57.353
13, -28.86, -21.75, -26.93, -20.00, -18.91, -25.30, -23.72, -20.54, -21.52, -19.60, -22.87, -23.20, -30.76, -23.45, -24.65, -19.83, 0.000, 0.000, 0.000, 17:06:57.353
14, -28.86, -21.75, -26.93, -20.00, -18.91, -25.30, -23.72, -20.54, -21.35, -19.74, -22.78, -23.27, -30.89, -23.74, -24.34, -19.83, 0.000, 0.000, 0.000, 17:06:57.353
15, -28.74, -21.66, -26.98, -19.83, -19.11, -25.39, -23.74, -20.61, -21.35, -19.74, -22.78, -23.27, -30.89, -23.74, -24.34, -19.83, 0.000, 0.000, 0.000, 17:06:57.353
16, -28.74, -21.66, -26.98, -19.83, -19.11, -25.39, -23.74, -20.61, -21.19, -19.85, -22.87, -23.42, -30.82, -23.56, -24.48, -19.85, 0.000, 0.000, 0.000, 17:06:57.353
17, -28.79, -21.86, -27.02, -20.03, -18.91, -25.30, -23.60, -20.36, -21.19, -19.85, -22.87, -23.42, -30.82, -23.56, -24.48, -19.85, -0.124, 0.948, -0.108, 17:06:57.353
18, -28.79, -21.86, -27.02, -20.03, -18.91, -25.30, -23.60, -20.36, -21.23, -20.03, -22.73, -23.40, -30.91, -23.58, -24.43, -20.00, 0.000, 0.000, 0.000, 17:06:57.354
19, -28.83, -21.64, -26.80, -19.83, -18.86, -25.35, -23.78, -20.50, -21.23, -20.03, -22.73, -23.40, -30.91, -23.58, -24.43, -20.00, 0.000, 0.000, 0.000, 17:06:57.354
20, -28.83, -21.64, -26.80, -19.83, -18.86, -25.35, -23.78, -20.50, -21.46, -19.54, -22.91, -23.36, -31.05, -23.74, -24.48, -20.16, 0.000, 0.000, 0.000, 17:06:57.354
21, -28.88, -21.70, -27.20, -20.14, -18.82, -25.66, -23.76, -20.41, -21.46, -19.54, -22.91, -23.36, -31.05, -23.74, -24.48, -20.16, 0.000, 0.000, 0.000, 17:06:57.354
22, -28.88, -21.70, -27.20, -20.14, -18.82, -25.66, -23.76, -20.41, -21.48, -19.74, -22.93, -23.31, -30.98, -23.56, -24.32, -20.03, 0.000, 0.000, 0.000, 17:06:57.354
23, -28.99, -21.93, -27.14, -20.00, -19.27, -25.28, -23.80, -20.47, -21.48, -19.74, -22.93, -23.31, -30.98, -23.56, -24.32, -20.03, 0.000, 0.000, 0.000, 17:06:57.355
24, -28.99, -21.93, -27.14, -20.00, -19.27, -25.28, -23.80, -20.47, -21.35, -19.62, -22.78, -23.27, -30.93, -23.60, -24.54, -19.78, 0.000, 0.000, 0.000, 17:06:57.355
25, -28.90, -21.88, -26.82, -20.07, -18.84, -25.08, -23.85, -20.50, -21.35, -19.62, -22.78, -23.27, -30.93, -23.60, -24.54, -19.78, 0.000, 0.000, 0.000, 17:06:57.355
26, -28.90, -21.88, -26.82, -20.07, -18.84, -25.08, -23.85, -20.50, -21.23, -19.71, -22.62, -23.47, -30.87, -23.63, -24.45, -19.98, 0.000, 0.000, 0.000, 17:06:57.355
27, -28.72, -21.82, -26.82, -19.94, -19.13, -25.21, -23.67, -20.45, -21.23, -19.71, -22.62, -23.47, -30.87, -23.63, -24.45, -19.98, -0.124, 0.944, -0.112, 17:06:57.355
28, -28.72, -21.82, -26.82, -19.94, -19.13, -25.21, -23.67, -20.45, -21.21, -19.60, -22.91, -23.34, -30.76, -23.54, -24.61, -20.03, 0.000, 0.000, 0.000, 17:06:57.355
29, -28.81, -21.75, -26.89, -19.89, -18.89, -25.17, -23.65, -20.34, -21.21, -19.60, -22.91, -23.34, -30.76, -23.54, -24.61, -20.03, 0.000, 0.000, 0.000, 17:06:57.356
30, -28.81, -21.75, -26.89, -19.89, -18.89, -25.17, -23.65, -20.34, -21.48, -19.71, -22.73, -23.40, -30.91, -23.76, -24.59, -19.80, 0.000, 0.000, 0.000, 17:06:57.356
31, -28.97, -21.86, -27.02, -19.80, -18.98, -25.21, -23.58, -20.43, -21.48, -19.71, -22.73, -23.40, -30.91, -23.76, -24.59, -19.80, 0.000, 0.000, 0.000, 17:06:57.356
32, -28.97, -21.86, -27.02, -19.80, -18.98, -25.21, -23.58, -20.43, -21.32, -19.67, -22.75, -23.25, -30.71, -23.47, -24.41, -20.09, 0.000, 0.000, 0.000, 17:06:57.356
33, -28.95, -21.95, -26.89, -19.94, -19.16, -25.48, -23.65, -20.45, -21.32, -19.67, -22.75, -23.25, -30.71, -23.47, -24.41, -20.09, 0.000, 0.000, 0.000, 17:06:57.356
34, -28.95, -21.95, -26.89, -19.94, -19.16, -25.48, -23.65, -20.45, -21.37, -19.65, -22.82, -23.00, -30.85, -23.47, -24.45, -19.87, 0.000, 0.000, 0.000, 17:06:57.357
35, -28.74, -21.66, -27.00, -19.98, -18.98, -25.48, -23.80, -20.56, -21.37, -19.65, -22.82, -23.00, -30.85, -23.47, -24.45, -19.87, 0.000, 0.000, 0.000, 17:06:57.357
36, -28.74, -21.66, -27.00, -19.98, -18.98, -25.48, -23.80, -20.56, -21.01, -19.54, -22.80, -23.40, -30.82, -23.51, -24.48, -19.85, 0.000, 0.000, 0.000, 17:06:57.357
37, -28.99, -21.82, -27.18, -19.89, -18.98, -25.26, -23.69, -20.47, -21.01, -19.54, -22.80, -23.40, -30.82, -23.51, -24.48, -19.85, -0.118, 0.952, -0.110, 17:06:57.357
38, -28.99, -21.82, -27.18, -19.89, -18.98, -25.26, -23.69, -20.47, -21.23, -19.83, -22.75, -23.31, -30.67, -23.74, -24.54, -19.89, 0.000, 0.000, 0.000, 17:06:57.357
39, -28.97, -21.68, -26.98, -19.80, -18.91, -25.41, -23.72, -20.54, -21.23, -19.83, -22.75, -23.31, -30.67, -23.74, -24.54, -19.89, 0.000, 0.000, 0.000, 17:06:57.358
40, -28.97, -21.68, -26.98, -19.80, -18.91, -25.41, -23.72, -20.54, -21.35, -19.69, -22.98, -23.47, -30.96, -23.47, -24.45, -19.76, 0.000, 0.000, 0.000, 17:06:57.358
41, -28.81, -21.75, -27.09, -20.07, -18.80, -25.12, -23.78, -20.50, -21.35, -19.69, -22.98, -23.47, -30.96, -23.47, -24.45, -19.76, 0.000, 0.000, 0.000, 17:06:57.358
42, -28.81, -21.75, -27.09, -20.07, -18.80, -25.12, -23.78, -20.50, -21.41, -19.87, -22.82, -23.45, -30.71, -23.47, -24.61, -19.74, 0.000, 0.000, 0.000, 17:06:57.358
43, -28.77, -21.64, -27.02, -19.96, -19.00, -25.30, -23.83, -20.36, -21.41, -19.87, -22.82, -23.45, -30.71, -23.47, -24.61, -19.74, 0.000, 0.000, 0.000, 17:06:57.358
44, -28.77, -21.64, -27.02, -19.96, -19.00, -25.30, -23.83, -20.36, -21.50, -19.80, -22.87, -23.36, -30.64, -23.74, -24.41, -19.80, 0.000, 0.000, 0.000, 17:06:57.359
45, -28.88, -21.86, -27.14, -20.09, -19.04, -25.12, -23.78, -20.50, -21.50, -19.80, -22.87, -23.36, -30.64, -23.74, -24.41, -19.80, 0.000, 0.000, 0.000, 17:06:57.359
46, -28.88, -21.86, -27.14, -20.09, -19.04, -25.12, -23.78, -20.50, -21.10, -19.69, -22.75, -23.31, -30.69, -23.80, -24.54, -19.94, 0.000, 0.000, 0.000, 17:06:57.359
47, -29.24, -21.73, -27.07, -19.87, -18.95, -25.32, -23.83, -20.41, -21.10, -19.69, -22.75, -23.31, -30.69, -23.80, -24.54, -19.94, -0.116, 0.950, -0.110, 17:06:57.359
48, -29.24, -21.73, -27.07, -19.87, -18.95, -25.32, -23.83, -20.41, -21.41, -19.56, -22.84, -23.20, -30.96, -23.60, -24.41, -19.65, 0.000, 0.000, 0.000, 17:06:57.359
49, -28.90, -21.70, -26.87, -19.87, -18.98, -25.30, -23.67, -20.36, -21.41, -19.56, -22.84, -23.20, -30.96, -23.60, -24.41, -19.65, 0.000, 0.000, 0.000, 17:06:57.360
50, -28.90, -21.70, -26.87, -19.87, -18.98, -25.30, -23.67, -20.36, -21.37, -19.78, -22.87, -23.25, -30.78, -23.80, -24.63, -19.80, 0.000, 0.000, 0.000, 17:06:57.360
51, -29.06, -21.82, -26.71, -19.85, -19.20, -25.32, -23.72, -20.61, -21.37, -19.78, -22.87, -23.25, -30.78, -23.80, -24.63, -19.80, 0.000, 0.000, 0.000, 17:06:57.360
52, -29.06, -21.82, -26.71, -19.85, -19.20, -25.32, -23.72, -20.61, -21.32, -19.78, -22.91, -23.31, -30.80, -23.54, -24.72, -19.85, 0.000, 0.000, 0.000, 17:06:57.360
53, -28.95, -21.95, -26.80, -20.03, -19.11, -25.39, -23.56, -20.56, -21.32, -19.78, -22.91, -23.31, -30.80, -23.54, -24.72, -19.85, 0.000, 0.000, 0.000, 17:06:57.360
54, -28.95, -21.95, -26.80, -20.03, -19.11, -25.39, -23.56, -20.56, -21.23, -19.67, -22.93, -23.29, -31.09, -23.76, -24.34, -19.69, 0.000, 0.000, 0.000, 17:06:57.361
55, -28.70, -21.84, -27.16, -19.94, -19.11, -25.46, -23.67, -20.43, -21.23, -19.67, -22.93, -23.29, -31.09, -23.76, -24.34, -19.69, 0.000, 0.000, 0.000, 17:06:57.361
56, -28.70, -21.84, -27.16, -19.94, -19.11, -25.46, -23.67, -20.43, -21.21, -19.71, -23.04, -23.25, -30.71, -23.49, -24.59, -19.89, 0.000, 0.000, 0.000, 17:06:57.361
57, -28.81, -21.79, -27.00, -19.85, -18.82, -25.44, -23.58, -20.54, -21.21, -19.71, -23.04, -23.25, -30.71, -23.49, -24.59, -19.89, -0.116, 0.946, -0.114, 17:06:57.361
58, -28.81, -21.79, -27.00, -19.85, -18.82, -25.44, -23.58, -20.54, -21.48, -19.85, -22.71, -23.36, -30.73, -23.72, -24.72, -19.78, 0.000, 0.000, 0.000, 17:06:57.361
59, -28.86, -21.84, -26.80, -19.92, -19.02, -25.17, -23.51, -20.50, -21.48, -19.85, -22.71, -23.36, -30.73, -23.72, -24.72, -19.78, 0.000, 0.000, 0.000, 17:06:57.361
60, -28.86, -21.84, -26.80, -19.92, -19.02, -25.17, -23.51, -20.50, -21.48, -19.92, -22.73, -23.38, -30.93, -23.65, -24.59, -19.92, 0.000, 0.000, 0.000, 17:06:57.362
61, -28.97, -21.79, -26.84, -20.03, -18.91, -25.32, -23.49, -20.34, -21.48, -19.92, -22.73, -23.38, -30.93, -23.65, -24.59, -19.92, 0.000, 0.000, 0.000, 17:06:57.362
62, -28.97, -21.79, -26.84, -20.03, -18.91, -25.32, -23.49, -20.34, -21.21, -19.76, -22.89, -23.47, -30.69, -23.58, -24.68, -19.80, 0.000, 0.000, 0.000, 17:06:57.362
63, -28.99, -21.48, -27.07, -19.92, -19.02, -25.28, -23.54, -20.38, -21.21, -19.76, -22.89, -23.47, -30.69, -23.58, -24.68, -19.80, 0.000, 0.000, 0.000, 17:06:57.362
64, -28.99, -21.48, -27.07, -19.92, -19.02, -25.28, -23.54, -20.38, -21.41, -19.87, -22.96, -23.18, -30.62, -23.72, -24.48, -19.83, 0.000, 0.000, 0.000, 17:06:57.362
65, -28.95, -21.59, -27.22, -20.16, -18.93, -25.24, -23.69, -20.41, -21.41, -19.87, -22.96, -23.18, -30.62, -23.72, -24.48, -19.83, 0.000, 0.000, 0.000, 17:06:57.363
66, -28.95, -21.59, -27.22, -20.16, -18.93, -25.24, -23.69, -20.41, -21.64, -19.74, -22.98, -23.29, -30.93, -23.65, -24.48, -20.03, -0.118, 0.950, -0.112, 17:06:57.363
67, -29.03, -21.86, -27.14, -19.96, -18.89, -25.12, -23.89, -20.30, -21.64, -19.74, -22.98, -23.29, -30.93, -23.65, -24.48, -20.03, 0.000, 0.000, 0.000, 17:06:57.363
68, -29.03, -21.86, -27.14, -19.96, -18.89, -25.12, -23.89, -20.30, -21.19, -19.71, -22.98, -23.29, -30.80, -23.51, -24.50, -20.16, 0.000, 0.000, 0.000, 17:06:57.363
69, -29.06, -21.75, -27.00, -20.03, -18.84, -25.39, -23.76, -20.63, -21.19, -19.71, -22.98, -23.29, -30.80, -23.51, -24.50, -20.16, 0.000, 0.000, 0.000, 17:06:57.364
70, -29.06, -21.75, -27.00, -20.03, -18.84, -25.39, -23.76, -20.63, -21.37, -19.69, -22.84, -23.47, -30.80, -23.56, -24.50, -19.85, 0.000, 0.000, 0.000, 17:06:57.364
71, -28.83, -21.79, -26.89, -20.09, -19.00, -25.53, -23.67, -20.47, -21.37, -19.69, -22.84, -23.47, -30.80, -23.56, -24.50, -19.85, 0.000, 0.000, 0.000, 17:06:57.364
72, -28.83, -21.79, -26.89, -20.09, -19.00, -25.53, -23.67, -20.47, -21.21, -19.54, -22.78, -23.25, -30.89, -23.45, -24.54, -20.18, 0.000, 0.000, 0.000, 17:06:57.365
73, -28.86, -21.88, -27.07, -19.98, -18.98, -25.39, -23.92, -20.52, -21.21, -19.54, -22.78, -23.25, -30.89, -23.45, -24.54, -20.18, 0.000, 0.000, 0.000, 17:06:57.365
74, -28.86, -21.88, -27.07, -19.98, -18.98, -25.39, -23.92, -20.52, -21.37, -19.87, -22.87, -23.31, -30.91, -23.78, -24.41, -20.07, 0.000, 0.000, 0.000, 17:06:57.365
75, -28.90, -21.66, -27.05, -20.07, -18.91, -25.44, -23.74, -20.43, -21.37, -19.87, -22.87, -23.31, -30.91, -23.78, -24.41, -20.07, 0.000, 0.000, 0.000, 17:06:57.366
76, -28.90, -21.66, -27.05, -20.07, -18.91, -25.44, -23.74, -20.43, -21.44, -19.78, -22.82, -23.34, -30.71, -23.60, -24.65, -19.76, -0.120, 0.950, -0.108, 17:06:57.366
77, -28.95, -21.79, -26.89, -19.94, -19.24, -25.19, -23.58, -20.41, -21.44, -19.78, -22.82, -23.34, -30.71, -23.60, -24.65, -19.76, 0.000, 0.000, 0.000, 17:06:57.367
78, -28.95, -21.79, -26.89, -19.94, -19.24, -25.19, -23.58, -20.41, -21.23, -19.92, -22.84, -23.11, -30.98, -23.58, -24.61, -19.78, 0.000, 0.000, 0.000, 17:06:57.367
79, -28.83, -21.73, -26.89, -20.00, -19.22, -25.21, -23.58, -20.54, -21.23, -19.92, -22.84, -23.11, -30.98, -23.58, -24.61, -19.78, 0.000, 0.000, 0.000, 17:06:57.367
80, -28.83, -21.73, -26.89, -20.00, -19.22, -25.21, -23.58, -20.54, -21.32, -19.69, -22.89, -23.38, -30.87, -23.63, -24.61, -19.87, 0.000, 0.000, 0.000, 17:06:57.367
81, -28.70, -21.68, -27.11, -19.89, -19.27, -25.19, -23.63, -20.50, -21.32, -19.69, -22.89, -23.38, -30.87, -23.63, -24.61, -19.87, 0.000, 0.000, 0.000, 17:06:57.367
82, -28.70, -21.68, -27.11, -19.89, -19.27, -25.19, -23.63, -20.50, -21.21, -19.58, -22.93, -23.65, -30.82, -23.63, -24.74, -19.80, 0.000, 0.000, 0.000, 17:06:57.368
83, -28.68, -21.77, -27.05, -19.89, -18.89, -25.32, -23.76, -20.54, -21.21, -19.58, -22.93, -23.65, -30.82, -23.63, -24.74, -19.80, 0.000, 0.000, 0.000, 17:06:57.438
84, -28.68, -21.77, -27.05, -19.89, -18.89, -25.32, -23.76, -20.54, -21.30, -19.87, -22.84, -23.49, -30.76, -23.69, -24.34, -20.14, 0.000, 0.000, 0.000, 17:06:57.438
85, -28.97, -21.84, -26.89, -19.78, -19.16, -25.35, -23.47, -20.38, -21.30, -19.87, -22.84, -23.49, -30.76, -23.69, -24.34, -20.14, 0.000, 0.000, 0.000, 17:06:57.439
86, -28.97, -21.84, -26.89, -19.78, -19.16, -25.35, -23.47, -20.38, -21.14, -19.71, -22.64, -23.36, -30.85, -23.65, -24.39, -19.83, -0.122, 0.950, -0.106, 17:06:57.439
87, -29.01, -21.66, -26.96, -19.94, -19.04, -25.44, -23.36, -20.21, -21.14, -19.71, -22.64, -23.36, -30.85, -23.65, -24.39, -19.83, 0.000, 0.000, 0.000, 17:06:57.439
88, -29.01, -21.66, -26.96, -19.94, -19.04, -25.44, -23.36, -20.21, -21.26, -19.74, -22.84, -23.45, -30.96, -23.67, -24.54, -20.00, 0.000, 0.000, 0.000, 17:06:57.439
89, -28.95, -21.75, -27.05, -19.98, -18.78, -25.28, -23.58, -20.25, -21.26, -19.74, -22.84, -23.45, -30.96, -23.67, -24.54, -20.00, 0.000, 0.000, 0.000, 17:06:57.440
90, -28.95, -21.75, -27.05, -19.98, -18.78, -25.28, -23.58, -20.25, -21.21, -19.42, -22.93, -23.27, -30.78, -23.83, -24.45, -20.00, 0.000, 0.000, 0.000, 17:06:57.440
91, -28.99, -21.84, -26.98, -19.78, -19.07, -25.28, -23.65, -20.61, -21.21, -19.42, -22.93, -23.27, -30.78, -23.83, -24.45, -20.00, 0.000, 0.000, 0.000, 17:06:57.440
92, -28.99, -21.84, -26.98, -19.78, -19.07, -25.28, -23.65, -20.61, -21.32, -19.71, -22.84, -23.31, -30.69, -23.56, -24.41, -19.94, 0.000, 0.000, 0.000, 17:06:57.440
93, -28.97, -21.68, -26.64, -20.16, -18.66, -25.17, -23.72, -20.52, -21.32, -19.71, -22.84, -23.31, -30.69, -23.56, -24.41, -19.94, 0.000, 0.000, 0.000, 17:06:57.440
94, -28.97, -21.68, -26.64, -20.16, -18.66, -25.17, -23.72, -20.52, -21.52, -19.80, -22.98, -23.20, -30.69, -23.42, -24.43, -19.89, 0.000, 0.000, 0.000, 17:06:57.440
95, -28.90, -21.59, -26.80, -20.00, -18.91, -25.35, -23.65, -20.43, -21.52, -19.80, -22.98, -23.20, -30.69, -23.42, -24.43, -19.89, 0.000, 0.000, 0.000, 17:06:57.441
96, -28.90, -21.59, -26.80, -20.00, -18.91, -25.35, -23.65, -20.43, -21.48, -19.92, -22.87, -23.40, -30.73, -23.47, -24.59, -19.58, -0.124, 0.950, -0.104, 17:06:57.441
97, -28.77, -21.64, -27.07, -20.07, -19.04, -25.37, -23.72, -20.25, -21.48, -19.92, -22.87, -23.40, -30.73, -23.47, -24.59, -19.58, 0.000, 0.000, 0.000, 17:06:57.441
98, -28.77, -21.64, -27.07, -20.07, -19.04, -25.37, -23.72, -20.25, -21.23, -19.65, -22.66, -23.36, -30.78, -23.67, -24.48, -19.80, 0.000, 0.000, 0.000, 17:06:57.441
99, -28.77, -21.70, -27.07, -19.89, -18.95, -25.57, -23.65, -20.43, -21.23, -19.65, -22.66, -23.36, -30.78, -23.67, -24.48, -19.80, 0.000, 0.000, 0.000, 17:06:57.441
100, -28.77, -21.70, -27.07, -19.89, -18.95, -25.57, -23.65, -20.43, -21.35, -19.69, -22.75, -23.29, -31.00, -23.74, -24.36, -20.00, 0.000, 0.000, 0.000, 17:06:57.442
101, -28.63, -21.84, -27.05, -20.14, -18.80, -25.28, -23.72, -20.45, -21.35, -19.69, -22.75, -23.29, -31.00, -23.74, -24.36, -20.00, 0.000, 0.000, 0.000, 17:06:57.442
102, -28.63, -21.84, -27.05, -20.14, -18.80, -25.28, -23.72, -20.45, -21.32, -19.51, -22.84, -23.42, -30.89, -23.78, -24.52, -19.76, 0.000, 0.000, 0.000, 17:06:57.442
103, -28.88, -21.84, -26.89, -19.92, -18.91, -25.32, -23.65, -20.63, -21.32, -19.51, -22.84, -23.42, -30.89, -23.78, -24.52, -19.76, 0.000, 0.000, 0.000, 17:06:57.512
104, -28.88, -21.84, -26.89, -19.92, -18.91, -25.32, -23.65, -20.63, -21.30, -19.78, -22.78, -23.42, -31.07, -23.69, -24.34, -19.89, 0.000, 0.000, 0.000, 17:06:57.512
105, -28.86, -21.84, -26.98, -19.78, -18.98, -25.21, -23.76, -20.43, -21.30, -19.78, -22.78, -23.42, -31.07, -23.69, -24.34, -19.89, 0.000, 0.000, 0.000, 17:06:57.513
106, -28.86, -21.84, -26.98, -19.78, -18.98, -25.21, -23.76, -20.43, -21.48, -19.87, -22.87, -23.27, -31.02, -23.47, -24.48, -19.85, -0.120, 0.944, -0.102, 17:06:57.513
107, -28.81, -21.82, -27.00, -20.03, -19.02, -25.28, -23.63, -20.52, -21.48, -19.87, -22.87, -23.27, -31.02, -23.47, -24.48, -19.85, 0.000, 0.000, 0.000, 17:06:57.513
108, -28.81, -21.82, -27.00, -20.03, -19.02, -25.28, -23.63, -20.52, -21.39, -19.67, -22.93, -23.25, -30.73, -23.54, -24.50, -19.85, 0.000, 0.000, 0.000, 17:06:57.513
109, -28.88, -21.68, -26.87, -20.07, -18.86, -25.17, -23.76, -20.50, -21.39, -19.67, -22.93, -23.25, -30.73, -23.54, -24.50, -19.85, 0.000, 0.000, 0.000, 17:06:57.513
110, -28.88, -21.68, -26.87, -20.07, -18.86, -25.17, -23.76, -20.50, -21.30, -19.85, -22.71, -23.22, -30.76, -23.56, -24.63, -19.65, 0.000, 0.000, 0.000, 17:06:57.513
111, -28.99, -21.73, -27.18, -20.14, -19.11, -25.01, -23.83, -20.41, -21.30, -19.85, -22.71, -23.22, -30.76, -23.56, -24.63, -19.65, 0.000, 0.000, 0.000, 17:06:57.514
112, -28.99, -21.73, -27.18, -20.14, -19.11, -25.01, -23.83, -20.41, -21.26, -19.65, -22.87, -23.42, -30.85, -23.49, -24.48, -19.87, 0.000, 0.000, 0.000, 17:06:57.514
113, -28.88, -21.79, -26.91, -19.98, -19.04, -25.10, -23.54, -20.81, -21.26, -19.65, -22.87, -23.42, -30.85, -23.49, -24.48, -19.87, 0.000, 0.000, 0.000, 17:06:57.514
114, -28.88, -21.79, -26.91, -19.98, -19.04, -25.10, -23.54, -20.81, -21.23, -19.65, -22.87, -23.40, -30.89, -23.47, -24.56, -19.92, 0.000, 0.000, 0.000, 17:06:57.514
115, -28.79, -21.55, -27.09, -19.96, -19.16, -25.32, -23.60, -20.47, -21.23, -19.65, -22.87, -23.40, -30.89, -23.47, -24.56, -19.92, -0.122, 0.942, -0.102, 17:06:57.514
116, -28.79, -21.55, -27.09, -19.96, -19.16, -25.32, -23.60, -20.47, -21.41, -19.92, -22.82, -23.42, -30.96, -23.49, -24.48, -19.89, 0.000, 0.000, 0.000, 17:06:57.514
117, -29.03, -21.79, -27.31, -19.87, -18.95, -25.32, -23.67, -20.47, -21.41, -19.92, -22.82, -23.42, -30.96, -23.49, -24.48, -19.89, 0.000, 0.000, 0.000, 17:06:57.515
118, -29.03, -21.79, -27.31, -19.87, -18.95, -25.32, -23.67, -20.47, -21.39, -19.65, -22.75, -23.47, -30.78, -23.76, -24.50, -19.89, 0.000, 0.000, 0.000, 17:06:57.515
