%OpenBCI Raw EEG Data
%
%Sample Rate = 250.0 Hz
%First Column = SampleIndex
%Last Column = Timestamp 
%Other Columns = EEG data in microvolts followed by Accel Data (in G) interleaved with Aux Data
36, -34164.84, 61136.69, 20927.38, 92237.69, 152437.31, 110033.21, -26796.25, 31010.63, 11700.91, -87029.48, -24905.01, -1683.51, -52786.79, -59682.57, -22717.44, -76216.59, 0.000, 0.000, 0.000, 15:22:15.245
37, -34277.02, 61169.93, 20955.77, 92269.02, 152456.27, 110080.23, -26397.14, 31266.80, 11700.91, -87029.48, -24905.01, -1683.51, -52786.79, -59682.57, -22717.44, -76216.59, 0.000, 0.000, 0.000, 15:22:15.245
38, -34277.02, 61169.93, 20955.77, 92269.02, 152456.27, 110080.23, -26397.14, 31266.80, 11464.28, -87015.38, -24927.16, -1662.99, -52895.96, -59684.12, -22818.25, -76218.41, 0.430, 0.760, -0.416, 15:22:15.245
39, -34200.49, 61167.04, 20942.73, 92260.78, 152431.06, 110075.95, -26927.17, 31021.09, 11464.28, -87015.38, -24927.16, -1662.99, -52895.96, -59684.12, -22818.25, -76218.41, 0.000, 0.000, 0.000, 15:22:15.245
40, -34200.49, 61167.04, 20942.73, 92260.78, 152431.06, 110075.95, -26927.17, 31021.09, 11624.38, -87038.05, -24902.64, -1690.06, -52833.44, -59747.44, -22946.48, -76221.48, 0.000, 0.000, 0.000, 15:22:15.246
41, -34220.25, 61170.02, 20938.35, 92247.14, 152427.52, 110072.80, -26665.83, 31278.74, 11624.38, -87038.05, -24902.64, -1690.06, -52833.44, -59747.44, -22946.48, -76221.48, 0.000, 0.000, 0.000, 15:22:15.246
42, -34220.25, 61170.02, 20938.35, 92247.14, 152427.52, 110072.80, -26665.83, 31278.74, 11622.37, -87002.15, -24906.88, -1653.18, -52857.98, -59654.10, -22635.05, -76212.95, 0.000, 0.000, 0.000, 15:22:15.246
43, -34263.90, 61210.41, 20962.90, 92293.52, 152465.95, 110088.38, -26739.62, 31232.81, 11622.37, -87002.15, -24906.88, -1653.18, -52857.98, -59654.10, -22635.05, -76212.95, 0.000, 0.000, 0.000, 15:22:15.246
44, -34263.90, 61210.41, 20962.90, 92293.52, 152465.95, 110088.38, -26739.62, 31232.81, 11503.06, -86981.99, -24883.30, -1629.55, -52862.39, -59652.16, -22992.03, -76204.11, 0.000, 0.000, 0.000, 15:22:15.246
45, -34142.45, 61190.36, 20956.44, 92271.33, 152448.95, 110102.05, -27015.64, 31212.44, 11503.06, -86981.99, -24883.30, -1629.55, -52862.39, -59652.16, -22992.03, -76204.11, 0.000, 0.000, 0.000, 15:22:15.247
46, -34142.45, 61190.36, 20956.44, 92271.33, 152448.95, 110102.05, -27015.64, 31212.44, 11710.59, -87015.65, -24887.30, -1656.82, -52815.43, -59691.81, -22672.02, -76222.71, 0.000, 0.000, 0.000, 15:22:15.247
47, -34293.70, 61178.85, 20942.49, 92253.55, 152433.59, 110079.43, -26603.29, 31488.44, 11710.59, -87015.65, -24887.30, -1656.82, -52815.43, -59691.81, -22672.02, -76222.71, 0.436, 0.752, -0.416, 15:22:15.247
48, -34293.70, 61178.85, 20942.49, 92253.55, 152433.59, 110079.43, -26603.29, 31488.44, 11486.43, -87005.80, -24925.32, -1640.82, -52909.08, -59687.52, -22759.64, -76241.48, 0.000, 0.000, 0.000, 15:22:15.247
49, -34218.91, 61174.62, 20924.70, 92235.79, 152423.30, 110083.37, -27136.04, 31247.71, 11486.43, -87005.80, -24925.32, -1640.82, -52909.08, -59687.52, -22759.64, -76241.48, 0.000, 0.000, 0.000, 15:22:15.248
50, -34218.91, 61174.62, 20924.70, 92235.79, 152423.30, 110083.37, -27136.04, 31247.71, 11681.76, -87027.38, -24900.33, -1659.82, -52855.30, -59731.35, -22865.68, -76251.05, 0.000, 0.000, 0.000, 15:22:15.248
51, -34251.54, 61172.39, 20925.26, 92221.84, 152415.42, 110105.92, -26849.83, 31536.34, 11681.76, -87027.38, -24900.33, -1659.82, -52855.30, -59731.35, -22865.68, -76251.05, 0.000, 0.000, 0.000, 15:22:15.249
52, -34251.54, 61172.39, 20925.26, 92221.84, 152415.42, 110105.92, -26849.83, 31536.34, 11689.25, -87010.80, -24913.21, -1631.32, -52869.63, -59689.80, -22551.03, -76251.21, 0.000, 0.000, 0.000, 15:22:15.249
53, -34320.32, 61181.95, 20930.51, 92243.05, 152434.09, 110087.88, -26933.16, 31485.67, 11689.25, -87010.80, -24913.21, -1631.32, -52869.63, -59689.80, -22551.03, -76251.21, 0.000, 0.000, 0.000, 15:22:15.249
54, -34320.32, 61181.95, 20930.51, 92243.05, 152434.09, 110087.88, -26933.16, 31485.67, 11567.74, -87008.48, -24902.93, -1615.29, -52895.36, -59701.91, -22926.14, -76258.25, 0.000, 0.000, 0.000, 15:22:15.249
55, -34188.33, 61178.46, 20933.57, 92241.66, 152423.27, 110121.19, -27194.72, 31471.12, 11567.74, -87008.48, -24902.93, -1615.29, -52895.36, -59701.91, -22926.14, -76258.25, 0.000, 0.000, 0.000, 15:22:15.250
56, -34188.33, 61178.46, 20933.57, 92241.66, 152423.27, 110121.19, -27194.72, 31471.12, 11791.10, -86997.16, -24880.06, -1597.37, -52830.71, -59670.37, -22636.59, -76240.10, 0.000, 0.000, 0.000, 15:22:15.250
57, -34307.80, 61190.02, 20945.21, 92255.86, 152431.56, 110109.38, -26799.43, 31718.40, 11791.10, -86997.16, -24880.06, -1597.37, -52830.71, -59670.37, -22636.59, -76240.10, 0.446, 0.754, -0.418, 15:22:15.250
58, -34307.80, 61190.02, 20945.21, 92255.86, 152431.56, 110109.38, -26799.43, 31718.40, 11551.07, -86982.30, -24898.75, -1566.68, -52914.49, -59699.59, -22731.54, -76251.92, 0.000, 0.000, 0.000, 15:22:15.250
59, -34228.77, 61181.26, 20932.95, 92249.42, 152426.84, 110138.82, -27312.94, 31483.68, 11551.07, -86982.30, -24898.75, -1566.68, -52914.49, -59699.59, -22731.54, -76251.92, 0.000, 0.000, 0.000, 15:22:15.250
60, -34228.77, 61181.26, 20932.95, 92249.42, 152426.84, 110138.82, -27312.94, 31483.68, 11704.13, -86993.59, -24869.33, -1574.19, -52851.14, -59688.43, -22868.20, -76241.26, 0.000, 0.000, 0.000, 15:22:15.251
61, -34266.43, 61177.59, 20933.95, 92235.16, 152424.98, 110162.16, -27048.34, 31735.74, 11704.13, -86993.59, -24869.33, -1574.19, -52851.14, -59688.43, -22868.20, -76241.26, 0.000, 0.000, 0.000, 15:22:15.251
62, -34266.43, 61177.59, 20933.95, 92235.16, 152424.98, 110162.16, -27048.34, 31735.74, 11707.75, -86994.73, -24882.92, -1552.37, -52875.57, -59696.48, -22577.72, -76242.96, 0.000, 0.000, 0.000, 15:22:15.251
63, -34325.24, 61198.58, 20943.07, 92254.43, 152434.59, 110144.85, -27122.43, 31689.68, 11707.75, -86994.73, -24882.92, -1552.37, -52875.57, -59696.48, -22577.72, -76242.96, 0.000, 0.000, 0.000, 15:22:15.251
64, -34325.24, 61198.58, 20943.07, 92254.43, 152434.59, 110144.85, -27122.43, 31689.68, 11592.75, -86990.28, -24870.54, -1539.30, -52914.54, -59704.21, -22949.25, -76248.68, 0.000, 0.000, 0.000, 15:22:15.251
65, -34212.96, 61184.14, 20933.62, 92224.68, 152407.53, 110154.22, -27353.42, 31701.21, 11592.75, -86990.28, -24870.54, -1539.30, -52914.54, -59704.21, -22949.25, -76248.68, 0.000, 0.000, 0.000, 15:22:15.251
66, -34212.96, 61184.14, 20933.62, 92224.68, 152407.53, 110154.22, -27353.42, 31701.21, 11820.47, -87017.13, -24866.29, -1562.43, -52847.75, -59747.51, -22665.09, -76253.13, 0.000, 0.000, 0.000, 15:22:15.252
67, -34362.57, 61185.37, 20934.62, 92230.88, 152418.84, 110129.12, -26943.33, 31964.51, 11820.47, -87017.13, -24866.29, -1562.43, -52847.75, -59747.51, -22665.09, -76253.13, 0.446, 0.762, -0.422, 15:22:15.252
68, -34362.57, 61185.37, 20934.62, 92230.88, 152418.84, 110129.12, -26943.33, 31964.51, 11587.95, -86991.84, -24897.05, -1537.91, -52960.45, -59712.95, -22788.50, -76256.77, 0.000, 0.000, 0.000, 15:22:15.252
69, -34270.50, 61193.08, 20925.48, 92243.45, 152418.59, 110167.23, -27452.01, 31745.04, 11587.95, -86991.84, -24897.05, -1537.91, -52960.45, -59712.95, -22788.50, -76256.77, 0.000, 0.000, 0.000, 15:22:15.252
70, -34270.50, 61193.08, 20925.48, 92243.45, 152418.59, 110167.23, -27452.01, 31745.04, 11772.51, -86984.20, -24854.87, -1537.67, -52865.43, -59730.25, -22928.17, -76229.19, 0.000, 0.000, 0.000, 15:22:15.252
71, -34296.54, 61195.99, 20920.63, 92230.05, 152410.55, 110209.23, -27181.49, 32015.88, 11772.51, -86984.20, -24854.87, -1537.67, -52865.43, -59730.25, -22928.17, -76229.19, 0.000, 0.000, 0.000, 15:22:15.253
72, -34296.54, 61195.99, 20920.63, 92230.05, 152410.55, 110209.23, -27181.49, 32015.88, 11751.07, -86978.70, -24879.93, -1527.14, -52878.19, -59698.47, -22666.99, -76261.47, 0.000, 0.000, 0.000, 15:22:15.253
73, -34369.34, 61203.70, 20910.62, 92231.66, 152411.95, 110162.09, -27276.26, 31958.43, 11751.07, -86978.70, -24879.93, -1527.14, -52878.19, -59698.47, -22666.99, -76261.47, 0.000, 0.000, 0.000, 15:22:15.255
74, -34369.34, 61203.70, 20910.62, 92231.66, 152411.95, 110162.09, -27276.26, 31958.43, 11587.95, -86975.51, -24873.18, -1520.90, -52930.29, -59700.84, -23070.17, -76277.90, 0.000, 0.000, 0.000, 15:22:15.255
75, -34259.97, 61193.82, 20906.26, 92209.08, 152406.75, 110190.32, -27539.72, 31945.18, 11587.95, -86975.51, -24873.18, -1520.90, -52930.29, -59700.84, -23070.17, -76277.90, 0.000, 0.000, 0.000, 15:22:15.256
76, -34259.97, 61193.82, 20906.26, 92209.08, 152406.75, 110190.32, -27539.72, 31945.18, 11807.87, -86985.14, -24851.05, -1523.38, -52853.67, -59730.68, -22800.37, -76275.17, 0.000, 0.000, 0.000, 15:22:15.256
77, -34406.89, 61206.34, 20913.63, 92229.95, 152407.69, 110184.35, -27126.86, 32218.85, 11807.87, -86985.14, -24851.05, -1523.38, -52853.67, -59730.68, -22800.37, -76275.17, 0.442, 0.760, -0.426, 15:22:15.256
78, -34406.89, 61206.34, 20913.63, 92229.95, 152407.69, 110184.35, -27126.86, 32218.85, 11580.30, -86961.36, -24870.67, -1489.99, -52949.98, -59693.30, -22868.36, -76271.52, 0.000, 0.000, 0.000, 15:22:15.256
79, -34328.37, 61209.80, 20920.92, 92247.68, 152420.14, 110174.67, -27612.34, 32025.94, 11580.30, -86961.36, -24870.67, -1489.99, -52949.98, -59693.30, -22868.36, -76271.52, 0.000, 0.000, 0.000, 15:22:15.257
80, -34328.37, 61209.80, 20920.92, 92247.68, 152420.14, 110174.67, -27612.34, 32025.94, 11770.79, -86961.41, -24822.24, -1485.74, -52865.54, -59711.70, -22990.45, -76243.43, 0.000, 0.000, 0.000, 15:22:15.257
81, -34352.53, 61207.23, 20926.46, 92244.26, 152417.88, 110193.80, -27371.50, 32268.65, 11770.79, -86961.41, -24822.24, -1485.74, -52865.54, -59711.70, -22990.45, -76243.43, 0.000, 0.000, 0.000, 15:22:15.257
82, -34352.53, 61207.23, 20926.46, 92244.26, 152417.88, 110193.80, -27371.50, 32268.65, 11774.47, -86958.92, -24847.18, -1480.69, -52905.08, -59710.76, -22709.84, -76246.18, 0.000, 0.000, 0.000, 15:22:15.257
83, -34399.89, 61221.70, 20937.97, 92275.27, 152435.22, 110192.76, -27456.64, 32223.08, 11774.47, -86958.92, -24847.18, -1480.69, -52905.08, -59710.76, -22709.84, -76246.18, 0.000, 0.000, 0.000, 15:22:15.258
84, -34399.89, 61221.70, 20937.97, 92275.27, 152435.22, 110192.76, -27456.64, 32223.08, 11651.27, -86939.45, -24828.88, -1464.33, -52919.50, -59680.05, -23092.28, -76226.58, 0.000, 0.000, 0.000, 15:22:15.258
85, -34283.30, 61199.30, 20930.26, 92245.02, 152414.23, 110218.91, -27708.05, 32225.31, 11651.27, -86939.45, -24828.88, -1464.33, -52919.50, -59680.05, -23092.28, -76226.58, 0.000, 0.000, 0.000, 15:22:15.258
86, -34283.30, 61199.30, 20930.26, 92245.02, 152414.23, 110218.91, -27708.05, 32225.31, 11866.25, -86963.52, -24826.24, -1484.51, -52866.48, -59724.64, -22787.94, -76234.29, 0.000, 0.000, 0.000, 15:22:15.258
87, -34435.59, 61212.02, 20937.73, 92248.02, 152423.64, 110205.61, -27300.11, 32490.88, 11866.25, -86963.52, -24826.24, -1484.51, -52866.48, -59724.64, -22787.94, -76234.29, 0.446, 0.762, -0.428, 15:22:15.258
88, -34435.59, 61212.02, 20937.73, 92248.02, 152423.64, 110205.61, -27300.11, 32490.88, 11622.64, -86943.57, -24845.10, -1451.66, -52972.00, -59752.07, -22907.63, -76250.47, 0.000, 0.000, 0.000, 15:22:15.258
89, -34365.38, 61224.33, 20939.02, 92242.38, 152419.00, 110209.41, -27837.15, 32244.67, 11622.64, -86943.57, -24845.10, -1451.66, -52972.00, -59752.07, -22907.63, -76250.47, 0.000, 0.000, 0.000, 15:22:15.259
90, -34365.38, 61224.33, 20939.02, 92242.38, 152419.00, 110209.41, -27837.15, 32244.67, 11809.12, -86958.12, -24801.23, -1457.98, -52860.93, -59665.50, -22988.61, -76244.34, 0.000, 0.000, 0.000, 15:22:15.259
91, -34401.55, 61222.59, 20935.63, 92230.67, 152412.52, 110214.88, -27525.01, 32553.73, 11809.12, -86958.12, -24801.23, -1457.98, -52860.93, -59665.50, -22988.61, -76244.34, 0.000, 0.000, 0.000, 15:22:15.259
92, -34401.55, 61222.59, 20935.63, 92230.67, 152412.52, 110214.88, -27525.01, 32553.73, 11775.28, -86959.28, -24830.33, -1448.80, -52927.50, -59710.36, -22677.32, -76269.40, 0.000, 0.000, 0.000, 15:22:15.259
93, -34482.21, 61216.55, 20919.47, 92235.23, 152414.73, 110191.30, -27609.54, 32508.64, 11775.28, -86959.28, -24830.33, -1448.80, -52927.50, -59710.36, -22677.32, -76269.40, 0.000, 0.000, 0.000, 15:22:15.259
94, -34482.21, 61216.55, 20919.47, 92235.23, 152414.73, 110191.30, -27609.54, 32508.64, 11628.07, -86965.16, -24839.00, -1456.51, -52951.62, -59730.03, -23038.90, -76286.39, 0.000, 0.000, 0.000, 15:22:15.259
95, -34375.84, 61210.03, 20922.86, 92218.29, 152406.45, 110236.03, -27853.63, 32507.17, 11628.07, -86965.16, -24839.00, -1456.51, -52951.62, -59730.03, -23038.90, -76286.39, 0.000, 0.000, 0.000, 15:22:15.260
96, -34375.84, 61210.03, 20922.86, 92218.29, 152406.45, 110236.03, -27853.63, 32507.17, 11847.05, -86976.54, -24817.74, -1465.16, -52865.94, -59775.49, -22762.86, -76273.02, 0.444, 0.766, -0.432, 15:22:15.260
97, -34515.41, 61211.32, 20917.68, 92214.91, 152414.27, 110214.77, -27459.56, 32753.73, 11847.05, -86976.54, -24817.74, -1465.16, -52865.94, -59775.49, -22762.86, -76273.02, 0.000, 0.000, 0.000, 15:22:15.260
98, -34515.41, 61211.32, 20917.68, 92214.91, 152414.27, 110214.77, -27459.56, 32753.73, 11593.18, -86955.46, -24861.17, -1446.36, -52996.75, -59687.85, -22859.26, -76297.72, 0.000, 0.000, 0.000, 15:22:15.260
99, -34430.83, 61206.20, 20915.46, 92226.91, 152408.94, 110218.57, -27956.64, 32542.35, 11593.18, -86955.46, -24861.17, -1446.36, -52996.75, -59687.85, -22859.26, -76297.72, 0.000, 0.000, 0.000, 15:22:15.260
100, -34430.83, 61206.20, 20915.46, 92226.91, 152408.94, 110218.57, -27956.64, 32542.35, 11795.53, -86967.82, -24813.56, -1448.97, -52907.85, -59724.17, -22950.26, -76290.34, 0.000, 0.000, 0.000, 15:22:15.260
101, -34480.07, 61191.56, 20908.49, 92199.58, 152395.50, 110164.34, -27677.61, 32804.58, 11795.53, -86967.82, -24813.56, -1448.97, -52907.85, -59724.17, -22950.26, -76290.34, 0.000, 0.000, 0.000, 15:22:15.261
102, -34480.07, 61191.56, 20908.49, 92199.58, 152395.50, 110164.34, -27677.61, 32804.58, 11769.00, -86978.32, -24849.19, -1448.48, -52948.93, -59748.25, -22647.70, -76310.95, 0.000, 0.000, 0.000, 15:22:15.261
103, -34547.68, 61196.01, 20907.37, 92235.99, 152396.61, 110250.60, -27730.20, 32778.27, 11769.00, -86978.32, -24849.19, -1448.48, -52948.93, -59748.25, -22647.70, -76310.95, 0.000, 0.000, 0.000, 15:22:15.261
104, -34547.68, 61196.01, 20907.37, 92235.99, 152396.61, 110250.60, -27730.20, 32778.27, 11630.51, -86948.87, -24835.13, -1422.96, -52992.81, -59689.39, -23006.40, -76289.95, 0.000, 0.000, 0.000, 15:22:15.261
105, -34432.17, 61197.35, 20917.61, 92225.84, 152415.36, 110271.84, -27963.15, 32781.85, 11630.51, -86948.87, -24835.13, -1422.96, -52992.81, -59689.39, -23006.40, -76289.95, 0.000, 0.000, 0.000, 15:22:15.261
106, -34432.17, 61197.35, 20917.61, 92225.84, 152415.36, 110271.84, -27963.15, 32781.85, 11862.03, -86962.52, -24808.69, -1423.76, -52882.75, -59755.91, -22724.15, -76278.25, 0.444, 0.766, -0.430, 15:22:15.261
107, -34554.34, 61210.59, 20931.49, 92237.98, 152412.77, 110251.88, -27556.26, 33033.35, 11862.03, -86962.52, -24808.69, -1423.76, -52882.75, -59755.91, -22724.15, -76278.25, 0.000, 0.000, 0.000, 15:22:15.262
108, -34554.34, 61210.59, 20931.49, 92237.98, 152412.77, 110251.88, -27556.26, 33033.35, 11620.02, -86931.25, -24838.15, -1391.42, -53021.62, -59694.71, -22845.14, -76291.46, 0.000, 0.000, 0.000, 15:22:15.262
109, -34459.95, 61207.66, 20929.12, 92243.63, 152403.00, 110265.69, -28058.48, 32809.39, 11620.02, -86931.25, -24838.15, -1391.42, -53021.62, -59694.71, -22845.14, -76291.46, 0.000, 0.000, 0.000, 15:22:15.262
110, -34459.95, 61207.66, 20929.12, 92243.63, 152403.00, 110265.69, -28058.48, 32809.39, 11828.21, -86929.44, -24785.31, -1386.79, -52862.59, -59689.71, -22940.73, -76255.23, 0.000, 0.000, 0.000, 15:22:15.262
111, -34482.46, 61219.97, 20953.13, 92242.12, 152408.16, 110297.59, -27745.11, 33097.77, 11828.21, -86929.44, -24785.31, -1386.79, -52862.59, -59689.71, -22940.73, -76255.23, 0.000, 0.000, 0.000, 15:22:15.262
112, -34482.46, 61219.97, 20953.13, 92242.12, 152408.16, 110297.59, -27745.11, 33097.77, 11810.26, -86935.27, -24814.75, -1383.01, -52928.46, -59724.91, -22674.64, -76276.15, 0.000, 0.000, 0.000, 15:22:15.262
113, -34556.78, 61218.25, 20943.85, 92253.00, 152417.39, 110279.63, -27830.33, 33028.57, 11810.26, -86935.27, -24814.75, -1383.01, -52928.46, -59724.91, -22674.64, -76276.15, 0.000, 0.000, 0.000, 15:22:15.263
114, -34556.78, 61218.25, 20943.85, 92253.00, 152417.39, 110279.63, -27830.33, 33028.57, 11681.78, -86916.90, -24805.43, -1371.68, -52978.48, -59738.84, -23058.80, -76276.58, 0.000, 0.000, 0.000, 15:22:15.263
115, -34458.32, 61185.35, 20915.33, 92218.73, 152383.34, 110291.51, -28067.26, 33014.46, 11681.78, -86916.90, -24805.43, -1371.68, -52978.48, -59738.84, -23058.80, -76276.58, 0.000, 0.000, 0.000, 15:22:15.263
116, -34458.32, 61185.35, 20915.33, 92218.73, 152383.34, 110291.51, -28067.26, 33014.46, 11898.55, -86940.59, -24798.66, -1390.59, -52906.73, -59720.08, -22745.65, -76287.89, 0.448, 0.762, -0.430, 15:22:15.263
117, -34593.70, 61204.66, 20933.17, 92244.93, 152411.94, 110281.65, -27638.31, 33276.56, 11898.55, -86940.59, -24798.66, -1390.59, -52906.73, -59720.08, -22745.65, -76287.89, 0.000, 0.000, 0.000, 15:22:15.263
118, -34593.70, 61204.66, 20933.17, 92244.93, 152411.94, 110281.65, -27638.31, 33276.56, 11668.15, -86909.39, -24806.55, -1348.12, -53008.86, -59711.57, -22843.59, -76288.13, 0.000, 0.000, 0.000, 15:22:15.263
119, -34510.15, 61212.39, 20932.38, 92254.01, 152403.27, 110284.33, -28151.28, 33030.58, 11668.15, -86909.39, -24806.55, -1348.12, -53008.86, -59711.57, -22843.59, -76288.13, 0.000, 0.000, 0.000, 15:22:15.264
120, -34510.15, 61212.39, 20932.38, 92254.01, 152403.27, 110284.33, -28151.28, 33030.58, 11860.13, -86930.34, -24777.13, -1372.02, -52925.64, -59756.71, -22943.97, -76292.89, 0.000, 0.000, 0.000, 15:22:15.264
121, -34553.36, 61217.49, 20942.96, 92240.70, 152418.22, 110280.84, -27828.59, 33312.91, 11860.13, -86930.34, -24777.13, -1372.02, -52925.64, -59756.71, -22943.97, -76292.89, 0.000, 0.000, 0.000, 15:22:15.264
122, -34553.36, 61217.49, 20942.96, 92240.70, 152418.22, 110280.84, -27828.59, 33312.91, 11871.93, -86906.89, -24778.45, -1345.80, -52918.04, -59717.87, -22648.60, -76287.71, 0.000, 0.000, 0.000, 15:22:15.264
123, -34629.76, 61220.73, 20935.69, 92257.27, 152420.94, 110265.76, -27940.75, 33205.28, 11871.93, -86906.89, -24778.45, -1345.80, -52918.04, -59717.87, -22648.60, -76287.71, 0.000, 0.000, 0.000, 15:22:15.264
124, -34629.76, 61220.73, 20935.69, 92257.27, 152420.94, 110265.76, -27940.75, 33205.28, 11723.45, -86919.12, -24792.33, -1357.00, -52992.48, -59729.09, -23042.41, -76304.96, 0.000, 0.000, 0.000, 15:22:15.265
125, -34526.36, 61208.26, 20921.86, 92219.67, 152414.39, 110247.83, -28179.89, 33177.45, 11723.45, -86919.12, -24792.33, -1357.00, -52992.48, -59729.09, -23042.41, -76304.96, 0.000, 0.000, 0.000, 15:22:15.265
126, -34526.36, 61208.26, 20921.86, 92219.67, 152414.39, 110247.83, -28179.89, 33177.45, 11971.48, -86930.65, -24779.03, -1365.76, -52899.47, -59759.02, -22756.13, -76306.41, 0.446, 0.764, -0.426, 15:22:15.265
127, -34640.78, 61236.45, 20938.64, 92256.66, 152408.11, 110324.92, -27751.66, 33418.41, 11971.48, -86930.65, -24779.03, -1365.76, -52899.47, -59759.02, -22756.13, -76306.41, 0.000, 0.000, 0.000, 15:22:15.265
128, -34640.78, 61236.45, 20938.64, 92256.66, 152408.11, 110324.92, -27751.66, 33418.41, 11759.68, -86876.80, -24776.08, -1303.80, -52977.61, -59672.02, -22853.25, -76274.54, 0.000, 0.000, 0.000, 15:22:15.266
129, -34538.81, 61261.48, 20958.22, 92281.77, 152438.89, 110354.29, -28277.30, 33143.55, 11759.68, -86876.80, -24776.08, -1303.80, -52977.61, -59672.02, -22853.25, -76274.54, 0.000, 0.000, 0.000, 15:22:15.266
130, -34538.81, 61261.48, 20958.22, 92281.77, 152438.89, 110354.29, -28277.30, 33143.55, 11937.44, -86900.27, -24743.18, -1323.22, -52888.18, -59711.77, -22962.01, -76270.77, 0.000, 0.000, 0.000, 15:22:15.266
131, -34594.62, 61241.18, 20941.42, 92247.21, 152408.69, 110343.85, -27983.40, 33374.73, 11937.44, -86900.27, -24743.18, -1323.22, -52888.18, -59711.77, -22962.01, -76270.77, 0.000, 0.000, 0.000, 15:22:15.266
132, -34594.62, 61241.18, 20941.42, 92247.21, 152408.69, 110343.85, -27983.40, 33374.73, 11895.37, -86914.71, -24782.99, -1326.35, -52938.92, -59746.12, -22683.87, -76296.09, 0.000, 0.000, 0.000, 15:22:15.266
133, -34665.23, 61244.09, 20941.66, 92257.41, 152422.64, 110329.37, -28072.99, 33271.98, 11895.37, -86914.71, -24782.99, -1326.35, -52938.92, -59746.12, -22683.87, -76296.09, 0.000, 0.000, 0.000, 15:22:15.266
134, -34665.23, 61244.09, 20941.66, 92257.41, 152422.64, 110329.37, -28072.99, 33271.98, 11749.06, -86896.85, -24767.79, -1312.18, -52969.79, -59735.77, -23085.46, -76282.30, 0.000, 0.000, 0.000, 15:22:15.267
135, -34538.00, 61240.92, 20950.96, 92250.85, 152417.81, 110364.08, -28308.93, 33222.98, 11749.06, -86896.85, -24767.79, -1312.18, -52969.79, -59735.77, -23085.46, -76282.30, 0.000, 0.000, 0.000, 15:22:15.267
136, -34538.00, 61240.92, 20950.96, 92250.85, 152417.81, 110364.08, -28308.93, 33222.98, 11959.55, -86907.63, -24755.36, -1323.74, -52873.61, -59693.37, -22819.99, -76279.26, 0.438, 0.762, -0.426, 15:22:15.267
137, -34681.75, 61223.75, 20937.01, 92240.70, 152414.38, 110349.13, -27876.98, 33450.32, 11959.55, -86907.63, -24755.36, -1323.74, -52873.61, -59693.37, -22819.99, -76279.26, 0.000, 0.000, 0.000, 15:22:15.267
138, -34681.75, 61223.75, 20937.01, 92240.70, 152414.38, 110349.13, -27876.98, 33450.32, 11688.02, -86894.77, -24795.66, -1311.38, -53011.21, -59735.73, -22957.52, -76292.83, 0.000, 0.000, 0.000, 15:22:15.267
139, -34601.93, 61218.70, 20931.96, 92250.70, 152424.86, 110368.20, -28409.98, 33151.17, 11688.02, -86894.77, -24795.66, -1311.38, -53011.21, -59735.73, -22957.52, -76292.83, 0.000, 0.000, 0.000, 15:22:15.267
140, -34601.93, 61218.70, 20931.96, 92250.70, 152424.86, 110368.20, -28409.98, 33151.17, 11867.88, -86908.81, -24760.55, -1330.49, -52952.38, -59713.69, -23083.27, -76280.09, 0.000, 0.000, 0.000, 15:22:15.268
141, -34649.11, 61206.52, 20930.13, 92224.81, 152406.19, 110358.59, -28096.52, 33381.39, 11867.88, -86908.81, -24760.55, -1330.49, -52952.38, -59713.69, -23083.27, -76280.09, 0.000, 0.000, 0.000, 15:22:15.268
142, -34649.11, 61206.52, 20930.13, 92224.81, 152406.19, 110358.59, -28096.52, 33381.39, 11855.66, -86910.73, -24777.04, -1325.93, -52950.50, -59737.23, -22802.33, -76302.69, 0.000, 0.000, 0.000, 15:22:15.268
143, -34709.78, 61219.93, 20946.18, 92243.26, 152431.45, 110349.40, -28171.82, 33276.20, 11855.66, -86910.73, -24777.04, -1325.93, -52950.50, -59737.23, -22802.33, -76302.69, 0.000, 0.000, 0.000, 15:22:15.268
144, -34709.78, 61219.93, 20946.18, 92243.26, 152431.45, 110349.40, -28171.82, 33276.20, 11726.80, -86889.90, -24754.71, -1310.62, -52977.23, -59722.79, -23201.11, -76289.54, 0.000, 0.000, 0.000, 15:22:15.268
145, -34591.11, 61207.34, 20944.21, 92231.43, 152426.22, 110399.02, -28407.68, 33214.71, 11726.80, -86889.90, -24754.71, -1310.62, -52977.23, -59722.79, -23201.11, -76289.54, 0.000, 0.000, 0.000, 15:22:15.268
146, -34591.11, 61207.34, 20944.21, 92231.43, 152426.22, 110399.02, -28407.68, 33214.71, 11913.14, -86924.37, -24767.16, -1338.27, -52948.35, -59745.94, -22901.24, -76295.02, 0.438, 0.764, -0.420, 15:22:15.269
147, -34735.50, 61206.07, 20930.78, 92227.36, 152416.42, 110369.45, -27963.51, 33448.58, 11913.14, -86924.37, -24767.16, -1338.27, -52948.35, -59745.94, -22901.24, -76295.02, 0.000, 0.000, 0.000, 15:22:15.269
148, -34735.50, 61206.07, 20930.78, 92227.36, 152416.42, 110369.45, -27963.51, 33448.58, 11697.58, -86874.16, -24776.33, -1286.70, -53035.26, -59714.09, -23019.55, -76295.48, 0.000, 0.000, 0.000, 15:22:15.269
149, -34621.11, 61208.48, 20950.78, 92259.98, 152432.86, 110389.34, -28469.97, 33172.71, 11697.58, -86874.16, -24776.33, -1286.70, -53035.26, -59714.09, -23019.55, -76295.48, 0.000, 0.000, 0.000, 15:22:15.269
150, -34621.11, 61208.48, 20950.78, 92259.98, 152432.86, 110389.34, -28469.97, 33172.71, 11911.00, -86873.52, -24728.11, -1288.09, -52946.48, -59709.42, -23142.68, -76280.63, 0.000, 0.000, 0.000, 15:22:15.269
151, -34663.33, 61192.82, 20939.78, 92233.94, 152411.28, 110403.42, -28160.25, 33392.14, 11911.00, -86873.52, -24728.11, -1288.09, -52946.48, -59709.42, -23142.68, -76280.63, 0.000, 0.000, 0.000, 15:22:15.269
152, -34663.33, 61192.82, 20939.78, 92233.94, 152411.28, 110403.42, -28160.25, 33392.14, 11871.53, -86897.92, -24767.41, -1298.12, -52991.45, -59736.96, -22867.62, -76314.42, 0.000, 0.000, 0.000, 15:22:15.270
153, -34733.27, 61196.35, 20940.68, 92250.23, 152416.70, 110370.54, -28232.87, 33286.57, 11871.53, -86897.92, -24767.41, -1298.12, -52991.45, -59736.96, -22867.62, -76314.42, 0.000, 0.000, 0.000, 15:22:15.270
154, -34733.27, 61196.35, 20940.68, 92250.23, 152416.70, 110370.54, -28232.87, 33286.57, 11742.06, -86873.90, -24744.79, -1275.88, -53026.18, -59698.51, -23269.53, -76298.70, 0.000, 0.000, 0.000, 15:22:15.270
155, -34613.11, 61175.45, 20946.06, 92240.30, 152401.41, 110404.74, -28471.27, 33215.56, 11742.06, -86873.90, -24744.79, -1275.88, -53026.18, -59698.51, -23269.53, -76298.70, 0.436, 0.766, -0.420, 15:22:15.270
156, -34613.11, 61175.45, 20946.06, 92240.30, 152401.41, 110404.74, -28471.27, 33215.56, 11958.18, -86891.35, -24732.00, -1285.43, -52945.43, -59715.90, -22988.34, -76291.46, 0.000, 0.000, 0.000, 15:22:15.724
157, -34749.29, 61169.35, 20961.98, 92252.98, 152457.78, 110379.33, -28044.44, 33419.28, 11958.18, -86891.35, -24732.00, -1285.43, -52945.43, -59715.90, -22988.34, -76291.46, 0.000, 0.000, 0.000, 15:22:15.725
158, -34749.29, 61169.35, 20961.98, 92252.98, 152457.78, 110379.33, -28044.44, 33419.28, 11703.98, -86861.23, -24746.78, -1248.59, -53047.59, -59704.39, -23124.96, -76281.67, 0.000, 0.000, 0.000, 15:22:15.725
159, -34650.46, 61167.78, 20969.91, 92267.91, 152451.03, 110439.92, -28562.44, 33124.10, 11703.98, -86861.23, -24746.78, -1248.59, -53047.59, -59704.39, -23124.96, -76281.67, 0.000, 0.000, 0.000, 15:22:15.725
160, -34650.46, 61167.78, 20969.91, 92267.91, 152451.03, 110439.92, -28562.44, 33124.10, 11901.43, -86882.05, -24705.83, -1264.51, -52944.31, -59742.16, -23228.40, -76266.59, 0.000, 0.000, 0.000, 15:22:15.725
161, -34685.95, 61149.09, 20969.47, 92247.86, 152426.89, 110441.89, -28218.34, 33378.24, 11901.43, -86882.05, -24705.83, -1264.51, -52944.31, -59742.16, -23228.40, -76266.59, 0.000, 0.000, 0.000, 15:22:15.725
162, -34685.95, 61149.09, 20969.47, 92247.86, 152426.89, 110441.89, -28218.34, 33378.24, 11893.65, -86855.91, -24719.89, -1234.15, -52972.65, -59713.49, -22931.79, -76273.18, 0.000, 0.000, 0.000, 15:22:15.725
163, -34731.28, 61163.49, 20986.28, 92283.11, 152445.13, 110436.77, -28301.80, 33269.97, 11893.65, -86855.91, -24719.89, -1234.15, -52972.65, -59713.49, -22931.79, -76273.18, 0.000, 0.000, 0.000, 15:22:15.726
164, -34731.28, 61163.49, 20986.28, 92283.11, 152445.13, 110436.77, -28301.80, 33269.97, 11781.74, -86850.54, -24707.13, -1225.41, -53004.14, -59675.78, -23320.04, -76272.87, 0.000, 0.000, 0.000, 15:22:15.726
165, -34642.45, 61112.84, 20962.38, 92238.59, 152421.69, 110444.05, -28523.44, 33226.18, 11781.74, -86850.54, -24707.13, -1225.41, -53004.14, -59675.78, -23320.04, -76272.87, 0.434, 0.772, -0.414, 15:22:15.726
166, -34642.45, 61112.84, 20962.38, 92238.59, 152421.69, 110444.05, -28523.44, 33226.18, 11962.59, -86897.86, -24733.30, -1271.95, -52959.62, -59749.43, -23051.69, -76303.27, 0.000, 0.000, 0.000, 15:22:15.726
167, -34791.45, 61100.46, 20952.23, 92227.43, 152430.28, 110419.20, -28100.66, 33439.66, 11962.59, -86897.86, -24733.30, -1271.95, -52959.62, -59749.43, -23051.69, -76303.27, 0.000, 0.000, 0.000, 15:22:15.726
168, -34791.45, 61100.46, 20952.23, 92227.43, 152430.28, 110419.20, -28100.66, 33439.66, 11738.08, -86847.81, -24737.64, -1232.30, -53052.89, -59702.89, -23207.82, -76294.50, 0.000, 0.000, 0.000, 15:22:15.727
169, -34668.14, 61112.37, 20973.87, 92237.60, 152451.45, 110446.47, -28616.69, 33168.25, 11738.08, -86847.81, -24737.64, -1232.30, -53052.89, -59702.89, -23207.82, -76294.50, 0.000, 0.000, 0.000, 15:22:15.727
170, -34668.14, 61112.37, 20973.87, 92237.60, 152451.45, 110446.47, -28616.69, 33168.25, 11959.03, -86879.22, -24715.04, -1276.80, -52938.83, -59777.08, -23310.70, -76296.85, 0.000, 0.000, 0.000, 15:22:15.727
171, -34727.39, 61066.84, 20937.17, 92174.26, 152410.44, 110424.38, -28299.99, 33414.58, 11959.03, -86879.22, -24715.04, -1276.80, -52938.83, -59777.08, -23310.70, -76296.85, 0.000, 0.000, 0.000, 15:22:15.727
172, -34727.39, 61066.84, 20937.17, 92174.26, 152410.44, 110424.38, -28299.99, 33414.58, 11960.51, -86885.99, -24761.22, -1281.38, -53006.58, -59717.29, -23019.68, -76328.99, 0.000, 0.000, 0.000, 15:22:15.727
173, -34770.35, 61088.37, 20946.87, 92205.68, 152432.05, 110396.29, -28387.61, 33318.38, 11960.51, -86885.99, -24761.22, -1281.38, -53006.58, -59717.29, -23019.68, -76328.99, 0.000, 0.000, 0.000, 15:22:15.728
174, -34770.35, 61088.37, 20946.87, 92205.68, 152432.05, 110396.29, -28387.61, 33318.38, 11873.20, -86847.88, -24728.79, -1238.80, -52994.89, -59696.12, -23408.80, -76311.13, 0.000, 0.000, 0.000, 15:22:15.728
175, -34638.83, 61073.28, 20951.03, 92199.00, 152420.86, 110442.05, -28611.95, 33276.89, 11873.20, -86847.88, -24728.79, -1238.80, -52994.89, -59696.12, -23408.80, -76311.13, 0.426, 0.770, -0.412, 15:22:15.728
176, -34638.83, 61073.28, 20951.03, 92199.00, 152420.86, 110442.05, -28611.95, 33276.89, 12075.02, -86867.02, -24721.63, -1248.84, -52940.53, -59734.07, -23112.82, -76313.14, 0.000, 0.000, 0.000, 15:22:15.728
177, -34788.95, 61062.35, 20945.21, 92201.32, 152418.80, 110408.18, -28201.98, 33477.08, 12075.02, -86867.02, -24721.63, -1248.84, -52940.53, -59734.07, -23112.82, -76313.14, 0.000, 0.000, 0.000, 15:22:15.728
178, -34788.95, 61062.35, 20945.21, 92201.32, 152418.80, 110408.18, -28201.98, 33477.08, 11833.55, -86838.31, -24751.76, -1223.94, -53040.62, -59746.79, -23250.84, -76329.17, 0.000, 0.000, 0.000, 15:22:15.728
179, -34702.09, 61050.39, 20939.02, 92210.55, 152410.69, 110439.92, -28681.91, 33233.36, 11833.55, -86838.31, -24751.76, -1223.94, -53040.62, -59746.79, -23250.84, -76329.17, 0.000, 0.000, 0.000, 15:22:15.729
180, -34702.09, 61050.39, 20939.02, 92210.55, 152410.69, 110439.92, -28681.91, 33233.36, 12022.47, -86805.27, -24708.51, -1215.24, -52981.99, -59705.78, -23334.77, -76292.11, 0.000, 0.000, 0.000, 15:22:15.729
181, -34736.49, 61042.93, 20950.96, 92218.22, 152417.86, 110475.33, -28338.17, 33498.94, 12022.47, -86805.27, -24708.51, -1215.24, -52981.99, -59705.78, -23334.77, -76292.11, 0.000, 0.000, 0.000, 15:22:15.729
182, -34736.49, 61042.93, 20950.96, 92218.22, 152417.86, 110475.33, -28338.17, 33498.94, 11996.72, -86807.31, -24714.59, -1195.62, -52981.88, -59727.77, -23045.72, -76290.01, 0.000, 0.000, 0.000, 15:22:15.729
183, -34794.94, 61056.45, 20968.95, 92255.39, 152448.06, 110475.80, -28435.58, 33385.28, 11996.72, -86807.31, -24714.59, -1195.62, -52981.88, -59727.77, -23045.72, -76290.01, 0.000, 0.000, 0.000, 15:22:15.729
184, -34794.94, 61056.45, 20968.95, 92255.39, 152448.06, 110475.80, -28435.58, 33385.28, 11871.41, -86783.28, -24694.81, -1177.36, -53007.00, -59684.50, -23446.11, -76270.88, 0.000, 0.000, 0.000, 15:22:15.729
185, -34673.54, 61047.15, 20958.29, 92243.81, 152433.66, 110494.91, -28627.44, 33374.98, 11871.41, -86783.28, -24694.81, -1177.36, -53007.00, -59684.50, -23446.11, -76270.88, 0.442, 0.776, -0.404, 15:22:15.730
186, -34673.54, 61047.15, 20958.29, 92243.81, 152433.66, 110494.91, -28627.44, 33374.98, 12085.86, -86793.97, -24684.55, -1187.10, -52938.05, -59701.93, -23153.01, -76279.41, 0.000, 0.000, 0.000, 15:22:15.730
187, -34798.78, 61046.77, 20962.76, 92253.60, 152442.11, 110464.42, -28205.02, 33591.21, 12085.86, -86793.97, -24684.55, -1187.10, -52938.05, -59701.93, -23153.01, -76279.41, 0.000, 0.000, 0.000, 15:22:15.730
188, -34798.78, 61046.77, 20962.76, 92253.60, 152442.11, 110464.42, -28205.02, 33591.21, 11841.22, -86770.38, -24703.71, -1157.57, -53051.44, -59654.64, -23273.42, -76280.06, 0.000, 0.000, 0.000, 15:22:15.730
189, -34708.08, 61035.73, 20959.45, 92259.52, 152430.27, 110502.86, -28692.71, 33334.90, 11841.22, -86770.38, -24703.71, -1157.57, -53051.44, -59654.64, -23273.42, -76280.06, 0.000, 0.000, 0.000, 15:22:15.731
190, -34708.08, 61035.73, 20959.45, 92259.52, 152430.27, 110502.86, -28692.71, 33334.90, 12031.94, -86784.73, -24661.39, -1172.35, -52936.06, -59687.96, -23374.40, -76267.97, 0.000, 0.000, 0.000, 15:22:15.731
191, -34752.67, 61025.42, 20959.07, 92233.98, 152447.59, 110494.41, -28348.07, 33606.92, 12031.94, -86784.73, -24661.39, -1172.35, -52936.06, -59687.96, -23374.40, -76267.97, 0.000, 0.000, 0.000, 15:22:15.731
192, -34752.67, 61025.42, 20959.07, 92233.98, 152447.59, 110494.41, -28348.07, 33606.92, 11986.10, -86797.14, -24689.40, -1173.31, -52961.99, -59698.27, -23068.81, -76298.30, 0.000, 0.000, 0.000, 15:22:15.732
193, -34822.74, 61041.54, 20966.36, 92258.48, 152483.95, 110499.06, -28431.69, 33518.50, 11986.10, -86797.14, -24689.40, -1173.31, -52961.99, -59698.27, -23068.81, -76298.30, 0.000, 0.000, 0.000, 15:22:15.732
194, -34822.74, 61041.54, 20966.36, 92258.48, 152483.95, 110499.06, -28431.69, 33518.50, 11846.29, -86772.93, -24662.27, -1151.18, -52993.86, -59654.23, -23473.29, -76285.49, 0.000, 0.000, 0.000, 15:22:15.732
195, -34713.35, 61026.43, 20954.85, 92239.21, 152461.58, 110549.55, -28634.26, 33497.30, 11846.29, -86772.93, -24662.27, -1151.18, -52993.86, -59654.23, -23473.29, -76285.49, 0.460, 0.766, -0.402, 15:22:15.733
196, -34713.35, 61026.43, 20954.85, 92239.21, 152461.58, 110549.55, -28634.26, 33497.30, 12041.98, -86801.23, -24662.80, -1175.99, -52929.78, -59681.46, -23182.76, -76295.40, 0.000, 0.000, 0.000, 15:22:15.733
197, -34878.98, 61019.84, 20948.93, 92240.33, 152454.42, 110536.55, -28203.34, 33728.67, 12041.98, -86801.23, -24662.80, -1175.99, -52929.78, -59681.46, -23182.76, -76295.40, 0.000, 0.000, 0.000, 15:22:15.733
198, -34878.98, 61019.84, 20948.93, 92240.33, 152454.42, 110536.55, -28203.34, 33728.67, 11768.84, -86785.85, -24690.96, -1155.56, -53029.22, -59637.65, -23321.12, -76311.00, 0.000, 0.000, 0.000, 15:22:15.733
199, -34804.77, 61029.80, 20955.43, 92254.79, 152457.17, 110556.51, -28713.77, 33466.75, 11768.84, -86785.85, -24690.96, -1155.56, -53029.22, -59637.65, -23321.12, -76311.00, 0.000, 0.000, 0.000, 15:22:15.733
200, -34804.77, 61029.80, 20955.43, 92254.79, 152457.17, 110556.51, -28713.77, 33466.75, 11951.90, -86800.34, -24647.02, -1167.32, -52939.68, -59670.59, -23432.03, -76291.38, 0.000, 0.000, 0.000, 15:22:15.734
201, -34856.76, 61020.19, 20948.23, 92234.90, 152435.20, 110603.18, -28386.54, 33730.19, 11951.90, -86800.34, -24647.02, -1167.32, -52939.68, -59670.59, -23432.03, -76291.38, 0.000, 0.000, 0.000, 15:22:15.734
202, -34856.76, 61020.19, 20948.23, 92234.90, 152435.20, 110603.18, -28386.54, 33730.19, 11921.26, -86809.12, -24679.66, -1174.74, -52999.98, -59671.55, -23154.13, -76311.31, 0.000, 0.000, 0.000, 15:22:15.734
203, -34936.89, 61021.96, 20940.70, 92237.98, 152435.52, 110596.70, -28469.62, 33651.33, 11921.26, -86809.12, -24679.66, -1174.74, -52999.98, -59671.55, -23154.13, -76311.31, 0.000, 0.000, 0.000, 15:22:15.734
204, -34936.89, 61021.96, 20940.70, 92237.98, 152435.52, 110596.70, -28469.62, 33651.33, 11805.05, -86800.91, -24655.09, -1163.99, -53008.86, -59691.88, -23544.57, -76305.48, 0.470, 0.760, -0.408, 15:22:15.734
205, -34831.82, 61027.99, 20964.19, 92228.97, 152435.98, 110624.48, -28652.88, 33657.99, 11805.05, -86800.91, -24655.09, -1163.99, -53008.86, -59691.88, -23544.57, -76305.48, 0.000, 0.000, 0.000, 15:22:15.734
206, -34831.82, 61027.99, 20964.19, 92228.97, 152435.98, 110624.48, -28652.88, 33657.99, 12038.40, -86812.30, -24636.94, -1166.81, -52921.38, -59665.61, -23228.09, -76302.51, 0.000, 0.000, 0.000, 15:22:15.735
207, -34976.28, 61031.86, 20975.14, 92236.57, 152459.20, 110604.45, -28219.99, 33903.17, 12038.40, -86812.30, -24636.94, -1166.81, -52921.38, -59665.61, -23228.09, -76302.51, 0.000, 0.000, 0.000, 15:22:15.735
208, -34976.28, 61031.86, 20975.14, 92236.57, 152459.20, 110604.45, -28219.99, 33903.17, 11788.94, -86799.04, -24667.76, -1146.58, -53046.19, -59680.56, -23390.38, -76308.48, 0.000, 0.000, 0.000, 15:22:15.735
209, -34893.80, 61019.95, 20966.07, 92235.03, 152447.83, 110617.04, -28742.38, 33640.29, 11788.94, -86799.04, -24667.76, -1146.58, -53046.19, -59680.56, -23390.38, -76308.48, 0.000, 0.000, 0.000, 15:22:15.735
210, -34893.80, 61019.95, 20966.07, 92235.03, 152447.83, 110617.04, -28742.38, 33640.29, 11970.63, -86817.30, -24636.88, -1164.75, -52969.12, -59681.48, -23492.60, -76304.85, 0.000, 0.000, 0.000, 15:22:15.735
211, -34937.50, 61013.80, 20965.09, 92223.83, 152429.03, 110628.03, -28403.97, 33914.30, 11970.63, -86817.30, -24636.88, -1164.75, -52969.12, -59681.48, -23492.60, -76304.85, 0.000, 0.000, 0.000, 15:22:15.735
212, -34937.50, 61013.80, 20965.09, 92223.83, 152429.03, 110628.03, -28403.97, 33914.30, 11960.06, -86808.61, -24659.11, -1145.68, -52998.78, -59685.86, -23214.12, -76318.13, 0.000, 0.000, 0.000, 15:22:15.736
213, -34997.69, 61016.75, 20958.96, 92235.30, 152428.81, 110599.16, -28490.05, 33832.85, 11960.06, -86808.61, -24659.11, -1145.68, -52998.78, -59685.86, -23214.12, -76318.13, 0.000, 0.000, 0.000, 15:22:15.736
214, -34997.69, 61016.75, 20958.96, 92235.30, 152428.81, 110599.16, -28490.05, 33832.85, 11832.88, -86801.70, -24644.38, -1129.86, -53025.85, -59724.38, -23606.12, -76323.29, 0.452, 0.758, -0.408, 15:22:15.736
215, -34884.50, 61012.26, 20964.10, 92224.81, 152423.72, 110659.23, -28690.07, 33826.77, 11832.88, -86801.70, -24644.38, -1129.86, -53025.85, -59724.38, -23606.12, -76323.29, 0.000, 0.000, 0.000, 15:22:15.736
216, -34884.50, 61012.26, 20964.10, 92224.81, 152423.72, 110659.23, -28690.07, 33826.77, 12056.11, -86811.58, -24629.79, -1133.93, -52970.88, -59668.61, -23318.52, -76315.09, 0.000, 0.000, 0.000, 15:22:15.736
217, -35019.06, 61023.05, 20975.26, 92228.15, 152430.22, 110641.40, -28262.28, 34067.19, 12056.11, -86811.58, -24629.79, -1133.93, -52970.88, -59668.61, -23318.52, -76315.09, 0.000, 0.000, 0.000, 15:22:15.736
218, -35019.06, 61023.05, 20975.26, 92228.15, 152430.22, 110641.40, -28262.28, 34067.19, 11835.85, -86795.11, -24650.26, -1107.15, -53045.25, -59673.63, -23449.15, -76325.21, 0.000, 0.000, 0.000, 15:22:15.737
219, -34931.68, 61029.20, 20986.97, 92245.58, 152457.31, 110670.21, -28765.00, 33819.11, 11835.85, -86795.11, -24650.26, -1107.15, -53045.25, -59673.63, -23449.15, -76325.21, 0.000, 0.000, 0.000, 15:22:15.737
220, -34931.68, 61029.20, 20986.97, 92245.58, 152457.31, 110670.21, -28765.00, 33819.11, 12037.71, -86810.98, -24618.12, -1121.86, -52957.54, -59697.02, -23564.93, -76313.81, 0.000, 0.000, 0.000, 15:22:15.737
221, -35000.86, 60999.20, 20964.95, 92209.28, 152426.86, 110653.40, -28448.32, 34065.69, 12037.71, -86810.98, -24618.12, -1121.86, -52957.54, -59697.02, -23564.93, -76313.81, 0.000, 0.000, 0.000, 15:22:15.737
222, -35000.86, 60999.20, 20964.95, 92209.28, 152426.86, 110653.40, -28448.32, 34065.69, 12018.04, -86810.46, -24649.95, -1116.49, -53007.68, -59695.18, -23302.16, -76328.48, 0.000, 0.000, 0.000, 15:22:15.737
223, -35044.83, 61023.01, 20981.89, 92249.36, 152441.13, 110667.22, -28521.12, 33990.68, 12018.04, -86810.46, -24649.95, -1116.49, -53007.68, -59695.18, -23302.16, -76328.48, 0.000, 0.000, 0.000, 15:22:15.737
224, -35044.83, 61023.01, 20981.89, 92249.36, 152441.13, 110667.22, -28521.12, 33990.68, 11917.30, -86791.75, -24630.30, -1097.36, -53026.38, -59674.73, -23682.03, -76307.18, 0.430, 0.768, -0.410, 15:22:15.738
225, -34944.25, 61006.69, 20980.64, 92226.96, 152439.97, 110704.37, -28686.63, 33995.04, 11917.30, -86791.75, -24630.30, -1097.36, -53026.38, -59674.73, -23682.03, -76307.18, 0.000, 0.000, 0.000, 15:22:15.738
226, -34944.25, 61006.69, 20980.64, 92226.96, 152439.97, 110704.37, -28686.63, 33995.04, 12121.10, -86817.81, -24630.30, -1118.44, -52964.31, -59724.86, -23377.89, -76314.35, 0.000, 0.000, 0.000, 15:22:15.738
227, -35092.39, 61003.38, 20985.63, 92230.76, 152446.38, 110685.88, -28280.86, 34182.77, 12121.10, -86817.81, -24630.30, -1118.44, -52964.31, -59724.86, -23377.89, -76314.35, 0.000, 0.000, 0.000, 15:22:15.738
228, -35092.39, 61003.38, 20985.63, 92230.76, 152446.38, 110685.88, -28280.86, 34182.77, 11882.72, -86816.07, -24655.89, -1096.96, -53057.90, -59724.08, -23522.46, -76315.94, 0.000, 0.000, 0.000, 15:22:15.738
229, -34997.62, 61000.16, 20989.90, 92237.53, 152444.66, 110712.66, -28793.18, 33902.01, 11882.72, -86816.07, -24655.89, -1096.96, -53057.90, -59724.08, -23522.46, -76315.94, 0.000, 0.000, 0.000, 15:22:15.738
230, -34997.62, 61000.16, 20989.90, 92237.53, 152444.66, 110712.66, -28793.18, 33902.01, 12096.74, -86835.27, -24619.75, -1107.46, -52962.39, -59688.95, -23562.02, -76304.65, 0.000, 0.000, 0.000, 15:22:15.739
231, -35053.43, 60983.43, 20976.06, 92217.98, 152433.28, 110710.78, -28420.89, 34177.67, 12096.74, -86835.27, -24619.75, -1107.46, -52962.39, -59688.95, -23562.02, -76304.65, 0.000, 0.000, 0.000, 15:22:15.739
232, -35053.43, 60983.43, 20976.06, 92217.98, 152433.28, 110710.78, -28420.89, 34177.67, 12051.08, -86842.16, -24657.08, -1103.30, -53035.37, -59694.13, -23277.73, -76325.30, 0.000, 0.000, 0.000, 15:22:15.739
233, -35119.51, 60986.93, 20973.40, 92240.59, 152437.59, 110696.32, -28527.13, 34052.46, 12051.08, -86842.16, -24657.08, -1103.30, -53035.37, -59694.13, -23277.73, -76325.30, 0.000, 0.000, 0.000, 15:22:15.739
234, -35119.51, 60986.93, 20973.40, 92240.59, 152437.59, 110696.32, -28527.13, 34052.46, 11940.03, -86825.95, -24639.18, -1087.21, -53031.64, -59697.20, -23659.41, -76308.43, 0.428, 0.766, -0.412, 15:22:15.739
235, -35011.08, 60978.82, 20985.74, 92231.14, 152435.19, 110731.37, -28715.11, 34032.25, 11940.03, -86825.95, -24639.18, -1087.21, -53031.64, -59697.20, -23659.41, -76308.43, 0.000, 0.000, 0.000, 15:22:15.740
236, -35011.08, 60978.82, 20985.74, 92231.14, 152435.19, 110731.37, -28715.11, 34032.25, 12150.54, -86851.99, -24644.21, -1108.91, -52981.16, -59759.22, -23371.47, -76320.66, 0.000, 0.000, 0.000, 15:22:15.740
237, -35169.13, 60961.63, 20974.38, 92219.18, 152419.09, 110679.66, -28292.03, 34239.30, 12150.54, -86851.99, -24644.21, -1108.91, -52981.16, -59759.22, -23371.47, -76320.66, 0.000, 0.000, 0.000, 15:22:15.740
238, -35169.13, 60961.63, 20974.38, 92219.18, 152419.09, 110679.66, -28292.03, 34239.30, 12020.01, -86817.86, -24672.01, -1078.90, -53097.26, -59677.90, -23516.76, -76326.51, 0.000, 0.000, 0.000, 15:22:15.741
239, -35061.26, 60974.62, 21001.68, 92244.71, 152447.45, 110712.95, -28803.15, 33964.91, 12020.01, -86817.86, -24672.01, -1078.90, -53097.26, -59677.90, -23516.76, -76326.51, 0.000, 0.000, 0.000, 15:22:15.741
240, -35061.26, 60974.62, 21001.68, 92244.71, 152447.45, 110712.95, -28803.15, 33964.91, 12280.38, -86818.42, -24610.37, -1063.56, -52987.07, -59680.34, -23598.77, -76297.77, 0.000, 0.000, 0.000, 15:22:15.741
241, -35087.23, 60971.51, 21014.44, 92231.99, 152443.50, 110695.78, -28448.12, 34232.03, 12280.38, -86818.42, -24610.37, -1063.56, -52987.07, -59680.34, -23598.77, -76297.77, 0.000, 0.000, 0.000, 15:22:15.741
242, -35087.23, 60971.51, 21014.44, 92231.99, 152443.50, 110695.78, -28448.12, 34232.03, 12273.14, -86824.32, -24639.04, -1057.98, -53025.38, -59735.06, -23307.26, -76328.95, 0.000, 0.000, 0.000, 15:22:15.742
243, -35149.93, 60975.02, 21011.24, 92246.18, 152454.58, 110684.13, -28543.51, 34126.02, 12273.14, -86824.32, -24639.04, -1057.98, -53025.38, -59735.06, -23307.26, -76328.95, 0.000, 0.000, 0.000, 15:22:15.742
244, -35149.93, 60975.02, 21011.24, 92246.18, 152454.58, 110684.13, -28543.51, 34126.02, 12153.16, -86808.31, -24626.68, -1038.44, -53058.64, -59696.90, -23731.65, -76317.86, 0.432, 0.766, -0.406, 15:22:15.742
245, -35047.47, 60959.57, 21006.91, 92236.13, 152445.42, 110732.39, -28768.93, 34073.45, 12153.16, -86808.31, -24626.68, -1038.44, -53058.64, -59696.90, -23731.65, -76317.86, 0.000, 0.000, 0.000, 15:22:15.743
246, -35047.47, 60959.57, 21006.91, 92236.13, 152445.42, 110732.39, -28768.93, 34073.45, 12340.33, -86821.19, -24620.51, -1044.79, -53001.55, -59711.90, -23448.90, -76323.98, 0.000, 0.000, 0.000, 15:22:15.743
247, -35190.96, 60956.13, 21005.14, 92232.26, 152436.61, 110703.58, -28346.08, 34284.36, 12340.33, -86821.19, -24620.51, -1044.79, -53001.55, -59711.90, -23448.90, -76323.98, 0.000, 0.000, 0.000, 15:22:15.743
248, -35190.96, 60956.13, 21005.14, 92232.26, 152436.61, 110703.58, -28346.08, 34284.36, 12086.04, -86803.02, -24646.08, -1016.76, -53081.28, -59695.81, -23574.59, -76330.84, 0.000, 0.000, 0.000, 15:22:15.743
249, -35097.54, 60972.25, 21028.81, 92259.68, 152452.81, 110743.59, -28833.82, 34028.43, 12086.04, -86803.02, -24646.08, -1016.76, -53081.28, -59695.81, -23574.59, -76330.84, 0.000, 0.000, 0.000, 15:22:15.743
250, -35097.54, 60972.25, 21028.81, 92259.68, 152452.81, 110743.59, -28833.82, 34028.43, 12291.13, -86799.91, -24595.46, -1016.22, -52977.97, -59691.96, -23662.79, -76303.51, 0.000, 0.000, 0.000, 15:22:15.743
251, -35149.35, 60952.47, 21023.78, 92235.16, 152438.89, 110743.86, -28498.88, 34267.08, 12291.13, -86799.91, -24595.46, -1016.22, -52977.97, -59691.96, -23662.79, -76303.51, 0.000, 0.000, 0.000, 15:22:15.744
252, -35149.35, 60952.47, 21023.78, 92235.16, 152438.89, 110743.86, -28498.88, 34267.08, 12254.97, -86812.56, -24631.53, -1016.69, -53036.60, -59733.22, -23371.94, -76318.69, 0.000, 0.000, 0.000, 15:22:15.744
253, -35216.40, 60956.58, 21018.22, 92251.52, 152445.48, 110724.37, -28609.90, 34149.69, 12254.97, -86812.56, -24631.53, -1016.69, -53036.60, -59733.22, -23371.94, -76318.69, 0.000, 0.000, 0.000, 15:22:15.744
254, -35216.40, 60956.58, 21018.22, 92251.52, 152445.48, 110724.37, -28609.90, 34149.69, 12153.45, -86792.96, -24616.29, -1003.88, -53055.33, -59684.59, -23746.85, -76315.78, 0.442, 0.768, -0.398, 15:22:15.744
255, -35097.22, 60964.36, 21026.46, 92243.75, 152441.13, 110747.62, -28799.53, 34140.55, 12153.45, -86792.96, -24616.29, -1003.88, -53055.33, -59684.59, -23746.85, -76315.78, 0.000, 0.000, 0.000, 15:22:15.744
0, -35097.22, 60964.36, 21026.46, 92243.75, 152441.13, 110747.62, -28799.53, 34140.55, 12387.65, -86801.72, -24600.04, -1010.81, -52977.14, -59701.66, -23444.88, -76304.13, 0.000, 0.000, 0.000, 15:22:15.744
1, -35242.29, 60948.36, 21014.64, 92237.09, 152427.11, 110741.96, -28392.08, 34347.05, 12387.65, -86801.72, -24600.04, -1010.81, -52977.14, -59701.66, -23444.88, -76304.13, 0.000, 0.000, 0.000, 15:22:15.744
2, -35242.29, 60948.36, 21014.64, 92237.09, 152427.11, 110741.96, -28392.08, 34347.05, 12123.54, -86793.56, -24642.33, -1001.09, -53105.91, -59682.69, -23573.24, -76325.30, 0.000, 0.000, 0.000, 15:22:15.745
3, -35142.53, 60950.43, 21022.40, 92242.05, 152443.77, 110752.53, -28880.55, 34112.43, 12123.54, -86793.56, -24642.33, -1001.09, -53105.91, -59682.69, -23573.24, -76325.30, 0.000, 0.000, 0.000, 15:22:15.745
4, -35142.53, 60950.43, 21022.40, 92242.05, 152443.77, 110752.53, -28880.55, 34112.43, 12331.70, -86800.91, -24593.33, -1009.25, -52985.93, -59724.75, -23628.32, -76309.26, 0.000, 0.000, 0.000, 15:22:15.745
5, -35189.20, 60948.98, 21039.00, 92230.36, 152457.75, 110764.16, -28548.65, 34372.33, 12331.70, -86800.91, -24593.33, -1009.25, -52985.93, -59724.75, -23628.32, -76309.26, 0.000, 0.000, 0.000, 15:22:15.745
6, -35189.20, 60948.98, 21039.00, 92230.36, 152457.75, 110764.16, -28548.65, 34372.33, 12288.34, -86802.80, -24626.37, -1010.10, -53031.55, -59713.11, -23382.79, -76323.27, 0.000, 0.000, 0.000, 15:22:15.745
7, -35251.70, 60947.62, 21031.56, 92243.14, 152460.95, 110739.61, -28667.99, 34264.44, 12288.34, -86802.80, -24626.37, -1010.10, -53031.55, -59713.11, -23382.79, -76323.27, 0.444, 0.762, -0.404, 15:22:15.745
8, -35251.70, 60947.62, 21031.56, 92243.14, 152460.95, 110739.61, -28667.99, 34264.44, 12186.24, -86780.40, -24599.79, -993.13, -53040.98, -59699.32, -23756.13, -76316.70, 0.000, 0.000, 0.000, 15:22:15.746
9, -35137.50, 60953.32, 21045.06, 92235.45, 152476.78, 110762.50, -28867.66, 34261.69, 12186.24, -86780.40, -24599.79, -993.13, -53040.98, -59699.32, -23756.13, -76316.70, 0.000, 0.000, 0.000, 15:22:15.746
10, -35137.50, 60953.32, 21045.06, 92235.45, 152476.78, 110762.50, -28867.66, 34261.69, 12395.94, -86787.48, -24594.23, -1007.37, -52971.82, -59689.21, -23461.49, -76320.50, 0.000, 0.000, 0.000, 15:22:15.746
11, -35293.49, 60931.52, 21019.13, 92229.13, 152457.36, 110743.63, -28466.26, 34481.72, 12395.94, -86787.48, -24594.23, -1007.37, -52971.82, -59689.21, -23461.49, -76320.50, 0.000, 0.000, 0.000, 15:22:15.746
12, -35293.49, 60931.52, 21019.13, 92229.13, 152457.36, 110743.63, -28466.26, 34481.72, 12128.06, -86740.44, -24625.83, -983.21, -53096.57, -59704.70, -23583.73, -76333.57, 0.000, 0.000, 0.000, 15:22:15.746
13, -35190.45, 60930.27, 21029.53, 92243.08, 152455.09, 110769.54, -28950.16, 34269.96, 12128.06, -86740.44, -24625.83, -983.21, -53096.57, -59704.70, -23583.73, -76333.57, 0.000, 0.000, 0.000, 15:22:15.746
14, -35190.45, 60930.27, 21029.53, 92243.08, 152455.09, 110769.54, -28950.16, 34269.96, 12337.74, -86745.46, -24581.67, -987.75, -53005.44, -59693.68, -23619.49, -76320.30, 0.000, 0.000, 0.000, 15:22:15.747
15, -35242.48, 60919.70, 21036.14, 92235.79, 152443.11, 110751.59, -28621.90, 34541.63, 12337.74, -86745.46, -24581.67, -987.75, -53005.44, -59693.68, -23619.49, -76320.30, 0.000, 0.000, 0.000, 15:22:15.747
16, -35242.48, 60919.70, 21036.14, 92235.79, 152443.11, 110751.59, -28621.90, 34541.63, 12307.34, -86751.97, -24607.97, -980.62, -53056.18, -59725.34, -23349.95, -76343.32, 0.000, 0.000, 0.000, 15:22:15.747
17, -35300.09, 60912.19, 21038.49, 92251.93, 152440.69, 110762.44, -28726.17, 34471.55, 12307.34, -86751.97, -24607.97, -980.62, -53056.18, -59725.34, -23349.95, -76343.32, 0.444, 0.762, -0.406, 15:22:15.747
18, -35300.09, 60912.19, 21038.49, 92251.93, 152440.69, 110762.44, -28726.17, 34471.55, 12215.25, -86736.34, -24581.46, -960.77, -53076.74, -59724.73, -23699.02, -76316.61, 0.000, 0.000, 0.000, 15:22:15.747
19, -35185.71, 60910.63, 21048.86, 92245.53, 152443.27, 110793.13, -28909.86, 34492.27, 12215.25, -86736.34, -24581.46, -960.77, -53076.74, -59724.73, -23699.02, -76316.61, 0.000, 0.000, 0.000, 15:22:15.747
20, -35185.71, 60910.63, 21048.86, 92245.53, 152443.27, 110793.13, -28909.86, 34492.27, 12438.12, -86739.09, -24566.09, -959.54, -52974.97, -59669.86, -23391.75, -76319.09, 0.000, 0.000, 0.000, 15:22:16.207
21, -35323.45, 60898.46, 21042.29, 92244.91, 152441.17, 110762.52, -28495.23, 34735.48, 12438.12, -86739.09, -24566.09, -959.54, -52974.97, -59669.86, -23391.75, -76319.09, 0.000, 0.000, 0.000, 15:22:16.207
22, -35323.45, 60898.46, 21042.29, 92244.91, 152441.17, 110762.52, -28495.23, 34735.48, 12180.02, -86727.00, -24605.11, -933.45, -53102.29, -59694.69, -23510.48, -76331.74, 0.000, 0.000, 0.000, 15:22:16.208
23, -35235.31, 60902.85, 21044.39, 92255.16, 152444.41, 110801.88, -28987.51, 34516.86, 12180.02, -86727.00, -24605.11, -933.45, -53102.29, -59694.69, -23510.48, -76331.74, 0.000, 0.000, 0.000, 15:22:16.208
24, -35235.31, 60902.85, 21044.39, 92255.16, 152444.41, 110801.88, -28987.51, 34516.86, 12386.49, -86734.69, -24563.83, -941.37, -53003.23, -59715.45, -23565.20, -76314.66, 0.000, 0.000, 0.000, 15:22:16.208
25, -35284.38, 60891.38, 21040.66, 92238.56, 152427.58, 110802.80, -28614.95, 34826.36, 12386.49, -86734.69, -24563.83, -941.37, -53003.23, -59715.45, -23565.20, -76314.66, 0.000, 0.000, 0.000, 15:22:16.208
26, -35284.38, 60891.38, 21040.66, 92238.56, 152427.58, 110802.80, -28614.95, 34826.36, 12347.51, -86730.24, -24586.05, -925.09, -53043.66, -59702.69, -23248.83, -76320.05, 0.000, 0.000, 0.000, 15:22:16.208
27, -35334.29, 60913.46, 21059.61, 92273.48, 152462.77, 110808.41, -28728.63, 34744.09, 12347.51, -86730.24, -24586.05, -925.09, -53043.66, -59702.69, -23248.83, -76320.05, 0.442, 0.762, -0.406, 15:22:16.209
28, -35334.29, 60913.46, 21059.61, 92273.48, 152462.77, 110808.41, -28728.63, 34744.09, 12228.53, -86712.94, -24569.33, -910.61, -53075.71, -59708.32, -23639.47, -76304.78, 0.000, 0.000, 0.000, 15:22:16.209
29, -35227.00, 60885.99, 21045.40, 92240.59, 152436.25, 110829.87, -28908.98, 34773.23, 12228.53, -86712.94, -24569.33, -910.61, -53075.71, -59708.32, -23639.47, -76304.78, 0.000, 0.000, 0.000, 15:22:16.209
30, -35227.00, 60885.99, 21045.40, 92240.59, 152436.25, 110829.87, -28908.98, 34773.23, 12446.97, -86734.53, -24563.36, -927.44, -53001.13, -59687.89, -23303.66, -76309.92, 0.000, 0.000, 0.000, 15:22:16.209
31, -35363.75, 60889.32, 21049.73, 92249.38, 152446.72, 110797.19, -28490.11, 35026.46, 12446.97, -86734.53, -24563.36, -927.44, -53001.13, -59687.89, -23303.66, -76309.92, 0.000, 0.000, 0.000, 15:22:16.209
32, -35363.75, 60889.32, 21049.73, 92249.38, 152446.72, 110797.19, -28490.11, 35026.46, 12184.20, -86720.14, -24594.56, -905.29, -53116.08, -59717.89, -23446.96, -76322.11, 0.000, 0.000, 0.000, 15:22:16.209
33, -35269.80, 60887.56, 21053.96, 92257.09, 152453.00, 110828.10, -28985.41, 34811.68, 12184.20, -86720.14, -24594.56, -905.29, -53116.08, -59717.89, -23446.96, -76322.11, 0.000, 0.000, 0.000, 15:22:16.210
34, -35269.80, 60887.56, 21053.96, 92257.09, 152453.00, 110828.10, -28985.41, 34811.68, 12383.83, -86722.22, -24546.04, -906.77, -53008.50, -59695.47, -23504.09, -76303.35, 0.000, 0.000, 0.000, 15:22:16.210
35, -35321.32, 60874.57, 21048.19, 92240.70, 152432.56, 110819.86, -28644.10, 35100.30, 12383.83, -86722.22, -24546.04, -906.77, -53008.50, -59695.47, -23504.09, -76303.35, 0.000, 0.000, 0.000, 15:22:16.210
36, -35321.32, 60874.57, 21048.19, 92240.70, 152432.56, 110819.86, -28644.10, 35100.30, 12350.70, -86723.49, -24583.77, -908.24, -53062.95, -59733.70, -23215.95, -76323.13, 0.000, 0.000, 0.000, 15:22:16.210
37, -35371.07, 60886.82, 21049.06, 92263.20, 152467.45, 110835.44, -28750.69, 35027.33, 12350.70, -86723.49, -24583.77, -908.24, -53062.95, -59733.70, -23215.95, -76323.13, 0.440, 0.766, -0.412, 15:22:16.211
38, -35371.07, 60886.82, 21049.06, 92263.20, 152467.45, 110835.44, -28750.69, 35027.33, 12256.62, -86705.66, -24560.59, -896.57, -53072.20, -59682.82, -23585.58, -76307.89, 0.000, 0.000, 0.000, 15:22:16.211
39, -35260.75, 60878.10, 21051.19, 92246.12, 152457.52, 110848.27, -28927.02, 35050.62, 12256.62, -86705.66, -24560.59, -896.57, -53072.20, -59682.82, -23585.58, -76307.89, 0.000, 0.000, 0.000, 15:22:16.211
40, -35260.75, 60878.10, 21051.19, 92246.12, 152457.52, 110848.27, -28927.02, 35050.62, 12457.12, -86726.71, -24561.33, -915.57, -53002.67, -59705.35, -23282.25, -76321.82, 0.000, 0.000, 0.000, 15:22:16.211
41, -35402.03, 60867.02, 21037.26, 92240.17, 152435.06, 110818.67, -28528.89, 35278.20, 12457.12, -86726.71, -24561.33, -915.57, -53002.67, -59705.35, -23282.25, -76321.82, 0.000, 0.000, 0.000, 15:22:16.211
42, -35402.03, 60867.02, 21037.26, 92240.17, 152435.06, 110818.67, -28528.89, 35278.20, 12228.73, -86702.30, -24583.32, -886.89, -53113.73, -59692.16, -23402.03, -76321.64, 0.000, 0.000, 0.000, 15:22:16.212
43, -35296.27, 60881.01, 21055.97, 92264.47, 152457.47, 110854.81, -28999.80, 35081.73, 12228.73, -86702.30, -24583.32, -886.89, -53113.73, -59692.16, -23402.03, -76321.64, 0.000, 0.000, 0.000, 15:22:16.212
44, -35296.27, 60881.01, 21055.97, 92264.47, 152457.47, 110854.81, -28999.80, 35081.73, 12430.90, -86706.08, -24535.91, -893.71, -53005.71, -59710.70, -23450.00, -76299.91, 0.000, 0.000, 0.000, 15:22:16.212
45, -35363.72, 60862.97, 21049.40, 92241.98, 152437.27, 110864.42, -28653.57, 35370.38, 12430.90, -86706.08, -24535.91, -893.71, -53005.71, -59710.70, -23450.00, -76299.91, 0.000, 0.000, 0.000, 15:22:16.212
46, -35363.72, 60862.97, 21049.40, 92241.98, 152437.27, 110864.42, -28653.57, 35370.38, 12373.34, -86718.13, -24568.41, -891.01, -53061.61, -59686.78, -23184.26, -76317.52, 0.000, 0.000, 0.000, 15:22:16.212
47, -35421.39, 60862.46, 21040.72, 92254.14, 152436.25, 110839.59, -28785.09, 35272.64, 12373.34, -86718.13, -24568.41, -891.01, -53061.61, -59686.78, -23184.26, -76317.52, 0.444, 0.762, -0.418, 15:22:16.213
48, -35421.39, 60862.46, 21040.72, 92254.14, 152436.25, 110839.59, -28785.09, 35272.64, 12248.96, -86735.90, -24562.91, -899.19, -53087.56, -59729.43, -23560.71, -76328.34, 0.000, 0.000, 0.000, 15:22:16.213
49, -35323.60, 60842.74, 21037.80, 92227.01, 152412.52, 110861.67, -28935.88, 35322.28, 12248.96, -86735.90, -24562.91, -899.19, -53087.56, -59729.43, -23560.71, -76328.34, 0.000, 0.000, 0.000, 15:22:16.213
50, -35323.60, 60842.74, 21037.80, 92227.01, 152412.52, 110861.67, -28935.88, 35322.28, 12463.31, -86742.05, -24542.37, -896.53, -53005.26, -59732.58, -23243.94, -76327.78, 0.000, 0.000, 0.000, 15:22:16.213
51, -35454.74, 60861.21, 21061.67, 92250.66, 152435.09, 110829.35, -28541.03, 35553.31, 12463.31, -86742.05, -24542.37, -896.53, -53005.26, -59732.58, -23243.94, -76327.78, 0.000, 0.000, 0.000, 15:22:16.213
52, -35454.74, 60861.21, 21061.67, 92250.66, 152435.09, 110829.35, -28541.03, 35553.31, 12232.93, -86709.59, -24557.19, -854.40, -53103.25, -59682.42, -23425.32, -76320.99, 0.000, 0.000, 0.000, 15:22:16.214
53, -35343.58, 60852.51, 21062.38, 92260.06, 152454.06, 110891.78, -29052.21, 35321.61, 12232.93, -86709.59, -24557.19, -854.40, -53103.25, -59682.42, -23425.32, -76320.99, 0.000, 0.000, 0.000, 15:22:16.214
54, -35343.58, 60852.51, 21062.38, 92260.06, 152454.06, 110891.78, -29052.21, 35321.61, 12444.69, -86728.88, -24536.25, -876.43, -53039.04, -59722.68, -23451.72, -76323.49, 0.000, 0.000, 0.000, 15:22:16.214
55, -35401.05, 60829.51, 21047.94, 92229.95, 152433.58, 110881.05, -28687.01, 35632.30, 12444.69, -86728.88, -24536.25, -876.43, -53039.04, -59722.68, -23451.72, -76323.49, 0.000, 0.000, 0.000, 15:22:16.214
56, -35401.05, 60829.51, 21047.94, 92229.95, 152433.58, 110881.05, -28687.01, 35632.30, 12410.74, -86721.03, -24559.20, -861.06, -53053.59, -59689.66, -23146.24, -76337.69, 0.436, 0.764, -0.422, 15:22:16.215
57, -35445.60, 60844.40, 21071.10, 92268.34, 152470.70, 110881.14, -28790.21, 35566.43, 12410.74, -86721.03, -24559.20, -861.06, -53053.59, -59689.66, -23146.24, -76337.69, 0.000, 0.000, 0.000, 15:22:16.215
58, -35445.60, 60844.40, 21071.10, 92268.34, 152470.70, 110881.14, -28790.21, 35566.43, 12299.38, -86704.07, -24533.72, -840.94, -53072.61, -59712.30, -23525.52, -76322.63, 0.000, 0.000, 0.000, 15:22:16.215
59, -35351.47, 60822.49, 21062.88, 92242.07, 152444.64, 110894.76, -28981.49, 35570.41, 12299.38, -86704.07, -24533.72, -840.94, -53072.61, -59712.30, -23525.52, -76322.63, 0.000, 0.000, 0.000, 15:22:16.215
60, -35351.47, 60822.49, 21062.88, 92242.07, 152444.64, 110894.76, -28981.49, 35570.41, 12492.93, -86741.84, -24545.37, -873.80, -53032.33, -59717.87, -23216.29, -76341.84, 0.000, 0.000, 0.000, 15:22:16.215
61, -35498.57, 60816.88, 21057.60, 92242.45, 152446.09, 110866.46, -28553.64, 35825.64, 12492.93, -86741.84, -24545.37, -873.80, -53032.33, -59717.87, -23216.29, -76341.84, 0.000, 0.000, 0.000, 15:22:16.216
62, -35498.57, 60816.88, 21057.60, 92242.45, 152446.09, 110866.46, -28553.64, 35825.64, 12256.74, -86707.24, -24564.21, -832.31, -53138.79, -59692.34, -23343.20, -76331.65, 0.000, 0.000, 0.000, 15:22:16.216
63, -35382.79, 60836.55, 21073.69, 92266.32, 152460.42, 110910.89, -29042.92, 35608.81, 12256.74, -86707.24, -24564.21, -832.31, -53138.79, -59692.34, -23343.20, -76331.65, 0.000, 0.000, 0.000, 15:22:16.216
64, -35382.79, 60836.55, 21073.69, 92266.32, 152460.42, 110910.89, -29042.92, 35608.81, 12476.99, -86707.17, -24511.71, -835.35, -53012.34, -59708.57, -23395.59, -76306.08, 0.000, 0.000, 0.000, 15:22:16.216
65, -35431.96, 60817.95, 21072.49, 92244.22, 152444.50, 110915.97, -28696.15, 35894.38, 12476.99, -86707.17, -24511.71, -835.35, -53012.34, -59708.57, -23395.59, -76306.08, 0.000, 0.000, 0.000, 15:22:16.216
66, -35431.96, 60817.95, 21072.49, 92244.22, 152444.50, 110915.97, -28696.15, 35894.38, 12425.27, -86725.34, -24560.05, -845.61, -53079.58, -59754.48, -23109.45, -76332.75, 0.440, 0.762, -0.422, 15:22:16.216
67, -35485.76, 60813.13, 21060.57, 92263.62, 152435.47, 110891.00, -28779.88, 35842.70, 12425.27, -86725.34, -24560.05, -845.61, -53079.58, -59754.48, -23109.45, -76332.75, 0.000, 0.000, 0.000, 15:22:16.217
68, -35485.76, 60813.13, 21060.57, 92263.62, 152435.47, 110891.00, -28779.88, 35842.70, 12309.89, -86688.35, -24532.11, -810.14, -53100.66, -59662.68, -23467.07, -76303.58, 0.000, 0.000, 0.000, 15:22:16.217
69, -35366.70, 60809.77, 21069.25, 92261.31, 152439.73, 110948.63, -28944.03, 35873.41, 12309.89, -86688.35, -24532.11, -810.14, -53100.66, -59662.68, -23467.07, -76303.58, 0.000, 0.000, 0.000, 15:22:16.217
70, -35366.70, 60809.77, 21069.25, 92261.31, 152439.73, 110948.63, -28944.03, 35873.41, 12526.57, -86698.28, -24518.72, -812.71, -53020.55, -59691.11, -23136.36, -76306.39, 0.000, 0.000, 0.000, 15:22:16.217
71, -35499.17, 60813.20, 21074.30, 92269.80, 152455.20, 110915.66, -28564.05, 36081.21, 12526.57, -86698.28, -24518.72, -812.71, -53020.55, -59691.11, -23136.36, -76306.39, 0.000, 0.000, 0.000, 15:22:16.217
72, -35499.17, 60813.20, 21074.30, 92269.80, 152455.20, 110915.66, -28564.05, 36081.21, 12271.51, -86679.97, -24543.62, -787.94, -53132.29, -59692.59, -23313.25, -76320.97, 0.000, 0.000, 0.000, 15:22:16.218
73, -35405.14, 60800.14, 21066.56, 92261.43, 152441.02, 110943.86, -29076.82, 35834.14, 12271.51, -86679.97, -24543.62, -787.94, -53132.29, -59692.59, -23313.25, -76320.97, 0.000, 0.000, 0.000, 15:22:16.218
74, -35405.14, 60800.14, 21066.56, 92261.43, 152441.02, 110943.86, -29076.82, 35834.14, 12473.93, -86698.62, -24519.19, -818.12, -53036.89, -59706.60, -23332.56, -76323.25, 0.000, 0.000, 0.000, 15:22:16.218
75, -35475.59, 60774.35, 21051.54, 92228.70, 152424.75, 110931.57, -28694.61, 36146.64, 12473.93, -86698.62, -24519.19, -818.12, -53036.89, -59706.60, -23332.56, -76323.25, 0.000, 0.000, 0.000, 15:22:16.218
76, -35475.59, 60774.35, 21051.54, 92228.70, 152424.75, 110931.57, -28694.61, 36146.64, 12412.15, -86701.97, -24558.87, -820.04, -53084.99, -59712.15, -23014.58, -76342.72, 0.444, 0.762, -0.420, 15:22:16.218
77, -35538.91, 60771.66, 21045.37, 92247.97, 152435.27, 110924.66, -28777.89, 36086.82, 12412.15, -86701.97, -24558.87, -820.04, -53084.99, -59712.15, -23014.58, -76342.72, 0.000, 0.000, 0.000, 15:22:16.218
78, -35538.91, 60771.66, 21045.37, 92247.97, 152435.27, 110924.66, -28777.89, 36086.82, 12288.30, -86683.86, -24539.58, -797.11, -53110.16, -59715.50, -23364.41, -76318.42, 0.000, 0.000, 0.000, 15:22:16.219
79, -35434.64, 60768.25, 21053.51, 92240.13, 152441.69, 110954.21, -28959.97, 36083.52, 12288.30, -86683.86, -24539.58, -797.11, -53110.16, -59715.50, -23364.41, -76318.42, 0.000, 0.000, 0.000, 15:22:16.219
80, -35434.64, 60768.25, 21053.51, 92240.13, 152441.69, 110954.21, -28959.97, 36083.52, 12493.40, -86701.12, -24536.43, -810.09, -53036.35, -59702.49, -23043.37, -76325.33, 0.000, 0.000, 0.000, 15:22:16.219
81, -35574.77, 60760.76, 21046.16, 92237.89, 152429.92, 110936.87, -28542.84, 36313.85, 12493.40, -86701.12, -24536.43, -810.09, -53036.35, -59702.49, -23043.37, -76325.33, 0.000, 0.000, 0.000, 15:22:16.219
82, -35574.77, 60760.76, 21046.16, 92237.89, 152429.92, 110936.87, -28542.84, 36313.85, 12249.76, -86675.23, -24557.84, -778.38, -53158.91, -59706.16, -23169.88, -76335.36, 0.000, 0.000, 0.000, 15:22:16.219
83, -35466.16, 60777.01, 21062.81, 92252.48, 152447.16, 110969.27, -29023.45, 36091.88, 12249.76, -86675.23, -24557.84, -778.38, -53158.91, -59706.16, -23169.88, -76335.36, 0.000, 0.000, 0.000, 15:22:16.219
84, -35466.16, 60777.01, 21062.81, 92252.48, 152447.16, 110969.27, -29023.45, 36091.88, 12463.42, -86683.03, -24513.13, -784.21, -53071.24, -59690.46, -23213.74, -76321.23, 0.000, 0.000, 0.000, 15:22:16.220
85, -35515.67, 60770.73, 21073.98, 92238.27, 152443.41, 110971.89, -28648.23, 36387.77, 12463.42, -86683.03, -24513.13, -784.21, -53071.24, -59690.46, -23213.74, -76321.23, 0.000, 0.000, 0.000, 15:22:16.220
86, -35515.67, 60770.73, 21073.98, 92238.27, 152443.41, 110971.89, -28648.23, 36387.77, 12421.58, -86673.52, -24526.81, -764.27, -53069.99, -59688.21, -22913.69, -76327.98, 0.444, 0.772, -0.420, 15:22:16.220
87, -35563.34, 60787.42, 21084.96, 92265.25, 152456.11, 110957.68, -28772.15, 36292.82, 12421.58, -86673.52, -24526.81, -764.27, -53069.99, -59688.21, -22913.69, -76327.98, 0.000, 0.000, 0.000, 15:22:16.220
88, -35563.34, 60787.42, 21084.96, 92265.25, 152456.11, 110957.68, -28772.15, 36292.82, 12309.24, -86668.62, -24512.93, -759.74, -53111.05, -59701.66, -23252.99, -76322.04, 0.000, 0.000, 0.000, 15:22:16.220
89, -35464.21, 60779.38, 21082.75, 92255.99, 152431.78, 111003.09, -28927.07, 36326.61, 12309.24, -86668.62, -24512.93, -759.74, -53111.05, -59701.66, -23252.99, -76322.04, 0.000, 0.000, 0.000, 15:22:16.221
90, -35464.21, 60779.38, 21082.75, 92255.99, 152431.78, 111003.09, -28927.07, 36326.61, 12511.75, -86681.83, -24504.37, -768.16, -53044.33, -59690.60, -22937.61, -76313.34, 0.000, 0.000, 0.000, 15:22:16.221
91, -35602.80, 60769.88, 21064.19, 92244.95, 152428.61, 110957.41, -28559.05, 36518.52, 12511.75, -86681.83, -24504.37, -768.16, -53044.33, -59690.60, -22937.61, -76313.34, 0.000, 0.000, 0.000, 15:22:16.221
92, -35602.80, 60769.88, 21064.19, 92244.95, 152428.61, 110957.41, -28559.05, 36518.52, 12267.87, -86675.05, -24548.63, -759.58, -53165.41, -59705.91, -23052.61, -76337.53, 0.000, 0.000, 0.000, 15:22:16.221
93, -35487.93, 60772.40, 21069.07, 92255.84, 152436.44, 110990.02, -29024.68, 36313.47, 12267.87, -86675.05, -24548.63, -759.58, -53165.41, -59705.91, -23052.61, -76337.53, 0.000, 0.000, 0.000, 15:22:16.221
94, -35487.93, 60772.40, 21069.07, 92255.84, 152436.44, 110990.02, -29024.68, 36313.47, 12487.90, -86670.67, -24496.53, -755.98, -53064.18, -59685.01, -23060.21, -76305.84, 0.000, 0.000, 0.000, 15:22:16.221
95, -35525.17, 60775.31, 21081.54, 92245.63, 152426.42, 110994.78, -28647.13, 36610.37, 12487.90, -86670.67, -24496.53, -755.98, -53064.18, -59685.01, -23060.21, -76305.84, 0.000, 0.000, 0.000, 15:22:16.222
96, -35525.17, 60775.31, 21081.54, 92245.63, 152426.42, 110994.78, -28647.13, 36610.37, 12460.05, -86679.93, -24521.72, -753.63, -53084.52, -59715.63, -22749.67, -76337.71, 0.442, 0.766, -0.416, 15:22:16.222
97, -35582.68, 60786.62, 21080.55, 92252.80, 152443.45, 110961.30, -28747.11, 36533.32, 12460.05, -86679.93, -24521.72, -753.63, -53084.52, -59715.63, -22749.67, -76337.71, 0.000, 0.000, 0.000, 15:22:16.222
98, -35582.68, 60786.62, 21080.55, 92252.80, 152443.45, 110961.30, -28747.11, 36533.32, 12356.51, -86658.27, -24501.02, -737.05, -53106.94, -59644.44, -23093.87, -76322.60, 0.000, 0.000, 0.000, 15:22:16.222
99, -35478.61, 60780.79, 21086.30, 92252.06, 152431.03, 111026.45, -28900.51, 36556.25, 12356.51, -86658.27, -24501.02, -737.05, -53106.94, -59644.44, -23093.87, -76322.60, 0.000, 0.000, 0.000, 15:22:16.222
100, -35478.61, 60780.79, 21086.30, 92252.06, 152431.03, 111026.45, -28900.51, 36556.25, 12553.72, -86670.96, -24487.92, -749.54, -53042.70, -59679.60, -22787.89, -76318.29, 0.000, 0.000, 0.000, 15:22:16.222
101, -35621.26, 60792.94, 21093.61, 92257.29, 152445.33, 111013.22, -28492.82, 36779.57, 12553.72, -86670.96, -24487.92, -749.54, -53042.70, -59679.60, -22787.89, -76318.29, 0.000, 0.000, 0.000, 15:22:16.223
102, -35621.26, 60792.94, 21093.61, 92257.29, 152445.33, 111013.22, -28492.82, 36779.57, 12311.70, -86648.91, -24514.54, -727.53, -53143.59, -59661.41, -22934.81, -76326.38, 0.000, 0.000, 0.000, 15:22:16.223
103, -35528.12, 60805.80, 21096.74, 92267.39, 152456.66, 111049.19, -28990.57, 36541.21, 12311.70, -86648.91, -24514.54, -727.53, -53143.59, -59661.41, -22934.81, -76326.38, 0.000, 0.000, 0.000, 15:22:16.223
104, -35528.12, 60805.80, 21096.74, 92267.39, 152456.66, 111049.19, -28990.57, 36541.21, 12502.54, -86651.67, -24478.47, -738.48, -53048.82, -59660.13, -23037.85, -76314.09, 0.000, 0.000, 0.000, 15:22:16.223
105, -35584.80, 60795.89, 21096.04, 92243.70, 152435.20, 111051.80, -28642.55, 36814.13, 12502.54, -86651.67, -24478.47, -738.48, -53048.82, -59660.13, -23037.85, -76314.09, 0.000, 0.000, 0.000, 15:22:16.224
106, -35584.80, 60795.89, 21096.04, 92243.70, 152435.20, 111051.80, -28642.55, 36814.13, 12462.62, -86662.88, -24506.38, -737.67, -53075.47, -59663.58, -22766.57, -76332.41, 0.452, 0.760, -0.416, 15:22:16.224
107, -35647.81, 60794.15, 21094.19, 92256.42, 152446.56, 111043.66, -28740.88, 36739.72, 12462.62, -86662.88, -24506.38, -737.67, -53075.47, -59663.58, -22766.57, -76332.41, 0.000, 0.000, 0.000, 15:22:16.224
108, -35647.81, 60794.15, 21094.19, 92256.42, 152446.56, 111043.66, -28740.88, 36739.72, 12325.04, -86671.39, -24504.17, -745.41, -53114.63, -59653.92, -23112.53, -76333.53, 0.000, 0.000, 0.000, 15:22:16.224
109, -35555.43, 60783.76, 21090.17, 92228.37, 152451.19, 111029.13, -28872.33, 36783.64, 12325.04, -86671.39, -24504.17, -745.41, -53114.63, -59653.92, -23112.53, -76333.53, 0.000, 0.000, 0.000, 15:22:16.224
110, -35555.43, 60783.76, 21090.17, 92228.37, 152451.19, 111029.13, -28872.33, 36783.64, 12533.20, -86692.98, -24495.90, -756.41, -53041.02, -59691.92, -22793.23, -76334.02, 0.000, 0.000, 0.000, 15:22:16.225
111, -35686.59, 60795.54, 21096.60, 92246.77, 152460.58, 111060.59, -28460.90, 37008.39, 12533.20, -86692.98, -24495.90, -756.41, -53041.02, -59691.92, -22793.23, -76334.02, 0.000, 0.000, 0.000, 15:22:16.225
112, -35686.59, 60795.54, 21096.60, 92246.77, 152460.58, 111060.59, -28460.90, 37008.39, 12261.45, -86672.66, -24525.27, -723.95, -53164.16, -59664.70, -22976.81, -76331.63, 0.000, 0.000, 0.000, 15:22:16.225
113, -35603.02, 60786.98, 21085.49, 92243.81, 152451.81, 111076.43, -28967.21, 36757.98, 12261.45, -86672.66, -24525.27, -723.95, -53164.16, -59664.70, -22976.81, -76331.63, 0.000, 0.000, 0.000, 15:22:16.225
114, -35603.02, 60786.98, 21085.49, 92243.81, 152451.81, 111076.43, -28967.21, 36757.98, 12449.56, -86691.66, -24491.07, -733.52, -53062.68, -59688.05, -23061.99, -76322.11, 0.000, 0.000, 0.000, 15:22:16.226
115, -35653.18, 60775.71, 21079.42, 92218.22, 152422.08, 111051.91, -28613.21, 37026.56, 12449.56, -86691.66, -24491.07, -733.52, -53062.68, -59688.05, -23061.99, -76322.11, 0.452, 0.758, -0.414, 15:22:16.226
116, -35653.18, 60775.71, 21079.42, 92218.22, 152422.08, 111051.91, -28613.21, 37026.56, 12410.05, -86691.51, -24522.63, -722.94, -53109.66, -59708.26, -22779.36, -76350.29, 0.000, 0.000, 0.000, 15:22:16.226
117, -35690.93, 60794.98, 21088.69, 92238.78, 152448.03, 111029.18, -28724.79, 36939.72, 12410.05, -86691.51, -24522.63, -722.94, -53109.66, -59708.26, -22779.36, -76350.29, 0.000, 0.000, 0.000, 15:22:16.226
118, -35690.93, 60794.98, 21088.69, 92238.78, 152448.03, 111029.18, -28724.79, 36939.72, 12305.69, -86687.30, -24513.22, -715.97, -53136.84, -59667.76, -23135.57, -76349.42, 0.000, 0.000, 0.000, 15:22:16.226
119, -35603.38, 60769.63, 21076.35, 92212.03, 152427.41, 111061.50, -28876.53, 36960.84, 12305.69, -86687.30, -24513.22, -715.97, -53136.84, -59667.76, -23135.57, -76349.42, 0.000, 0.000, 0.000, 15:22:16.227
120, -35603.38, 60769.63, 21076.35, 92212.03, 152427.41, 111061.50, -28876.53, 36960.84, 12510.16, -86711.94, -24512.44, -728.91, -53082.66, -59707.09, -22806.87, -76358.83, 0.000, 0.000, 0.000, 15:22:16.227
121, -35731.07, 60777.14, 21087.95, 92222.27, 152449.80, 111041.72, -28456.32, 37187.63, 12510.16, -86711.94, -24512.44, -728.91, -53082.66, -59707.09, -22806.87, -76358.83, 0.000, 0.000, 0.000, 15:22:16.227
122, -35731.07, 60777.14, 21087.95, 92222.27, 152449.80, 111041.72, -28456.32, 37187.63, 12283.94, -86673.98, -24516.49, -682.64, -53163.73, -59695.45, -22943.17, -76357.22, 0.000, 0.000, 0.000, 15:22:16.227
123, -35614.69, 60793.21, 21104.79, 92247.88, 152461.27, 111081.26, -28921.79, 36981.05, 12283.94, -86673.98, -24516.49, -682.64, -53163.73, -59695.45, -22943.17, -76357.22, 0.000, 0.000, 0.000, 15:22:16.227
124, -35614.69, 60793.21, 21104.79, 92247.88, 152461.27, 111081.26, -28921.79, 36981.05, 12504.08, -86674.61, -24464.88, -680.68, -53058.48, -59669.07, -22978.51, -76336.86, 0.000, 0.000, 0.000, 15:22:16.227
125, -35667.17, 60780.45, 21102.44, 92234.65, 152440.30, 111089.48, -28560.97, 37255.51, 12504.08, -86674.61, -24464.88, -680.68, -53058.48, -59669.07, -22978.51, -76336.86, 0.450, 0.762, -0.414, 15:22:16.228
126, -35667.17, 60780.45, 21102.44, 92234.65, 152440.30, 111089.48, -28560.97, 37255.51, 12431.97, -86687.73, -24511.64, -686.49, -53115.32, -59686.98, -22681.07, -76360.77, 0.000, 0.000, 0.000, 15:22:16.228
127, -35721.53, 60778.21, 21093.05, 92252.51, 152451.00, 111075.11, -28677.85, 37158.48, 12431.97, -86687.73, -24511.64, -686.49, -53115.32, -59686.98, -22681.07, -76360.77, 0.000, 0.000, 0.000, 15:22:16.228
128, -35721.53, 60778.21, 21093.05, 92252.51, 152451.00, 111075.11, -28677.85, 37158.48, 12312.06, -86662.63, -24487.79, -666.55, -53142.28, -59680.90, -23047.33, -76343.45, 0.000, 0.000, 0.000, 15:22:16.228
129, -35602.57, 60784.25, 21111.76, 92249.40, 152450.38, 111111.57, -28825.55, 37180.76, 12312.06, -86662.63, -24487.79, -666.55, -53142.28, -59680.90, -23047.33, -76343.45, 0.000, 0.000, 0.000, 15:22:16.228
130, -35602.57, 60784.25, 21111.76, 92249.40, 152450.38, 111111.57, -28825.55, 37180.76, 12535.55, -86671.01, -24460.16, -666.95, -53028.15, -59703.88, -22734.72, -76332.01, 0.000, 0.000, 0.000, 15:22:16.228
131, -35736.57, 60792.90, 21120.07, 92258.23, 152461.02, 111087.79, -28432.65, 37381.93, 12535.55, -86671.01, -24460.16, -666.95, -53028.15, -59703.88, -22734.72, -76332.01, 0.000, 0.000, 0.000, 15:22:16.229
132, -35736.57, 60792.90, 21120.07, 92258.23, 152461.02, 111087.79, -28432.65, 37381.93, 12280.32, -86658.67, -24498.14, -656.74, -53166.33, -59679.27, -22934.48, -76343.09, 0.000, 0.000, 0.000, 15:22:16.229
133, -35637.73, 60786.89, 21108.18, 92252.35, 152449.63, 111093.89, -28937.21, 37137.78, 12280.32, -86658.67, -24498.14, -656.74, -53166.33, -59679.27, -22934.48, -76343.09, 0.000, 0.000, 0.000, 15:22:16.229
134, -35637.73, 60786.89, 21108.18, 92252.35, 152449.63, 111093.89, -28937.21, 37137.78, 12488.08, -86665.91, -24463.54, -671.87, -53060.22, -59691.41, -22959.78, -76329.28, 0.000, 0.000, 0.000, 15:22:16.229
135, -35679.71, 60786.62, 21105.86, 92238.90, 152454.69, 111118.23, -28540.14, 37447.84, 12488.08, -86665.91, -24463.54, -671.87, -53060.22, -59691.41, -22959.78, -76329.28, 0.446, 0.756, -0.412, 15:22:16.229
136, -35679.71, 60786.62, 21105.86, 92238.90, 152454.69, 111118.23, -28540.14, 37447.84, 12432.69, -86667.70, -24494.65, -664.41, -53118.81, -59672.56, -22666.68, -76349.65, 0.000, 0.000, 0.000, 15:22:16.229
137, -35726.56, 60803.96, 21103.94, 92257.20, 152462.61, 111107.50, -28672.97, 37338.88, 12432.69, -86667.70, -24494.65, -664.41, -53118.81, -59672.56, -22666.68, -76349.65, 0.000, 0.000, 0.000, 15:22:16.230
138, -35726.56, 60803.96, 21103.94, 92257.20, 152462.61, 111107.50, -28672.97, 37338.88, 12345.96, -86657.71, -24478.38, -662.53, -53126.92, -59674.06, -23013.00, -76345.30, 0.000, 0.000, 0.000, 15:22:16.230
139, -35624.99, 60800.68, 21098.19, 92234.31, 152446.17, 111130.73, -28816.92, 37366.57, 12345.96, -86657.71, -24478.38, -662.53, -53126.92, -59674.06, -23013.00, -76345.30, 0.000, 0.000, 0.000, 15:22:16.230
140, -35624.99, 60800.68, 21098.19, 92234.31, 152446.17, 111130.73, -28816.92, 37366.57, 12540.56, -86675.26, -24474.42, -676.92, -53062.41, -59704.75, -22684.52, -76347.88, 0.000, 0.000, 0.000, 15:22:16.230
141, -35768.80, 60799.63, 21088.98, 92229.95, 152433.55, 111105.17, -28413.11, 37582.02, 12540.56, -86675.26, -24474.42, -676.92, -53062.41, -59704.75, -22684.52, -76347.88, 0.000, 0.000, 0.000, 15:22:16.688
142, -35768.80, 60799.63, 21088.98, 92229.95, 152433.55, 111105.17, -28413.11, 37582.02, 12274.04, -86668.75, -24510.68, -665.68, -53190.78, -59716.62, -22844.18, -76366.41, 0.000, 0.000, 0.000, 15:22:16.688
143, -35680.11, 60795.63, 21079.95, 92221.38, 152418.34, 111099.55, -28903.78, 37348.94, 12274.04, -86668.75, -24510.68, -665.68, -53190.78, -59716.62, -22844.18, -76366.41, 0.000, 0.000, 0.000, 15:22:16.688
144, -35680.11, 60795.63, 21079.95, 92221.38, 152418.34, 111099.55, -28903.78, 37348.94, 12472.81, -86687.21, -24476.39, -686.24, -53110.38, -59746.86, -22920.04, -76368.71, 0.000, 0.000, 0.000, 15:22:16.688
145, -35718.98, 60809.39, 21096.36, 92230.11, 152439.73, 111110.16, -28532.94, 37636.04, 12472.81, -86687.21, -24476.39, -686.24, -53110.38, -59746.86, -22920.04, -76368.71, 0.446, 0.758, -0.414, 15:22:16.689
146, -35718.98, 60809.39, 21096.36, 92230.11, 152439.73, 111110.16, -28532.94, 37636.04, 12436.42, -86655.88, -24488.03, -655.62, -53152.36, -59651.73, -22668.20, -76361.31, 0.000, 0.000, 0.000, 15:22:16.689
147, -35750.99, 60821.89, 21103.53, 92259.05, 152456.97, 111110.65, -28673.73, 37526.68, 12436.42, -86655.88, -24488.03, -655.62, -53152.36, -59651.73, -22668.20, -76361.31, 0.000, 0.000, 0.000, 15:22:16.689
148, -35750.99, 60821.89, 21103.53, 92259.05, 152456.97, 111110.65, -28673.73, 37526.68, 12360.00, -86638.22, -24458.60, -644.67, -53127.12, -59667.62, -23025.54, -76341.84, 0.000, 0.000, 0.000, 15:22:16.689
149, -35639.18, 60817.42, 21107.22, 92239.27, 152454.34, 111156.05, -28822.55, 37554.59, 12360.00, -86638.22, -24458.60, -644.67, -53127.12, -59667.62, -23025.54, -76341.84, 0.000, 0.000, 0.000, 15:22:16.689
150, -35639.18, 60817.42, 21107.22, 92239.27, 152454.34, 111156.05, -28822.55, 37554.59, 12566.04, -86661.80, -24463.27, -667.78, -53076.36, -59708.32, -22691.11, -76354.90, 0.000, 0.000, 0.000, 15:22:16.689
151, -35785.77, 60816.95, 21098.77, 92237.42, 152450.38, 111119.62, -28438.12, 37749.64, 12566.04, -86661.80, -24463.27, -667.78, -53076.36, -59708.32, -22691.11, -76354.90, 0.000, 0.000, 0.000, 15:22:16.689
152, -35785.77, 60816.95, 21098.77, 92237.42, 152450.38, 111119.62, -28438.12, 37749.64, 12310.63, -86645.84, -24497.82, -644.62, -53194.65, -59690.84, -22860.49, -76363.05, 0.000, 0.000, 0.000, 15:22:16.690
153, -35669.27, 60824.19, 21111.54, 92252.27, 152466.20, 111141.79, -28933.59, 37510.61, 12310.63, -86645.84, -24497.82, -644.62, -53194.65, -59690.84, -22860.49, -76363.05, 0.000, 0.000, 0.000, 15:22:16.690
154, -35669.27, 60824.19, 21111.54, 92252.27, 152466.20, 111141.79, -28933.59, 37510.61, 12531.24, -86647.52, -24447.04, -647.93, -53075.38, -59705.57, -22879.85, -76339.70, 0.000, 0.000, 0.000, 15:22:16.690
155, -35710.75, 60819.52, 21116.65, 92243.43, 152454.63, 111148.85, -28535.58, 37820.16, 12531.24, -86647.52, -24447.04, -647.93, -53075.38, -59705.57, -22879.85, -76339.70, 0.452, 0.762, -0.416, 15:22:16.690
156, -35710.75, 60819.52, 21116.65, 92243.43, 152454.63, 111148.85, -28535.58, 37820.16, 12477.79, -86643.85, -24475.92, -637.83, -53138.68, -59677.52, -22617.53, -76356.84, 0.000, 0.000, 0.000, 15:22:16.690
157, -35760.31, 60825.46, 21113.21, 92255.64, 152465.69, 111131.28, -28689.71, 37692.66, 12477.79, -86643.85, -24475.92, -637.83, -53138.68, -59677.52, -22617.53, -76356.84, 0.000, 0.000, 0.000, 15:22:16.690
158, -35760.31, 60825.46, 21113.21, 92255.64, 152465.69, 111131.28, -28689.71, 37692.66, 12392.70, -86647.96, -24463.56, -643.75, -53154.68, -59694.87, -22992.08, -76355.61, 0.000, 0.000, 0.000, 15:22:16.691
159, -35662.34, 60804.21, 21096.40, 92222.83, 152449.80, 111141.14, -28820.83, 37728.71, 12392.70, -86647.96, -24463.56, -643.75, -53154.68, -59694.87, -22992.08, -76355.61, 0.000, 0.000, 0.000, 15:22:16.691
160, -35662.34, 60804.21, 21096.40, 92222.83, 152449.80, 111141.14, -28820.83, 37728.71, 12604.53, -86671.03, -24465.26, -666.33, -53087.52, -59704.86, -22653.74, -76370.63, 0.000, 0.000, 0.000, 15:22:16.691
161, -35795.76, 60808.25, 21092.22, 92228.81, 152439.66, 111122.50, -28387.25, 37956.21, 12604.53, -86671.03, -24465.26, -666.33, -53087.52, -59704.86, -22653.74, -76370.63, 0.000, 0.000, 0.000, 15:22:16.691
162, -35795.76, 60808.25, 21092.22, 92228.81, 152439.66, 111122.50, -28387.25, 37956.21, 12372.32, -86631.56, -24477.73, -626.05, -53185.24, -59679.47, -22821.42, -76350.65, 0.000, 0.000, 0.000, 15:22:16.691
163, -35678.30, 60828.06, 21113.99, 92261.02, 152467.45, 111188.73, -28886.30, 37682.80, 12372.32, -86631.56, -24477.73, -626.05, -53185.24, -59679.47, -22821.42, -76350.65, 0.000, 0.000, 0.000, 15:22:16.691
164, -35678.30, 60828.06, 21113.99, 92261.02, 152467.45, 111188.73, -28886.30, 37682.80, 12575.81, -86655.66, -24448.67, -648.80, -53098.36, -59705.75, -22895.54, -76326.11, 0.450, 0.768, -0.416, 15:22:16.692
165, -35747.41, 60799.87, 21094.37, 92222.67, 152447.59, 111177.13, -28496.84, 37949.73, 12575.81, -86655.66, -24448.67, -648.80, -53098.36, -59705.75, -22895.54, -76326.11, 0.000, 0.000, 0.000, 15:22:16.692
166, -35747.41, 60799.87, 21094.37, 92222.67, 152447.59, 111177.13, -28496.84, 37949.73, 12519.95, -86659.32, -24486.47, -648.31, -53162.97, -59721.96, -22637.94, -76359.08, 0.000, 0.000, 0.000, 15:22:16.692
167, -35793.81, 60819.72, 21100.29, 92242.30, 152468.58, 111169.08, -28630.35, 37820.63, 12519.95, -86659.32, -24486.47, -648.31, -53162.97, -59721.96, -22637.94, -76359.08, 0.000, 0.000, 0.000, 15:22:16.692
168, -35793.81, 60819.72, 21100.29, 92242.30, 152468.58, 111169.08, -28630.35, 37820.63, 12428.98, -86649.41, -24466.98, -640.53, -53166.84, -59691.23, -23000.95, -76357.31, 0.000, 0.000, 0.000, 15:22:16.692
169, -35693.34, 60808.28, 21087.78, 92214.33, 152433.30, 111186.54, -28759.79, 37841.52, 12428.98, -86649.41, -24466.98, -640.53, -53166.84, -59691.23, -23000.95, -76357.31, 0.000, 0.000, 0.000, 15:22:16.692
170, -35693.34, 60808.28, 21087.78, 92214.33, 152433.30, 111186.54, -28759.79, 37841.52, 12645.79, -86666.74, -24463.74, -651.64, -53122.47, -59708.08, -22647.79, -76381.09, 0.000, 0.000, 0.000, 15:22:16.693
171, -35819.25, 60825.09, 21103.29, 92231.97, 152451.63, 111156.45, -28329.36, 38062.47, 12645.79, -86666.74, -24463.74, -651.64, -53122.47, -59708.08, -22647.79, -76381.09, 0.000, 0.000, 0.000, 15:22:16.693
172, -35819.25, 60825.09, 21103.29, 92231.97, 152451.63, 111156.45, -28329.36, 38062.47, 12435.86, -86620.52, -24460.23, -595.74, -53190.55, -59687.11, -22815.99, -76366.43, 0.000, 0.000, 0.000, 15:22:16.693
173, -35703.45, 60840.42, 21116.16, 92256.80, 152463.13, 111194.20, -28852.77, 37782.94, 12435.86, -86620.52, -24460.23, -595.74, -53190.55, -59687.11, -22815.99, -76366.43, 0.000, 0.000, 0.000, 15:22:16.693
174, -35703.45, 60840.42, 21116.16, 92256.80, 152463.13, 111194.20, -28852.77, 37782.94, 12656.12, -86638.24, -24430.66, -616.86, -53118.05, -59724.35, -22872.34, -76353.60, 0.454, 0.766, -0.416, 15:22:16.693
175, -35763.04, 60826.34, 21104.87, 92235.37, 152447.47, 111194.60, -28473.64, 38057.44, 12656.12, -86638.24, -24430.66, -616.86, -53118.05, -59724.35, -22872.34, -76353.60, 0.000, 0.000, 0.000, 15:22:16.694
176, -35763.04, 60826.34, 21104.87, 92235.37, 152447.47, 111194.60, -28473.64, 38057.44, 12610.45, -86631.89, -24462.35, -607.45, -53161.75, -59687.94, -22588.92, -76371.28, 0.000, 0.000, 0.000, 15:22:16.694
177, -35801.28, 60836.57, 21104.63, 92252.35, 152463.95, 111188.19, -28588.28, 37959.70, 12610.45, -86631.89, -24462.35, -607.45, -53161.75, -59687.94, -22588.92, -76371.28, 0.000, 0.000, 0.000, 15:22:16.694
178, -35801.28, 60836.57, 21104.63, 92252.35, 152463.95, 111188.19, -28588.28, 37959.70, 12525.81, -86619.20, -24444.07, -601.80, -53178.08, -59673.14, -22930.10, -76356.57, 0.000, 0.000, 0.000, 15:22:16.694
179, -35713.35, 60823.45, 21100.07, 92219.47, 152448.23, 111184.79, -28722.33, 37980.08, 12525.81, -86619.20, -24444.07, -601.80, -53178.08, -59673.14, -22930.10, -76356.57, 0.000, 0.000, 0.000, 15:22:16.694
180, -35713.35, 60823.45, 21100.07, 92219.47, 152448.23, 111184.79, -28722.33, 37980.08, 12744.27, -86648.52, -24448.96, -627.88, -53116.06, -59716.91, -22614.94, -76369.88, 0.000, 0.000, 0.000, 15:22:16.694
181, -35844.26, 60828.84, 21108.05, 92230.52, 152466.86, 111175.09, -28323.32, 38179.66, 12744.27, -86648.52, -24448.96, -627.88, -53116.06, -59716.91, -22614.94, -76369.88, 0.000, 0.000, 0.000, 15:22:16.695
182, -35844.26, 60828.84, 21108.05, 92230.52, 152466.86, 111175.09, -28323.32, 38179.66, 12501.49, -86626.87, -24484.30, -602.51, -53225.76, -59702.29, -22802.62, -76372.80, 0.000, 0.000, 0.000, 15:22:16.695
183, -35739.77, 60816.52, 21089.90, 92222.89, 152454.27, 111188.99, -28831.02, 37916.40, 12501.49, -86626.87, -24484.30, -602.51, -53225.76, -59702.29, -22802.62, -76372.80, 0.000, 0.000, 0.000, 15:22:16.695
184, -35739.77, 60816.52, 21089.90, 92222.89, 152454.27, 111188.99, -28831.02, 37916.40, 12722.90, -86639.13, -24453.17, -614.90, -53154.97, -59722.99, -22837.25, -76371.21, 0.454, 0.764, -0.414, 15:22:16.695
185, -35784.16, 60819.52, 21087.51, 92216.95, 152436.33, 111193.73, -28425.09, 38215.45, 12722.90, -86639.13, -24453.17, -614.90, -53154.97, -59722.99, -22837.25, -76371.21, 0.000, 0.000, 0.000, 15:22:16.695
186, -35784.16, 60819.52, 21087.51, 92216.95, 152436.33, 111193.73, -28425.09, 38215.45, 12693.49, -86615.31, -24475.00, -591.74, -53199.25, -59703.50, -22539.16, -76364.22, 0.000, 0.000, 0.000, 15:22:16.696
187, -35827.81, 60835.90, 21095.35, 92247.50, 152446.84, 111197.29, -28549.86, 38108.43, 12693.49, -86615.31, -24475.00, -591.74, -53199.25, -59703.50, -22539.16, -76364.22, 0.000, 0.000, 0.000, 15:22:16.696
188, -35827.81, 60835.90, 21095.35, 92247.50, 152446.84, 111197.29, -28549.86, 38108.43, 12605.80, -86609.43, -24458.69, -587.43, -53214.38, -59713.60, -22884.21, -76351.73, 0.000, 0.000, 0.000, 15:22:16.696
189, -35727.79, 60834.20, 21097.39, 92238.85, 152442.42, 111228.60, -28670.25, 38139.47, 12605.80, -86609.43, -24458.69, -587.43, -53214.38, -59713.60, -22884.21, -76351.73, 0.000, 0.000, 0.000, 15:22:16.696
190, -35727.79, 60834.20, 21097.39, 92238.85, 152442.42, 111228.60, -28670.25, 38139.47, 12792.69, -86620.30, -24445.39, -590.29, -53152.47, -59741.43, -22561.07, -76350.02, 0.000, 0.000, 0.000, 15:22:16.696
191, -35852.55, 60855.91, 21111.38, 92257.96, 152466.61, 111221.65, -28289.53, 38316.84, 12792.69, -86620.30, -24445.39, -590.29, -53152.47, -59741.43, -22561.07, -76350.02, 0.000, 0.000, 0.000, 15:22:16.696
192, -35852.55, 60855.91, 21111.38, 92257.96, 152466.61, 111221.65, -28289.53, 38316.84, 12574.33, -86575.14, -24454.13, -546.68, -53232.38, -59648.64, -22702.17, -76345.42, 0.000, 0.000, 0.000, 15:22:16.697
193, -35736.04, 60876.07, 21125.53, 92276.02, 152489.20, 111253.48, -28772.26, 38078.97, 12574.33, -86575.14, -24454.13, -546.68, -53232.38, -59648.64, -22702.17, -76345.42, 0.000, 0.000, 0.000, 15:22:16.697
194, -35736.04, 60876.07, 21125.53, 92276.02, 152489.20, 111253.48, -28772.26, 38078.97, 12785.89, -86591.59, -24418.86, -555.64, -53130.74, -59670.57, -22736.64, -76349.96, 0.460, 0.760, -0.418, 15:22:16.697
195, -35799.63, 60862.03, 21102.88, 92240.30, 152459.19, 111225.02, -28387.43, 38358.18, 12785.89, -86591.59, -24418.86, -555.64, -53130.74, -59670.57, -22736.64, -76349.96, 0.000, 0.000, 0.000, 15:22:16.697
196, -35799.63, 60862.03, 21102.88, 92240.30, 152459.19, 111225.02, -28387.43, 38358.18, 12727.35, -86599.13, -24459.54, -551.84, -53208.91, -59705.13, -22451.28, -76383.10, 0.000, 0.000, 0.000, 15:22:16.698
197, -35833.82, 60887.60, 21101.23, 92267.23, 152456.61, 111216.66, -28544.67, 38222.13, 12727.35, -86599.13, -24459.54, -551.84, -53208.91, -59705.13, -22451.28, -76383.10, 0.000, 0.000, 0.000, 15:22:16.698
198, -35833.82, 60887.60, 21101.23, 92267.23, 152456.61, 111216.66, -28544.67, 38222.13, 12644.22, -86577.34, -24430.28, -535.26, -53242.52, -59681.26, -22829.11, -76366.07, 0.000, 0.000, 0.000, 15:22:16.698
199, -35731.88, 60878.71, 21094.46, 92242.30, 152431.97, 111238.86, -28689.78, 38232.19, 12644.22, -86577.34, -24430.28, -535.26, -53242.52, -59681.26, -22829.11, -76366.07, 0.000, 0.000, 0.000, 15:22:16.698
200, -35731.88, 60878.71, 21094.46, 92242.30, 152431.97, 111238.86, -28689.78, 38232.19, 12867.52, -86597.52, -24422.92, -552.02, -53155.87, -59725.78, -22490.55, -76368.63, 0.000, 0.000, 0.000, 15:22:16.699
201, -35850.21, 60901.91, 21119.56, 92262.63, 152454.83, 111215.95, -28276.19, 38453.76, 12867.52, -86597.52, -24422.92, -552.02, -53155.87, -59725.78, -22490.55, -76368.63, 0.000, 0.000, 0.000, 15:22:16.699
202, -35850.21, 60901.91, 21119.56, 92262.63, 152454.83, 111215.95, -28276.19, 38453.76, 12630.57, -86549.77, -24423.06, -503.47, -53231.68, -59650.21, -22661.67, -76355.32, 0.000, 0.000, 0.000, 15:22:16.699
203, -35733.62, 60926.79, 21130.47, 92277.72, 152475.66, 111250.06, -28778.32, 38206.30, 12630.57, -86549.77, -24423.06, -503.47, -53231.68, -59650.21, -22661.67, -76355.32, 0.000, 0.000, 0.000, 15:22:16.699
204, -35733.62, 60926.79, 21130.47, 92277.72, 152475.66, 111250.06, -28778.32, 38206.30, 12837.50, -86568.80, -24390.87, -515.23, -53158.13, -59703.41, -22720.93, -76351.23, 0.454, 0.760, -0.418, 15:22:16.700
205, -35792.70, 60903.88, 21117.70, 92246.43, 152455.45, 111232.65, -28414.92, 38473.07, 12837.50, -86568.80, -24390.87, -515.23, -53158.13, -59703.41, -22720.93, -76351.23, 0.000, 0.000, 0.000, 15:22:16.700
206, -35792.70, 60903.88, 21117.70, 92246.43, 152455.45, 111232.65, -28414.92, 38473.07, 12779.27, -86575.68, -24432.13, -509.62, -53213.38, -59687.34, -22461.65, -76371.30, 0.000, 0.000, 0.000, 15:22:16.700
207, -35831.14, 60923.43, 21118.42, 92269.96, 152472.86, 111233.92, -28563.96, 38357.71, 12779.27, -86575.68, -24432.13, -509.62, -53213.38, -59687.34, -22461.65, -76371.30, 0.000, 0.000, 0.000, 15:22:16.700
208, -35831.14, 60923.43, 21118.42, 92269.96, 152472.86, 111233.92, -28563.96, 38357.71, 12679.23, -86564.86, -24415.81, -507.03, -53229.45, -59695.88, -22837.36, -76357.09, 0.000, 0.000, 0.000, 15:22:16.701
209, -35733.11, 60919.50, 21107.49, 92243.19, 152456.13, 111252.41, -28714.12, 38366.72, 12679.23, -86564.86, -24415.81, -507.03, -53229.45, -59695.88, -22837.36, -76357.09, 0.000, 0.000, 0.000, 15:22:16.701
210, -35733.11, 60919.50, 21107.49, 92243.19, 152456.13, 111252.41, -28714.12, 38366.72, 12875.14, -86585.16, -24416.69, -528.15, -53171.47, -59707.39, -22497.61, -76359.44, 0.000, 0.000, 0.000, 15:22:16.701
211, -35874.19, 60920.08, 21103.60, 92242.16, 152461.31, 111231.33, -28315.19, 38568.94, 12875.14, -86585.16, -24416.69, -528.15, -53171.47, -59707.39, -22497.61, -76359.44, 0.000, 0.000, 0.000, 15:22:16.701
212, -35874.19, 60920.08, 21103.60, 92242.16, 152461.31, 111231.33, -28315.19, 38568.94, 12632.29, -86569.71, -24446.28, -507.68, -53273.70, -59702.89, -22649.69, -76359.37, 0.000, 0.000, 0.000, 15:22:16.701
213, -35757.43, 60934.61, 21112.07, 92256.22, 152450.27, 111267.41, -28813.07, 38317.41, 12632.29, -86569.71, -24446.28, -507.68, -53273.70, -59702.89, -22649.69, -76359.37, 0.440, 0.766, -0.412, 15:22:16.702
214, -35757.43, 60934.61, 21112.07, 92256.22, 152450.27, 111267.41, -28813.07, 38317.41, 12857.08, -86579.61, -24407.68, -520.42, -53174.66, -59709.40, -22658.05, -76338.71, 0.000, 0.000, 0.000, 15:22:16.702
215, -35815.63, 60931.99, 21106.80, 92236.15, 152451.23, 111262.66, -28417.67, 38600.01, 12857.08, -86579.61, -24407.68, -520.42, -53174.66, -59709.40, -22658.05, -76338.71, 0.000, 0.000, 0.000, 15:22:16.702
216, -35815.63, 60931.99, 21106.80, 92236.15, 152451.23, 111262.66, -28417.67, 38600.01, 12780.77, -86578.74, -24444.67, -514.58, -53239.17, -59724.53, -22395.35, -76363.08, 0.000, 0.000, 0.000, 15:22:16.702
217, -35854.63, 60955.48, 21111.04, 92267.88, 152463.92, 111256.56, -28588.86, 38447.59, 12780.77, -86578.74, -24444.67, -514.58, -53239.17, -59724.53, -22395.35, -76363.08, 0.000, 0.000, 0.000, 15:22:16.702
218, -35854.63, 60955.48, 21111.04, 92267.88, 152463.92, 111256.56, -28588.86, 38447.59, 12695.86, -86559.16, -24418.70, -496.50, -53267.67, -59684.88, -22772.78, -76358.92, 0.000, 0.000, 0.000, 15:22:16.702
219, -35766.14, 60957.86, 21112.52, 92255.37, 152454.94, 111286.78, -28711.55, 38469.92, 12695.86, -86559.16, -24418.70, -496.50, -53267.67, -59684.88, -22772.78, -76358.92, 0.000, 0.000, 0.000, 15:22:16.703
220, -35766.14, 60957.86, 21112.52, 92255.37, 152454.94, 111286.78, -28711.55, 38469.92, 12911.93, -86561.13, -24395.39, -493.46, -53174.55, -59688.83, -22427.25, -76350.36, 0.000, 0.000, 0.000, 15:22:16.703
221, -35895.80, 60989.66, 21132.81, 92280.60, 152469.31, 111272.81, -28319.06, 38654.66, 12911.93, -86561.13, -24395.39, -493.46, -53174.55, -59688.83, -22427.25, -76350.36, 0.000, 0.000, 0.000, 15:22:16.703
222, -35895.80, 60989.66, 21132.81, 92280.60, 152469.31, 111272.81, -28319.06, 38654.66, 12659.16, -86534.02, -24415.44, -465.77, -53275.49, -59687.80, -22592.05, -76360.82, 0.000, 0.000, 0.000, 15:22:16.703
223, -35797.95, 60992.12, 21127.99, 92275.48, 152460.58, 111266.98, -28800.74, 38412.99, 12659.16, -86534.02, -24415.44, -465.77, -53275.49, -59687.80, -22592.05, -76360.82, 0.446, 0.768, -0.414, 15:22:16.703
224, -35797.95, 60992.12, 21127.99, 92275.48, 152460.58, 111266.98, -28800.74, 38412.99, 12862.80, -86565.46, -24394.92, -500.28, -53194.13, -59685.37, -22595.51, -76364.42, 0.000, 0.000, 0.000, 15:22:16.704
225, -35874.70, 60978.84, 21115.16, 92252.58, 152450.67, 111276.73, -28392.19, 38704.55, 12862.80, -86565.46, -24394.92, -500.28, -53194.13, -59685.37, -22595.51, -76364.42, 0.000, 0.000, 0.000, 15:22:16.704
226, -35874.70, 60978.84, 21115.16, 92252.58, 152450.67, 111276.73, -28392.19, 38704.55, 12809.49, -86560.91, -24425.14, -490.69, -53246.55, -59704.73, -22355.41, -76367.55, 0.000, 0.000, 0.000, 15:22:16.704
227, -35911.41, 61003.95, 21125.79, 92286.37, 152475.27, 111274.38, -28563.40, 38551.08, 12809.49, -86560.91, -24425.14, -490.69, -53246.55, -59704.73, -22355.41, -76367.55, 0.000, 0.000, 0.000, 15:22:16.704
228, -35911.41, 61003.95, 21125.79, 92286.37, 152475.27, 111274.38, -28563.40, 38551.08, 12724.00, -86545.66, -24399.77, -480.56, -53261.59, -59696.50, -22757.34, -76345.35, 0.000, 0.000, 0.000, 15:22:16.704
229, -35802.87, 61004.99, 21121.19, 92266.16, 152459.36, 111299.79, -28693.98, 38566.26, 12724.00, -86545.66, -24399.77, -480.56, -53261.59, -59696.50, -22757.34, -76345.35, 0.000, 0.000, 0.000, 15:22:16.704
230, -35802.87, 61004.99, 21121.19, 92266.16, 152459.36, 111299.79, -28693.98, 38566.26, 12927.35, -86569.17, -24403.68, -501.51, -53199.65, -59714.88, -22432.05, -76353.84, 0.000, 0.000, 0.000, 15:22:16.705
231, -35944.02, 61020.95, 21119.76, 92268.11, 152453.00, 111278.18, -28310.65, 38746.14, 12927.35, -86569.17, -24403.68, -501.51, -53199.65, -59714.88, -22432.05, -76353.84, 0.000, 0.000, 0.000, 15:22:16.705
232, -35944.02, 61020.95, 21119.76, 92268.11, 152453.00, 111278.18, -28310.65, 38746.14, 12675.32, -86541.95, -24419.64, -471.93, -53308.73, -59694.24, -22625.57, -76354.34, 0.000, 0.000, 0.000, 15:22:16.705
233, -35817.64, 61046.61, 21132.88, 92283.35, 152482.17, 111309.16, -28797.03, 38506.67, 12675.32, -86541.95, -24419.64, -471.93, -53308.73, -59694.24, -22625.57, -76354.34, 0.448, 0.758, -0.416, 15:22:16.705
234, -35817.64, 61046.61, 21132.88, 92283.35, 152482.17, 111309.16, -28797.03, 38506.67, 12903.42, -86548.59, -24376.83, -479.87, -53196.73, -59704.66, -22651.95, -76336.75, 0.000, 0.000, 0.000, 15:22:16.705
235, -35883.09, 61045.56, 21125.53, 92260.45, 152463.03, 111295.23, -28411.05, 38776.77, 12903.42, -86548.59, -24376.83, -479.87, -53196.73, -59704.66, -22651.95, -76336.75, 0.000, 0.000, 0.000, 15:22:16.705
236, -35883.09, 61045.56, 21125.53, 92260.45, 152463.03, 111295.23, -28411.05, 38776.77, 12836.41, -86555.12, -24414.36, -478.15, -53248.13, -59721.49, -22412.43, -76355.48, 0.000, 0.000, 0.000, 15:22:16.706
237, -35925.27, 61065.95, 21133.02, 92290.75, 152482.09, 111305.80, -28584.17, 38627.55, 12836.41, -86555.12, -24414.36, -478.15, -53248.13, -59721.49, -22412.43, -76355.48, 0.000, 0.000, 0.000, 15:22:16.706
238, -35925.27, 61065.95, 21133.02, 92290.75, 152482.09, 111305.80, -28584.17, 38627.55, 12736.92, -86537.39, -24394.71, -467.24, -53267.56, -59694.46, -22781.48, -76326.24, 0.000, 0.000, 0.000, 15:22:16.706
239, -35831.10, 61060.47, 21125.71, 92264.80, 152468.89, 111349.41, -28722.42, 38640.40, 12736.92, -86537.39, -24394.71, -467.24, -53267.56, -59694.46, -22781.48, -76326.24, 0.000, 0.000, 0.000, 15:22:16.706
240, -35831.10, 61060.47, 21125.71, 92264.80, 152468.89, 111349.41, -28722.42, 38640.40, 12925.41, -86565.60, -24400.19, -494.82, -53201.71, -59730.41, -22451.25, -76345.53, 0.000, 0.000, 0.000, 15:22:16.707
241, -35979.91, 61072.12, 21115.83, 92257.27, 152478.03, 111316.55, -28336.96, 38827.46, 12925.41, -86565.60, -24400.19, -494.82, -53201.71, -59730.41, -22451.25, -76345.53, 0.000, 0.000, 0.000, 15:22:16.707
242, -35979.91, 61072.12, 21115.83, 92257.27, 152478.03, 111316.55, -28336.96, 38827.46, 12663.11, -86552.91, -24434.41, -477.55, -53311.73, -59696.55, -22634.58, -76369.74, 0.000, 0.000, 0.000, 15:22:16.707
243, -35878.62, 61079.36, 21109.61, 92261.29, 152471.13, 111323.10, -28837.28, 38576.11, 12663.11, -86552.91, -24434.41, -477.55, -53311.73, -59696.55, -22634.58, -76369.74, 0.448, 0.762, -0.412, 15:22:16.707
244, -35878.62, 61079.36, 21109.61, 92261.29, 152471.13, 111323.10, -28837.28, 38576.11, 12862.24, -86557.69, -24401.44, -482.73, -53254.17, -59723.43, -22656.26, -76360.44, 0.000, 0.000, 0.000, 15:22:16.708
245, -35931.21, 61089.59, 21112.16, 92250.16, 152449.89, 111309.25, -28461.35, 38843.55, 12862.24, -86557.69, -24401.44, -482.73, -53254.17, -59723.43, -22656.26, -76360.44, 0.000, 0.000, 0.000, 15:22:16.708
246, -35931.21, 61089.59, 21112.16, 92250.16, 152449.89, 111309.25, -28461.35, 38843.55, 12807.39, -86553.88, -24419.44, -460.98, -53278.13, -59739.19, -22392.83, -76381.18, 0.000, 0.000, 0.000, 15:22:16.708
247, -35956.69, 61125.27, 21131.29, 92280.90, 152468.28, 111290.05, -28609.18, 38721.58, 12807.39, -86553.88, -24419.44, -460.98, -53278.13, -59739.19, -22392.83, -76381.18, 0.000, 0.000, 0.000, 15:22:16.708
248, -35956.69, 61125.27, 21131.29, 92280.90, 152468.28, 111290.05, -28609.18, 38721.58, 12738.15, -86522.03, -24380.48, -429.58, -53260.09, -59678.51, -22747.46, -76352.66, 0.000, 0.000, 0.000, 15:22:16.708
249, -35852.82, 61139.02, 21139.16, 92278.33, 152475.42, 111351.89, -28715.53, 38757.86, 12738.15, -86522.03, -24380.48, -429.58, -53260.09, -59678.51, -22747.46, -76352.66, 0.000, 0.000, 0.000, 15:22:16.709
250, -35852.82, 61139.02, 21139.16, 92278.33, 152475.42, 111351.89, -28715.53, 38757.86, 12929.19, -86537.26, -24374.06, -435.19, -53215.23, -59716.37, -22425.75, -76349.38, 0.000, 0.000, 0.000, 15:22:16.709
251, -35990.06, 61160.56, 21145.42, 92294.75, 152487.91, 111350.38, -28334.88, 38934.91, 12929.19, -86537.26, -24374.06, -435.19, -53215.23, -59716.37, -22425.75, -76349.38, 0.000, 0.000, 0.000, 15:22:16.709
252, -35990.06, 61160.56, 21145.42, 92294.75, 152487.91, 111350.38, -28334.88, 38934.91, 12683.18, -86503.93, -24394.69, -399.27, -53322.86, -59665.59, -22597.90, -76338.16, 0.000, 0.000, 0.000, 15:22:16.709
253, -35874.88, 61184.59, 21154.05, 92306.71, 152497.19, 111382.00, -28802.46, 38712.95, 12683.18, -86503.93, -24394.69, -399.27, -53322.86, -59665.59, -22597.90, -76338.16, 0.448, 0.768, -0.420, 15:22:16.709
254, -35874.88, 61184.59, 21154.05, 92306.71, 152497.19, 111382.00, -28802.46, 38712.95, 12892.02, -86520.02, -24358.35, -412.46, -53230.25, -59691.43, -22638.88, -76324.77, 0.000, 0.000, 0.000, 15:22:16.709
255, -35950.21, 61181.50, 21149.64, 92283.87, 152493.81, 111370.85, -28445.39, 38955.29, 12892.02, -86520.02, -24358.35, -412.46, -53230.25, -59691.43, -22638.88, -76324.77, 0.000, 0.000, 0.000, 15:22:16.709
0, -35950.21, 61181.50, 21149.64, 92283.87, 152493.81, 111370.85, -28445.39, 38955.29, 12814.81, -86525.63, -24397.73, -411.09, -53289.35, -59700.77, -22401.88, -76339.48, 0.000, 0.000, 0.000, 15:22:16.710
1, -35989.35, 61209.11, 21157.45, 92305.77, 152507.42, 111366.38, -28618.81, 38809.89, 12814.81, -86525.63, -24397.73, -411.09, -53289.35, -59700.77, -22401.88, -76339.48, 0.000, 0.000, 0.000, 15:22:16.710
2, -35989.35, 61209.11, 21157.45, 92305.77, 152507.42, 111366.38, -28618.81, 38809.89, 12742.26, -86508.49, -24375.36, -403.09, -53291.86, -59680.50, -22771.71, -76317.37, 0.000, 0.000, 0.000, 15:22:16.710
3, -35891.49, 61209.29, 21146.25, 92280.31, 152481.61, 111399.86, -28743.16, 38827.13, 12742.26, -86508.49, -24375.36, -403.09, -53291.86, -59680.50, -22771.71, -76317.37, 0.000, 0.000, 0.000, 15:22:16.710
4, -35891.49, 61209.29, 21146.25, 92280.31, 152481.61, 111399.86, -28743.16, 38827.13, 12950.35, -86523.45, -24379.70, -421.06, -53240.85, -59701.93, -22408.41, -76318.48, 0.000, 0.000, 0.000, 15:22:16.710
5, -36014.76, 61228.85, 21153.96, 92293.75, 152496.14, 111394.52, -28346.44, 39013.89, 12950.35, -86523.45, -24379.70, -421.06, -53240.85, -59701.93, -22408.41, -76318.48, 0.000, 0.000, 0.000, 15:22:17.146
6, -36014.76, 61228.85, 21153.96, 92293.75, 152496.14, 111394.52, -28346.44, 39013.89, 12715.55, -86505.63, -24402.00, -393.30, -53327.82, -59671.49, -22561.29, -76319.45, 0.000, 0.000, 0.000, 15:22:17.146
7, -35897.01, 61243.80, 21152.39, 92287.71, 152505.91, 111417.79, -28836.45, 38762.08, 12715.55, -86505.63, -24402.00, -393.30, -53327.82, -59671.49, -22561.29, -76319.45, 0.442, 0.766, -0.416, 15:22:17.146
8, -35897.01, 61243.80, 21152.39, 92287.71, 152505.91, 111417.79, -28836.45, 38762.08, 12923.64, -86521.41, -24371.45, -414.42, -53253.10, -59680.56, -22576.11, -76319.65, 0.000, 0.000, 0.000, 15:22:17.147
9, -35960.40, 61255.31, 21150.79, 92270.16, 152489.88, 111428.49, -28437.27, 39034.93, 12923.64, -86521.41, -24371.45, -414.42, -53253.10, -59680.56, -22576.11, -76319.65, 0.000, 0.000, 0.000, 15:22:17.147
10, -35960.40, 61255.31, 21150.79, 92270.16, 152489.88, 111428.49, -28437.27, 39034.93, 12874.89, -86513.32, -24391.90, -398.51, -53280.05, -59674.93, -22332.95, -76344.39, 0.000, 0.000, 0.000, 15:22:17.147
11, -36002.58, 61290.40, 21162.65, 92289.74, 152507.31, 111418.50, -28603.68, 38892.23, 12874.89, -86513.32, -24391.90, -398.51, -53280.05, -59674.93, -22332.95, -76344.39, 0.000, 0.000, 0.000, 15:22:17.147
12, -36002.58, 61290.40, 21162.65, 92289.74, 152507.31, 111418.50, -28603.68, 38892.23, 12800.42, -86514.26, -24372.43, -401.68, -53274.46, -59700.86, -22691.49, -76348.75, 0.000, 0.000, 0.000, 15:22:17.147
13, -35919.32, 61294.92, 21157.20, 92262.90, 152486.97, 111424.80, -28712.38, 38918.34, 12800.42, -86514.26, -24372.43, -401.68, -53274.46, -59700.86, -22691.49, -76348.75, 0.000, 0.000, 0.000, 15:22:17.147
14, -35919.32, 61294.92, 21157.20, 92262.90, 152486.97, 111424.80, -28712.38, 38918.34, 12984.24, -86534.95, -24379.23, -420.95, -53248.71, -59691.45, -22358.83, -76362.72, 0.000, 0.000, 0.000, 15:22:17.148
15, -36068.11, 61301.78, 21144.39, 92261.80, 152474.97, 111397.49, -28320.46, 39102.97, 12984.24, -86534.95, -24379.23, -420.95, -53248.71, -59691.45, -22358.83, -76362.72, 0.000, 0.000, 0.000, 15:22:17.148
16, -36068.11, 61301.78, 21144.39, 92261.80, 152474.97, 111397.49, -28320.46, 39102.97, 12748.92, -86506.26, -24393.78, -389.17, -53340.89, -59675.47, -22539.05, -76354.54, 0.446, 0.766, -0.412, 15:22:17.148
17, -35934.59, 61355.04, 21187.38, 92296.95, 152503.28, 111460.03, -28806.26, 38863.87, 12748.92, -86506.26, -24393.78, -389.17, -53340.89, -59675.47, -22539.05, -76354.54, 0.000, 0.000, 0.000, 15:22:17.148
18, -35934.59, 61355.04, 21187.38, 92296.95, 152503.28, 111460.03, -28806.26, 38863.87, 12996.69, -86504.06, -24339.69, -389.68, -53197.66, -59670.66, -22552.02, -76335.07, 0.000, 0.000, 0.000, 15:22:17.149
19, -36012.91, 61354.04, 21177.38, 92270.50, 152484.25, 111445.75, -28424.71, 39124.36, 12996.69, -86504.06, -24339.69, -389.68, -53197.66, -59670.66, -22552.02, -76335.07, 0.000, 0.000, 0.000, 15:22:17.149
20, -36012.91, 61354.04, 21177.38, 92270.50, 152484.25, 111445.75, -28424.71, 39124.36, 12913.72, -86511.30, -24384.88, -392.83, -53274.24, -59699.59, -22296.33, -76360.15, 0.000, 0.000, 0.000, 15:22:17.149
21, -36070.48, 61365.26, 21171.79, 92279.55, 152529.06, 111431.06, -28594.85, 38975.61, 12913.72, -86511.30, -24384.88, -392.83, -53274.24, -59699.59, -22296.33, -76360.15, 0.000, 0.000, 0.000, 15:22:17.149
22, -36070.48, 61365.26, 21171.79, 92279.55, 152529.06, 111431.06, -28594.85, 38975.61, 12825.74, -86514.13, -24379.85, -395.94, -53290.87, -59690.40, -22648.49, -76346.41, 0.000, 0.000, 0.000, 15:22:17.149
23, -35985.66, 61363.80, 21168.13, 92265.36, 152520.13, 111456.23, -28700.51, 39007.05, 12825.74, -86514.13, -24379.85, -395.94, -53290.87, -59690.40, -22648.49, -76346.41, 0.000, 0.000, 0.000, 15:22:17.150
24, -35985.66, 61363.80, 21168.13, 92265.36, 152520.13, 111456.23, -28700.51, 39007.05, 13024.09, -86521.59, -24369.64, -396.90, -53224.96, -59698.94, -22296.29, -76330.13, 0.000, 0.000, 0.000, 15:22:17.150
25, -36131.17, 61386.96, 21174.97, 92278.55, 152536.41, 111443.70, -28314.12, 39188.93, 13024.09, -86521.59, -24369.64, -396.90, -53224.96, -59698.94, -22296.29, -76330.13, 0.000, 0.000, 0.000, 15:22:17.150
26, -36131.17, 61386.96, 21174.97, 92278.55, 152536.41, 111443.70, -28314.12, 39188.93, 12737.25, -86500.55, -24389.53, -370.12, -53340.83, -59668.79, -22487.80, -76326.33, 0.446, 0.764, -0.408, 15:22:17.150
27, -36028.24, 61409.38, 21182.59, 92295.70, 152546.45, 111488.98, -28826.28, 38923.39, 12737.25, -86500.55, -24389.53, -370.12, -53340.83, -59668.79, -22487.80, -76326.33, 0.000, 0.000, 0.000, 15:22:17.150
28, -36028.24, 61409.38, 21182.59, 92295.70, 152546.45, 111488.98, -28826.28, 38923.39, 12935.38, -86513.85, -24352.45, -385.66, -53241.61, -59687.61, -22512.99, -76303.89, 0.000, 0.000, 0.000, 15:22:17.150
29, -36108.21, 61399.91, 21170.01, 92267.41, 152520.72, 111478.88, -28440.61, 39181.55, 12935.38, -86513.85, -24352.45, -385.66, -53241.61, -59687.61, -22512.99, -76303.89, 0.000, 0.000, 0.000, 15:22:17.151
30, -36108.21, 61399.91, 21170.01, 92267.41, 152520.72, 111478.88, -28440.61, 39181.55, 12856.97, -86525.81, -24401.35, -392.63, -53311.10, -59704.39, -22254.69, -76317.86, 0.000, 0.000, 0.000, 15:22:17.151
31, -36153.72, 61409.80, 21160.24, 92282.46, 152522.80, 111495.35, -28598.16, 39048.09, 12856.97, -86525.81, -24401.35, -392.63, -53311.10, -59704.39, -22254.69, -76317.86, 0.000, 0.000, 0.000, 15:22:17.151
32, -36153.72, 61409.80, 21160.24, 92282.46, 152522.80, 111495.35, -28598.16, 39048.09, 12800.04, -86505.41, -24376.74, -375.24, -53299.48, -59705.31, -22585.81, -76303.13, 0.000, 0.000, 0.000, 15:22:17.151
33, -36047.62, 61423.46, 21162.74, 92277.85, 152505.44, 111518.52, -28700.62, 39081.02, 12800.04, -86505.41, -24376.74, -375.24, -53299.48, -59705.31, -22585.81, -76303.13, 0.000, 0.000, 0.000, 15:22:17.151
34, -36047.62, 61423.46, 21162.74, 92277.85, 152505.44, 111518.52, -28700.62, 39081.02, 12984.20, -86512.63, -24371.94, -378.12, -53259.18, -59665.66, -22253.35, -76322.98, 0.000, 0.000, 0.000, 15:22:17.151
35, -36175.85, 61442.55, 21161.27, 92283.29, 152504.06, 111478.14, -28323.66, 39253.42, 12984.20, -86512.63, -24371.94, -378.12, -53259.18, -59665.66, -22253.35, -76322.98, 0.000, 0.000, 0.000, 15:22:17.152
36, -36175.85, 61442.55, 21161.27, 92283.29, 152504.06, 111478.14, -28323.66, 39253.42, 12737.48, -86494.70, -24391.68, -355.24, -53372.21, -59691.16, -22434.04, -76347.86, 0.442, 0.770, -0.406, 15:22:17.152
37, -36057.00, 61475.45, 21175.15, 92294.66, 152502.58, 111482.45, -28823.49, 38996.37, 12737.48, -86494.70, -24391.68, -355.24, -53372.21, -59691.16, -22434.04, -76347.86, 0.000, 0.000, 0.000, 15:22:17.152
38, -36057.00, 61475.45, 21175.15, 92294.66, 152502.58, 111482.45, -28823.49, 38996.37, 12970.90, -86498.66, -24343.78, -360.31, -53279.45, -59695.29, -22504.23, -76343.52, 0.000, 0.000, 0.000, 15:22:17.152
39, -36115.21, 61487.86, 21177.74, 92280.85, 152490.84, 111465.95, -28447.42, 39245.30, 12970.90, -86498.66, -24343.78, -360.31, -53279.45, -59695.29, -22504.23, -76343.52, 0.000, 0.000, 0.000, 15:22:17.152
40, -36115.21, 61487.86, 21177.74, 92280.85, 152490.84, 111465.95, -28447.42, 39245.30, 12913.61, -86495.08, -24371.56, -354.54, -53314.03, -59708.46, -22270.14, -76354.80, 0.000, 0.000, 0.000, 15:22:17.152
41, -36151.98, 61517.59, 21184.98, 92307.70, 152507.83, 111466.05, -28592.82, 39124.52, 12913.61, -86495.08, -24371.56, -354.54, -53314.03, -59708.46, -22270.14, -76354.80, 0.000, 0.000, 0.000, 15:22:17.153
42, -36151.98, 61517.59, 21184.98, 92307.70, 152507.83, 111466.05, -28592.82, 39124.52, 12846.53, -86468.80, -24347.13, -340.60, -53315.61, -59680.32, -22619.81, -76335.23, 0.000, 0.000, 0.000, 15:22:17.153
43, -36053.05, 61528.00, 21190.93, 92298.62, 152510.08, 111491.57, -28698.59, 39148.39, 12846.53, -86468.80, -24347.13, -340.60, -53315.61, -59680.32, -22619.81, -76335.23, 0.000, 0.000, 0.000, 15:22:17.153
44, -36053.05, 61528.00, 21190.93, 92298.62, 152510.08, 111491.57, -28698.59, 39148.39, 13041.33, -86491.75, -24344.27, -355.35, -53258.71, -59722.85, -22283.08, -76339.97, 0.000, 0.000, 0.000, 15:22:17.153
45, -36190.07, 61539.34, 21187.64, 92303.16, 152514.31, 111467.32, -28302.05, 39331.13, 13041.33, -86491.75, -24344.27, -355.35, -53258.71, -59722.85, -22283.08, -76339.97, 0.000, 0.000, 0.000, 15:22:17.153
46, -36190.07, 61539.34, 21187.64, 92303.16, 152514.31, 111467.32, -28302.05, 39331.13, 12771.76, -86458.45, -24368.47, -321.60, -53366.84, -59649.65, -22495.69, -76338.73, 0.446, 0.774, -0.402, 15:22:17.153
47, -36079.34, 61551.18, 21185.23, 92310.80, 152527.19, 111486.18, -28827.60, 39039.18, 12771.76, -86458.45, -24368.47, -321.60, -53366.84, -59649.65, -22495.69, -76338.73, 0.000, 0.000, 0.000, 15:22:17.153
48, -36079.34, 61551.18, 21185.23, 92310.80, 152527.19, 111486.18, -28827.60, 39039.18, 12959.41, -86486.70, -24352.54, -355.44, -53291.90, -59699.47, -22534.83, -76332.44, 0.000, 0.000, 0.000, 15:22:17.154
49, -36158.41, 61539.34, 21165.74, 92279.66, 152511.25, 111494.92, -28428.89, 39299.53, 12959.41, -86486.70, -24352.54, -355.44, -53291.90, -59699.47, -22534.83, -76332.44, 0.000, 0.000, 0.000, 15:22:17.154
50, -36158.41, 61539.34, 21165.74, 92279.66, 152511.25, 111494.92, -28428.89, 39299.53, 12845.90, -86491.03, -24390.18, -356.73, -53345.54, -59707.23, -22295.02, -76350.29, 0.000, 0.000, 0.000, 15:22:17.154
51, -36189.35, 61561.08, 21167.59, 92298.33, 152538.14, 111486.66, -28609.05, 39134.42, 12845.90, -86491.03, -24390.18, -356.73, -53345.54, -59707.23, -22295.02, -76350.29, 0.000, 0.000, 0.000, 15:22:17.154
52, -36189.35, 61561.08, 21167.59, 92298.33, 152538.14, 111486.66, -28609.05, 39134.42, 12757.77, -86484.22, -24370.91, -358.81, -53341.57, -59720.53, -22653.43, -76331.72, 0.000, 0.000, 0.000, 15:22:17.154
53, -36099.77, 61557.84, 21162.79, 92279.24, 152531.73, 111533.21, -28703.95, 39158.60, 12757.77, -86484.22, -24370.91, -358.81, -53341.57, -59720.53, -22653.43, -76331.72, 0.000, 0.000, 0.000, 15:22:17.155
54, -36099.77, 61557.84, 21162.79, 92279.24, 152531.73, 111533.21, -28703.95, 39158.60, 12937.39, -86497.47, -24369.82, -374.30, -53286.49, -59692.37, -22300.09, -76315.40, 0.000, 0.000, 0.000, 15:22:17.155
55, -36230.37, 61573.98, 21166.16, 92295.36, 152539.97, 111505.43, -28335.48, 39306.30, 12937.39, -86497.47, -24369.82, -374.30, -53286.49, -59692.37, -22300.09, -76315.40, 0.000, 0.000, 0.000, 15:22:17.155
56, -36230.37, 61573.98, 21166.16, 92295.36, 152539.97, 111505.43, -28335.48, 39306.30, 12677.31, -86475.99, -24392.08, -352.46, -53388.91, -59692.41, -22511.25, -76315.52, 0.438, 0.768, -0.404, 15:22:17.155
57, -36107.52, 61576.93, 21160.33, 92293.48, 152536.13, 111532.92, -28832.07, 39040.54, 12677.31, -86475.99, -24392.08, -352.46, -53388.91, -59692.41, -22511.25, -76315.52, 0.000, 0.000, 0.000, 15:22:17.155
58, -36107.52, 61576.93, 21160.33, 92293.48, 152536.13, 111532.92, -28832.07, 39040.54, 12883.41, -86500.71, -24367.54, -379.04, -53320.31, -59711.48, -22507.38, -76319.11, 0.000, 0.000, 0.000, 15:22:17.155
59, -36168.88, 61569.29, 21142.92, 92266.21, 152502.53, 111508.05, -28413.36, 39318.39, 12883.41, -86500.71, -24367.54, -379.04, -53320.31, -59711.48, -22507.38, -76319.11, 0.000, 0.000, 0.000, 15:22:17.156
60, -36168.88, 61569.29, 21142.92, 92266.21, 152502.53, 111508.05, -28413.36, 39318.39, 12806.54, -86483.05, -24392.23, -359.26, -53390.31, -59701.46, -22264.44, -76354.56, 0.000, 0.000, 0.000, 15:22:17.156
61, -36174.78, 61610.26, 21166.03, 92307.45, 152519.52, 111511.62, -28589.00, 39160.70, 12806.54, -86483.05, -24392.23, -359.26, -53390.31, -59701.46, -22264.44, -76354.56, 0.000, 0.000, 0.000, 15:22:17.156
62, -36174.78, 61610.26, 21166.03, 92307.45, 152519.52, 111511.62, -28589.00, 39160.70, 12765.86, -86454.13, -24338.21, -329.67, -53339.96, -59662.55, -22625.55, -76330.53, 0.000, 0.000, 0.000, 15:22:17.156
63, -36062.93, 61610.66, 21164.24, 92290.77, 152499.05, 111539.67, -28679.32, 39189.63, 12765.86, -86454.13, -24338.21, -329.67, -53339.96, -59662.55, -22625.55, -76330.53, 0.000, 0.000, 0.000, 15:22:17.156
64, -36062.93, 61610.66, 21164.24, 92290.77, 152499.05, 111539.67, -28679.32, 39189.63, 12959.56, -86475.63, -24333.79, -342.38, -53292.61, -59695.76, -22279.73, -76342.78, 0.000, 0.000, 0.000, 15:22:17.156
65, -36177.46, 61616.98, 21163.44, 92299.20, 152504.66, 111516.78, -28303.03, 39351.61, 12959.56, -86475.63, -24333.79, -342.38, -53292.61, -59695.76, -22279.73, -76342.78, 0.442, 0.772, -0.400, 15:22:17.157
66, -36177.46, 61616.98, 21163.44, 92299.20, 152504.66, 111516.78, -28303.03, 39351.61, 12708.31, -86452.52, -24355.89, -315.34, -53400.84, -59679.49, -22494.01, -76351.81, 0.000, 0.000, 0.000, 15:22:17.157
67, -36056.25, 61620.85, 21165.76, 92305.44, 152502.23, 111539.76, -28793.52, 39094.34, 12708.31, -86452.52, -24355.89, -315.34, -53400.84, -59679.49, -22494.01, -76351.81, 0.000, 0.000, 0.000, 15:22:17.157
68, -36056.25, 61620.85, 21165.76, 92305.44, 152502.23, 111539.76, -28793.52, 39094.34, 12939.02, -86464.44, -24320.53, -328.48, -53320.00, -59686.40, -22518.13, -76340.28, 0.000, 0.000, 0.000, 15:22:17.157
69, -36128.55, 61616.98, 21167.37, 92288.67, 152500.42, 111555.09, -28394.31, 39356.14, 12939.02, -86464.44, -24320.53, -328.48, -53320.00, -59686.40, -22518.13, -76340.28, 0.000, 0.000, 0.000, 15:22:17.157
70, -36128.55, 61616.98, 21167.37, 92288.67, 152500.42, 111555.09, -28394.31, 39356.14, 12859.52, -86459.77, -24354.19, -318.80, -53371.92, -59694.36, -22278.59, -76347.88, 0.000, 0.000, 0.000, 15:22:17.158
71, -36156.61, 61629.23, 21173.72, 92308.16, 152518.84, 111555.45, -28568.39, 39207.80, 12859.52, -86459.77, -24354.19, -318.80, -53371.92, -59694.36, -22278.59, -76347.88, 0.000, 0.000, 0.000, 15:22:17.158
72, -36156.61, 61629.23, 21173.72, 92308.16, 152518.84, 111555.45, -28568.39, 39207.80, 12784.57, -86450.76, -24329.34, -315.47, -53353.19, -59673.37, -22625.20, -76337.73, 0.000, 0.000, 0.000, 15:22:17.158
73, -36080.86, 61623.91, 21165.92, 92281.70, 152500.88, 111589.91, -28669.26, 39234.13, 12784.57, -86450.76, -24329.34, -315.47, -53353.19, -59673.37, -22625.20, -76337.73, 0.000, 0.000, 0.000, 15:22:17.158
74, -36080.86, 61623.91, 21165.92, 92281.70, 152500.88, 111589.91, -28669.26, 39234.13, 12942.49, -86479.70, -24345.09, -348.73, -53322.16, -59709.82, -22286.52, -76349.73, 0.000, 0.000, 0.000, 15:22:17.158
75, -36231.46, 61630.57, 21158.41, 92285.12, 152517.69, 111565.69, -28286.87, 39407.35, 12942.49, -86479.70, -24345.09, -348.73, -53322.16, -59709.82, -22286.52, -76349.73, 0.436, 0.766, -0.402, 15:22:17.159
76, -36231.46, 61630.57, 21158.41, 92285.12, 152517.69, 111565.69, -28286.87, 39407.35, 12696.77, -86453.13, -24366.40, -325.73, -53430.86, -59686.15, -22467.39, -76347.81, 0.000, 0.000, 0.000, 15:22:17.159
77, -36108.71, 61641.59, 21160.57, 92287.17, 152524.50, 111585.23, -28759.16, 39176.21, 12696.77, -86453.13, -24366.40, -325.73, -53430.86, -59686.15, -22467.39, -76347.81, 0.000, 0.000, 0.000, 15:22:17.159
78, -36108.71, 61641.59, 21160.57, 92287.17, 152524.50, 111585.23, -28759.16, 39176.21, 12931.20, -86466.58, -24336.42, -341.04, -53328.91, -59715.32, -22461.29, -76333.40, 0.000, 0.000, 0.000, 15:22:17.159
79, -36175.87, 61644.16, 21150.36, 92270.41, 152514.44, 111590.74, -28352.14, 39450.65, 12931.20, -86466.58, -24336.42, -341.04, -53328.91, -59715.32, -22461.29, -76333.40, 0.000, 0.000, 0.000, 15:22:17.159
80, -36175.87, 61644.16, 21150.36, 92270.41, 152514.44, 111590.74, -28352.14, 39450.65, 12841.30, -86460.12, -24372.43, -333.26, -53406.72, -59691.20, -22227.15, -76352.35, 0.000, 0.000, 0.000, 15:22:17.159
81, -36208.13, 61661.75, 21154.83, 92289.45, 152524.81, 111578.61, -28544.85, 39293.52, 12841.30, -86460.12, -24372.43, -333.26, -53406.72, -59691.20, -22227.15, -76352.35, 0.000, 0.000, 0.000, 15:22:17.160
82, -36208.13, 61661.75, 21154.83, 92289.45, 152524.81, 111578.61, -28544.85, 39293.52, 12776.50, -86445.01, -24341.32, -327.25, -53372.88, -59665.52, -22577.68, -76341.77, 0.000, 0.000, 0.000, 15:22:17.160
83, -36123.14, 61662.25, 21161.09, 92283.87, 152515.38, 111611.64, -28641.64, 39325.48, 12776.50, -86445.01, -24341.32, -327.25, -53372.88, -59665.52, -22577.68, -76341.77, 0.000, 0.000, 0.000, 15:22:17.160
84, -36123.14, 61662.25, 21161.09, 92283.87, 152515.38, 111611.64, -28641.64, 39325.48, 12958.40, -86458.69, -24340.85, -339.68, -53321.58, -59692.68, -22249.55, -76350.92, 0.000, 0.000, 0.000, 15:22:17.160
85, -36271.09, 61655.74, 21149.29, 92282.23, 152494.48, 111580.59, -28266.66, 39493.32, 12958.40, -86458.69, -24340.85, -339.68, -53321.58, -59692.68, -22249.55, -76350.92, 0.440, 0.766, -0.404, 15:22:17.160
86, -36271.09, 61655.74, 21149.29, 92282.23, 152494.48, 111580.59, -28266.66, 39493.32, 12704.15, -86442.15, -24367.87, -322.31, -53445.23, -59683.92, -22432.66, -76369.05, 0.000, 0.000, 0.000, 15:22:17.161
87, -36170.46, 61665.96, 21147.57, 92280.56, 152491.50, 111596.80, -28752.12, 39245.06, 12704.15, -86442.15, -24367.87, -322.31, -53445.23, -59683.92, -22432.66, -76369.05, 0.000, 0.000, 0.000, 15:22:17.161
88, -36170.46, 61665.96, 21147.57, 92280.56, 152491.50, 111596.80, -28752.12, 39245.06, 12944.30, -86447.38, -24328.62, -330.72, -53354.28, -59711.41, -22426.13, -76359.59, 0.000, 0.000, 0.000, 15:22:17.161
89, -36235.35, 61680.48, 21153.89, 92277.74, 152489.92, 111598.39, -28334.03, 39522.20, 12944.30, -86447.38, -24328.62, -330.72, -53354.28, -59711.41, -22426.13, -76359.59, 0.000, 0.000, 0.000, 15:22:17.161
90, -36235.35, 61680.48, 21153.89, 92277.74, 152489.92, 111598.39, -28334.03, 39522.20, 12863.94, -86433.21, -24348.07, -308.10, -53410.61, -59694.49, -22181.40, -76378.26, 0.000, 0.000, 0.000, 15:22:17.161
91, -36262.66, 61705.25, 21163.17, 92305.84, 152506.75, 111581.45, -28538.15, 39350.71, 12863.94, -86433.21, -24348.07, -308.10, -53410.61, -59694.49, -22181.40, -76378.26, 0.000, 0.000, 0.000, 15:22:17.162
92, -36262.66, 61705.25, 21163.17, 92305.84, 152506.75, 111581.45, -28538.15, 39350.71, 12803.24, -86416.09, -24320.35, -294.53, -53407.68, -59679.18, -22527.74, -76356.87, 0.000, 0.000, 0.000, 15:22:17.162
93, -36174.35, 61702.37, 21163.82, 92297.28, 152478.83, 111637.66, -28624.22, 39387.24, 12803.24, -86416.09, -24320.35, -294.53, -53407.68, -59679.18, -22527.74, -76356.87, 0.000, 0.000, 0.000, 15:22:17.162
94, -36174.35, 61702.37, 21163.82, 92297.28, 152478.83, 111637.66, -28624.22, 39387.24, 12997.87, -86427.11, -24318.21, -304.61, -53335.17, -59662.62, -22170.94, -76347.23, 0.000, 0.000, 0.000, 15:22:17.162
95, -36322.61, 61710.86, 21168.49, 92309.70, 152486.70, 111622.48, -28261.50, 39533.62, 12997.87, -86427.11, -24318.21, -304.61, -53335.17, -59662.62, -22170.94, -76347.23, 0.438, 0.776, -0.408, 15:22:17.163
96, -36322.61, 61710.86, 21168.49, 92309.70, 152486.70, 111622.48, -28261.50, 39533.62, 12740.40, -86404.29, -24335.97, -279.93, -53429.92, -59664.11, -22376.33, -76336.30, 0.000, 0.000, 0.000, 15:22:17.163
97, -36218.23, 61699.53, 21162.23, 92303.23, 152501.00, 111640.88, -28763.34, 39269.82, 12740.40, -86404.29, -24335.97, -279.93, -53429.92, -59664.11, -22376.33, -76336.30, 0.000, 0.000, 0.000, 15:22:17.163
98, -36218.23, 61699.53, 21162.23, 92303.23, 152501.00, 111640.88, -28763.34, 39269.82, 12951.85, -86430.13, -24321.60, -312.59, -53363.11, -59691.18, -22360.08, -76335.36, 0.000, 0.000, 0.000, 15:22:17.163
