%OpenBCI Raw EEG Data
%
%Sample Rate = 250.0 Hz
%First Column = SampleIndex
%Last Column = Timestamp 
%Other Columns = EEG data in microvolts followed by Accel Data (in G) interleaved with Aux Data
51, -40310.83, 56773.54, 39096.24, 101070.38, 152255.67, 109475.45, 9570.37, -12648.83, 2560.17, -70011.96, -34569.03, -2809.35, -70657.57, -70183.34, -38033.26, -80623.12, 0.000, 0.000, 0.000, 15:27:47.189
52, -40310.83, 56773.54, 39096.24, 101070.38, 152255.67, 109475.45, 9570.37, -12648.83, 2669.58, -70020.19, -34498.15, -2839.39, -70608.16, -70215.30, -38193.18, -80596.52, 0.000, 0.000, 0.000, 15:27:47.189
53, -40023.64, 56758.97, 39085.64, 101037.57, 152240.70, 109453.70, 9781.15, -12456.96, 2669.58, -70020.19, -34498.15, -2839.39, -70608.16, -70215.30, -38193.18, -80596.52, 0.000, 0.000, 0.000, 15:27:47.190
54, -40023.64, 56758.97, 39085.64, 101037.57, 152240.70, 109453.70, 9781.15, -12456.96, 2911.99, -70023.99, -34520.19, -2846.41, -70625.45, -70221.94, -37915.75, -80618.52, 0.000, 0.000, 0.000, 15:27:47.190
55, -40344.50, 56763.80, 39083.50, 101053.48, 152255.97, 109465.72, 9866.60, -12496.64, 2911.99, -70023.99, -34520.19, -2846.41, -70625.45, -70221.94, -37915.75, -80618.52, 0.000, 0.000, 0.000, 15:27:47.190
56, -40344.50, 56763.80, 39083.50, 101053.48, 152255.97, 109465.72, 9866.60, -12496.64, 2515.71, -70019.66, -34564.85, -2845.29, -70637.12, -70208.93, -38239.41, -80636.69, 0.000, 0.000, 0.000, 15:27:47.190
57, -40080.70, 56750.05, 39074.07, 101034.82, 152246.91, 109452.24, 9596.30, -12563.89, 2515.71, -70019.66, -34564.85, -2845.29, -70637.12, -70208.93, -38239.41, -80636.69, 0.000, 0.000, 0.000, 15:27:47.190
58, -40080.70, 56750.05, 39074.07, 101034.82, 152246.91, 109452.24, 9596.30, -12563.89, 2929.15, -70030.98, -34504.99, -2861.90, -70622.88, -70217.45, -38029.14, -80605.88, 0.000, 0.000, 0.000, 15:27:47.190
59, -40149.10, 56761.80, 39088.35, 101054.22, 152274.06, 109473.25, 9999.41, -12369.86, 2929.15, -70030.98, -34504.99, -2861.90, -70622.88, -70217.45, -38029.14, -80605.88, 0.000, 0.000, 0.000, 15:27:47.191
60, -40149.10, 56761.80, 39088.35, 101054.22, 152274.06, 109473.25, 9999.41, -12369.86, 2656.53, -70004.37, -34571.11, -2831.61, -70654.15, -70190.64, -38054.07, -80638.38, 0.484, 0.798, -0.234, 15:27:47.191
61, -40290.47, 56772.36, 39090.70, 101071.23, 152278.50, 109497.88, 9604.52, -12609.24, 2656.53, -70004.37, -34571.11, -2831.61, -70654.15, -70190.64, -38054.07, -80638.38, 0.000, 0.000, 0.000, 15:27:47.191
62, -40290.47, 56772.36, 39090.70, 101071.23, 152278.50, 109497.88, 9604.52, -12609.24, 2713.37, -70007.49, -34511.56, -2845.96, -70635.94, -70223.01, -38190.48, -80605.69, 0.000, 0.000, 0.000, 15:27:47.191
63, -40008.70, 56760.13, 39088.82, 101056.79, 152270.36, 109477.12, 9796.43, -12427.14, 2713.37, -70007.49, -34511.56, -2845.96, -70635.94, -70223.01, -38190.48, -80605.69, 0.000, 0.000, 0.000, 15:27:47.192
64, -40008.70, 56760.13, 39088.82, 101056.79, 152270.36, 109477.12, 9796.43, -12427.14, 2929.71, -70008.70, -34524.50, -2841.55, -70628.13, -70196.14, -37886.36, -80616.39, 0.000, 0.000, 0.000, 15:27:47.192
65, -40304.64, 56769.11, 39090.05, 101078.27, 152269.23, 109485.08, 9912.82, -12436.40, 2929.71, -70008.70, -34524.50, -2841.55, -70628.13, -70196.14, -37886.36, -80616.39, 0.000, 0.000, 0.000, 15:27:47.192
66, -40304.64, 56769.11, 39090.05, 101078.27, 152269.23, 109485.08, 9912.82, -12436.40, 2490.72, -69985.81, -34559.64, -2817.82, -70642.59, -70191.72, -38184.49, -80626.90, 0.000, 0.000, 0.000, 15:27:47.192
67, -40050.73, 56767.06, 39095.43, 101073.09, 152255.81, 109478.57, 9629.78, -12510.45, 2490.72, -69985.81, -34559.64, -2817.82, -70642.59, -70191.72, -38184.49, -80626.90, 0.000, 0.000, 0.000, 15:27:47.193
68, -40050.73, 56767.06, 39095.43, 101073.09, 152255.81, 109478.57, 9629.78, -12510.45, 2895.15, -69993.99, -34489.61, -2827.45, -70629.74, -70204.01, -37975.59, -80598.38, 0.000, 0.000, 0.000, 15:27:47.193
69, -40092.90, 56772.63, 39096.39, 101075.28, 152238.73, 109481.32, 10071.34, -12274.46, 2895.15, -69993.99, -34489.61, -2827.45, -70629.74, -70204.01, -37975.59, -80598.38, 0.478, 0.816, -0.238, 15:27:47.193
70, -40092.90, 56772.63, 39096.39, 101075.28, 152238.73, 109481.32, 10071.34, -12274.46, 2648.93, -69979.58, -34562.34, -2803.76, -70662.60, -70182.71, -37972.35, -80624.35, 0.000, 0.000, 0.000, 15:27:47.193
71, -40241.63, 56790.46, 39108.51, 101102.10, 152263.03, 109500.03, 9705.82, -12483.90, 2648.93, -69979.58, -34562.34, -2803.76, -70662.60, -70182.71, -37972.35, -80624.35, 0.000, 0.000, 0.000, 15:27:47.193
72, -40241.63, 56790.46, 39108.51, 101102.10, 152263.03, 109500.03, 9705.82, -12483.90, 2695.73, -69962.14, -34483.84, -2796.85, -70627.17, -70191.49, -38163.70, -80586.51, 0.000, 0.000, 0.000, 15:27:47.193
73, -39968.52, 56789.46, 39119.66, 101087.88, 152252.81, 109497.84, 9846.88, -12350.14, 2695.73, -69962.14, -34483.84, -2796.85, -70627.17, -70191.49, -38163.70, -80586.51, 0.000, 0.000, 0.000, 15:27:47.194
74, -39968.52, 56789.46, 39119.66, 101087.88, 152252.81, 109497.84, 9846.88, -12350.14, 2930.34, -69977.32, -34494.86, -2804.05, -70619.98, -70208.73, -37895.28, -80611.85, 0.000, 0.000, 0.000, 15:27:47.194
75, -40279.09, 56791.22, 39110.05, 101095.57, 152266.58, 109510.00, 9934.88, -12391.20, 2930.34, -69977.32, -34494.86, -2804.05, -70619.98, -70208.73, -37895.28, -80611.85, 0.000, 0.000, 0.000, 15:27:47.194
76, -40279.09, 56791.22, 39110.05, 101095.57, 152266.58, 109510.00, 9934.88, -12391.20, 2514.19, -69966.28, -34541.89, -2793.01, -70647.78, -70171.04, -38184.07, -80626.52, 0.000, 0.000, 0.000, 15:27:47.194
77, -40031.13, 56780.25, 39103.79, 101075.45, 152269.91, 109511.92, 9655.30, -12466.80, 2514.19, -69966.28, -34541.89, -2793.01, -70647.78, -70171.04, -38184.07, -80626.52, 0.000, 0.000, 0.000, 15:27:47.194
78, -40031.13, 56780.25, 39103.79, 101075.45, 152269.91, 109511.92, 9655.30, -12466.80, 2896.76, -69985.14, -34482.88, -2805.99, -70629.21, -70194.22, -37995.86, -80614.89, 0.000, 0.000, 0.000, 15:27:47.194
79, -40090.71, 56781.25, 39106.05, 101068.59, 152266.25, 109503.95, 10043.87, -12287.71, 2896.76, -69985.14, -34482.88, -2805.99, -70629.21, -70194.22, -37995.86, -80614.89, 0.494, 0.808, -0.240, 15:27:47.195
80, -40090.71, 56781.25, 39106.05, 101068.59, 152266.25, 109503.95, 10043.87, -12287.71, 2618.91, -69976.67, -34561.63, -2787.17, -70648.14, -70183.09, -37998.59, -80654.01, 0.000, 0.000, 0.000, 15:27:47.195
81, -40253.55, 56774.52, 39095.73, 101063.61, 152279.97, 109491.20, 9671.89, -12513.45, 2618.91, -69976.67, -34561.63, -2787.17, -70648.14, -70183.09, -37998.59, -80654.01, 0.000, 0.000, 0.000, 15:27:47.195
82, -40253.55, 56774.52, 39095.73, 101063.61, 152279.97, 109491.20, 9671.89, -12513.45, 2628.72, -69988.70, -34502.62, -2803.65, -70628.38, -70213.09, -38152.66, -80630.00, 0.000, 0.000, 0.000, 15:27:47.196
83, -39968.43, 56765.67, 39100.33, 101041.55, 152289.66, 109483.45, 9861.08, -12332.98, 2628.72, -69988.70, -34502.62, -2803.65, -70628.38, -70213.09, -38152.66, -80630.00, 0.000, 0.000, 0.000, 15:27:47.196
84, -39968.43, 56765.67, 39100.33, 101041.55, 152289.66, 109483.45, 9861.08, -12332.98, 2833.80, -69998.84, -34515.18, -2801.21, -70621.97, -70208.34, -37865.55, -80637.83, 0.000, 0.000, 0.000, 15:27:47.196
85, -40285.13, 56769.90, 39096.51, 101055.63, 152325.66, 109505.10, 9955.09, -12371.20, 2833.80, -69998.84, -34515.18, -2801.21, -70621.97, -70208.34, -37865.55, -80637.83, 0.000, 0.000, 0.000, 15:27:47.196
86, -40285.13, 56769.90, 39096.51, 101055.63, 152325.66, 109505.10, 9955.09, -12371.20, 2389.60, -69987.96, -34560.33, -2786.95, -70650.20, -70192.34, -38168.35, -80648.24, 0.000, 0.000, 0.000, 15:27:47.197
87, -40034.32, 56767.68, 39092.42, 101030.84, 152307.23, 109480.92, 9681.37, -12437.83, 2389.60, -69987.96, -34560.33, -2786.95, -70650.20, -70192.34, -38168.35, -80648.24, 0.000, 0.000, 0.000, 15:27:47.197
88, -40034.32, 56767.68, 39092.42, 101030.84, 152307.23, 109480.92, 9681.37, -12437.83, 2771.73, -70005.80, -34495.91, -2801.75, -70613.00, -70223.44, -37965.98, -80624.69, 0.000, 0.000, 0.000, 15:27:47.197
89, -40092.23, 56771.64, 39102.79, 101041.68, 152298.55, 109497.44, 10094.76, -12235.93, 2771.73, -70005.80, -34495.91, -2801.75, -70613.00, -70223.44, -37965.98, -80624.69, 0.502, 0.804, -0.236, 15:27:47.198
90, -40092.23, 56771.64, 39102.79, 101041.68, 152298.55, 109497.44, 10094.76, -12235.93, 2495.95, -69965.27, -34556.91, -2754.18, -70637.68, -70175.31, -37983.35, -80630.43, 0.000, 0.000, 0.000, 15:27:47.198
91, -40245.77, 56786.95, 39106.86, 101065.35, 152307.19, 109525.71, 9715.54, -12473.57, 2495.95, -69965.27, -34556.91, -2754.18, -70637.68, -70175.31, -37983.35, -80630.43, 0.000, 0.000, 0.000, 15:27:47.198
92, -40245.77, 56786.95, 39106.86, 101065.35, 152307.19, 109525.71, 9715.54, -12473.57, 2515.62, -69979.63, -34498.93, -2769.09, -70636.63, -70191.02, -38145.17, -80593.23, 0.000, 0.000, 0.000, 15:27:47.198
93, -39963.33, 56779.35, 39093.00, 101033.59, 152269.67, 109518.70, 9900.79, -12295.81, 2515.62, -69979.63, -34498.93, -2769.09, -70636.63, -70191.02, -38145.17, -80593.23, 0.000, 0.000, 0.000, 15:27:47.199
94, -39963.33, 56779.35, 39093.00, 101033.59, 152269.67, 109518.70, 9900.79, -12295.81, 2730.69, -69983.58, -34503.36, -2762.90, -70630.59, -70199.59, -37869.87, -80613.04, 0.000, 0.000, 0.000, 15:27:47.199
95, -40267.98, 56808.07, 39103.28, 101055.32, 152276.44, 109542.54, 10007.72, -12321.53, 2730.69, -69983.58, -34503.36, -2762.90, -70630.59, -70199.59, -37869.87, -80613.04, 0.000, 0.000, 0.000, 15:27:47.199
96, -40267.98, 56808.07, 39103.28, 101055.32, 152276.44, 109542.54, 10007.72, -12321.53, 2305.54, -69956.95, -34536.17, -2734.65, -70655.78, -70169.45, -38183.77, -80623.97, 0.000, 0.000, 0.000, 15:27:47.199
97, -40022.23, 56805.39, 39104.93, 101044.70, 152252.05, 109543.17, 9713.26, -12408.24, 2305.54, -69956.95, -34536.17, -2734.65, -70655.78, -70169.45, -38183.77, -80623.97, 0.000, 0.000, 0.000, 15:27:47.199
98, -40022.23, 56805.39, 39104.93, 101044.70, 152252.05, 109543.17, 9713.26, -12408.24, 2696.89, -69972.24, -34467.95, -2749.22, -70629.99, -70191.65, -38000.82, -80596.59, 0.000, 0.000, 0.000, 15:27:47.200
99, -40068.20, 56797.32, 39096.62, 101019.64, 152242.17, 109501.69, 10130.10, -12198.96, 2696.89, -69972.24, -34467.95, -2749.22, -70629.99, -70191.65, -38000.82, -80596.59, 0.502, 0.798, -0.238, 15:27:47.200
100, -40068.20, 56797.32, 39096.62, 101019.64, 152242.17, 109501.69, 10130.10, -12198.96, 2456.39, -69969.98, -34549.92, -2739.79, -70646.33, -70218.61, -38003.82, -80646.79, 0.000, 0.000, 0.000, 15:27:47.200
101, -40249.39, 56805.53, 39098.21, 101033.13, 152271.48, 109553.65, 9752.56, -12434.50, 2456.39, -69969.98, -34549.92, -2739.79, -70646.33, -70218.61, -38003.82, -80646.79, 0.000, 0.000, 0.000, 15:27:47.200
102, -40249.39, 56805.53, 39098.21, 101033.13, 152271.48, 109553.65, 9752.56, -12434.50, 2492.31, -69977.25, -34496.30, -2759.77, -70651.96, -70169.19, -38184.00, -80610.94, 0.000, 0.000, 0.000, 15:27:47.200
103, -39954.12, 56788.16, 39083.43, 100993.29, 152217.97, 109510.24, 9936.54, -12253.90, 2492.31, -69977.25, -34496.30, -2759.77, -70651.96, -70169.19, -38184.00, -80610.94, 0.000, 0.000, 0.000, 15:27:47.201
104, -39954.12, 56788.16, 39083.43, 100993.29, 152217.97, 109510.24, 9936.54, -12253.90, 2740.52, -69973.54, -34491.96, -2747.70, -70622.75, -70204.15, -37881.47, -80622.05, 0.000, 0.000, 0.000, 15:27:47.201
105, -40244.63, 56820.05, 39117.86, 101029.88, 152301.39, 109539.97, 10060.65, -12262.68, 2740.52, -69973.54, -34491.96, -2747.70, -70622.75, -70204.15, -37881.47, -80622.05, 0.000, 0.000, 0.000, 15:27:47.201
106, -40244.63, 56820.05, 39117.86, 101029.88, 152301.39, 109539.97, 10060.65, -12262.68, 2299.82, -69946.54, -34524.70, -2720.54, -70622.15, -70165.86, -38182.43, -80627.97, 0.000, 0.000, 0.000, 15:27:47.201
107, -40014.02, 56803.07, 39112.40, 101007.15, 152298.64, 109536.77, 9746.66, -12368.07, 2299.82, -69946.54, -34524.70, -2720.54, -70622.15, -70165.86, -38182.43, -80627.97, 0.000, 0.000, 0.000, 15:27:47.201
108, -40014.02, 56803.07, 39112.40, 101007.15, 152298.64, 109536.77, 9746.66, -12368.07, 2680.09, -69984.94, -34472.63, -2757.09, -70608.09, -70219.10, -37994.12, -80605.30, 0.000, 0.000, 0.000, 15:27:47.201
109, -40057.14, 56789.01, 39099.93, 100988.15, 152304.16, 109526.00, 10166.29, -12157.65, 2680.09, -69984.94, -34472.63, -2757.09, -70608.09, -70219.10, -37994.12, -80605.30, 0.506, 0.800, -0.232, 15:27:47.202
110, -40057.14, 56789.01, 39099.93, 100988.15, 152304.16, 109526.00, 10166.29, -12157.65, 2454.82, -69996.45, -34568.67, -2759.39, -70659.56, -70194.45, -37961.20, -80648.80, 0.000, 0.000, 0.000, 15:27:47.202
111, -40240.09, 56782.41, 39090.61, 100993.16, 152316.50, 109540.46, 9839.26, -12345.67, 2454.82, -69996.45, -34568.67, -2759.39, -70659.56, -70194.45, -37961.20, -80648.80, 0.000, 0.000, 0.000, 15:27:47.202
112, -40240.09, 56782.41, 39090.61, 100993.16, 152316.50, 109540.46, 9839.26, -12345.67, 2476.33, -70000.68, -34514.29, -2772.35, -70639.18, -70227.23, -38133.75, -80604.73, 0.000, 0.000, 0.000, 15:27:47.202
113, -39967.80, 56762.52, 39089.36, 100970.23, 152302.48, 109542.03, 10006.67, -12179.44, 2476.33, -70000.68, -34514.29, -2772.35, -70639.18, -70227.23, -38133.75, -80604.73, 0.000, 0.000, 0.000, 15:27:47.203
114, -39967.80, 56762.52, 39089.36, 100970.23, 152302.48, 109542.03, 10006.67, -12179.44, 2732.32, -70004.01, -34521.91, -2774.59, -70629.38, -70230.70, -37847.94, -80614.05, 0.000, 0.000, 0.000, 15:27:47.203
115, -40272.05, 56773.43, 39092.71, 100986.34, 152303.00, 109541.18, 10126.48, -12198.51, 2732.32, -70004.01, -34521.91, -2774.59, -70629.38, -70230.70, -37847.94, -80614.05, 0.000, 0.000, 0.000, 15:27:47.203
116, -40272.05, 56773.43, 39092.71, 100986.34, 152303.00, 109541.18, 10126.48, -12198.51, 2315.69, -69982.93, -34557.02, -2751.92, -70640.09, -70188.68, -38142.91, -80618.83, 0.000, 0.000, 0.000, 15:27:47.203
117, -40033.25, 56785.57, 39101.45, 100982.32, 152298.72, 109545.18, 9832.93, -12284.32, 2315.69, -69982.93, -34557.02, -2751.92, -70640.09, -70188.68, -38142.91, -80618.83, 0.000, 0.000, 0.000, 15:27:47.203
118, -40033.25, 56785.57, 39101.45, 100982.32, 152298.72, 109545.18, 9832.93, -12284.32, 2717.41, -69995.27, -34482.41, -2756.71, -70611.95, -70217.29, -37972.28, -80592.63, 0.000, 0.000, 0.000, 15:27:47.203
119, -40068.99, 56785.30, 39099.23, 100979.14, 152272.03, 109531.23, 10234.77, -12088.36, 2717.41, -69995.27, -34482.41, -2756.71, -70611.95, -70217.29, -37972.28, -80592.63, 0.504, 0.802, -0.226, 15:27:47.203
120, -40068.99, 56785.30, 39099.23, 100979.14, 152272.03, 109531.23, 10234.77, -12088.36, 2477.40, -69984.41, -34558.50, -2730.91, -70657.17, -70210.47, -37983.97, -80642.32, 0.000, 0.000, 0.000, 15:27:47.204
121, -40238.77, 56792.09, 39092.77, 100990.41, 152257.98, 109544.82, 9874.64, -12311.09, 2477.40, -69984.41, -34558.50, -2730.91, -70657.17, -70210.47, -37983.97, -80642.32, 0.000, 0.000, 0.000, 15:27:47.204
122, -40238.77, 56792.09, 39092.77, 100990.41, 152257.98, 109544.82, 9874.64, -12311.09, 2499.80, -69986.15, -34491.04, -2733.33, -70634.21, -70226.92, -38159.34, -80618.16, 0.000, 0.000, 0.000, 15:27:47.204
123, -39955.35, 56779.75, 39085.29, 100960.99, 152241.59, 109513.82, 10036.78, -12147.14, 2499.80, -69986.15, -34491.04, -2733.33, -70634.21, -70226.92, -38159.34, -80618.16, 0.000, 0.000, 0.000, 15:27:47.204
124, -39955.35, 56779.75, 39085.29, 100960.99, 152241.59, 109513.82, 10036.78, -12147.14, 2747.48, -69999.89, -34507.02, -2739.32, -70653.68, -70254.57, -37874.31, -80643.02, 0.000, 0.000, 0.000, 15:27:47.204
125, -40260.25, 56793.39, 39090.36, 100989.09, 152247.31, 109532.13, 10177.17, -12144.64, 2747.48, -69999.89, -34507.02, -2739.32, -70653.68, -70254.57, -37874.31, -80643.02, 0.000, 0.000, 0.000, 15:27:47.205
126, -40260.25, 56793.39, 39090.36, 100989.09, 152247.31, 109532.13, 10177.17, -12144.64, 2315.35, -69966.39, -34541.54, -2702.39, -70648.48, -70171.35, -38185.74, -80651.93, 0.000, 0.000, 0.000, 15:27:47.205
127, -40037.89, 56791.49, 39096.95, 100982.77, 152270.63, 109515.32, 9852.54, -12258.52, 2315.35, -69966.39, -34541.54, -2702.39, -70648.48, -70171.35, -38185.74, -80651.93, 0.000, 0.000, 0.000, 15:27:47.205
128, -40037.89, 56791.49, 39096.95, 100982.77, 152270.63, 109515.32, 9852.54, -12258.52, 2714.49, -69980.96, -34475.11, -2714.78, -70628.49, -70208.26, -38007.78, -80615.79, 0.506, 0.804, -0.228, 15:27:47.205
129, -40067.69, 56788.36, 39091.55, 100980.71, 152267.98, 109534.41, 10258.80, -12051.72, 2714.49, -69980.96, -34475.11, -2714.78, -70628.49, -70208.26, -38007.78, -80615.79, 0.000, 0.000, 0.000, 15:27:47.205
130, -40067.69, 56788.36, 39091.55, 100980.71, 152267.98, 109534.41, 10258.80, -12051.72, 2487.64, -69978.08, -34561.34, -2702.28, -70657.57, -70203.05, -37988.84, -80662.33, 0.000, 0.000, 0.000, 15:27:47.205
131, -40250.80, 56784.92, 39079.88, 100986.01, 152269.52, 109530.25, 9910.16, -12264.89, 2487.64, -69978.08, -34561.34, -2702.28, -70657.57, -70203.05, -37988.84, -80662.33, 0.000, 0.000, 0.000, 15:27:47.206
132, -40250.80, 56784.92, 39079.88, 100986.01, 152269.52, 109530.25, 9910.16, -12264.89, 2502.43, -69982.73, -34506.82, -2708.70, -70645.81, -70222.90, -38158.61, -80622.67, 0.000, 0.000, 0.000, 15:27:47.206
133, -39977.37, 56778.84, 39084.37, 100982.07, 152269.13, 109541.52, 10057.88, -12109.10, 2502.43, -69982.73, -34506.82, -2708.70, -70645.81, -70222.90, -38158.61, -80622.67, 0.000, 0.000, 0.000, 15:27:47.206
134, -39977.37, 56778.84, 39084.37, 100982.07, 152269.13, 109541.52, 10057.88, -12109.10, 2736.48, -69993.37, -34518.13, -2709.10, -70656.79, -70213.04, -37876.71, -80623.45, 0.000, 0.000, 0.000, 15:27:47.206
135, -40303.79, 56781.95, 39077.09, 100996.42, 152278.05, 109547.84, 10183.45, -12127.30, 2736.48, -69993.37, -34518.13, -2709.10, -70656.79, -70213.04, -37876.71, -80623.45, 0.000, 0.000, 0.000, 15:27:47.206
136, -40303.79, 56781.95, 39077.09, 100996.42, 152278.05, 109547.84, 10183.45, -12127.30, 2304.69, -69972.00, -34554.12, -2679.06, -70661.04, -70211.25, -38178.61, -80631.97, 0.000, 0.000, 0.000, 15:27:47.206
137, -40091.99, 56780.74, 39086.14, 100993.74, 152286.23, 109564.20, 9861.86, -12238.18, 2304.69, -69972.00, -34554.12, -2679.06, -70661.04, -70211.25, -38178.61, -80631.97, 0.000, 0.000, 0.000, 15:27:47.207
138, -40091.99, 56780.74, 39086.14, 100993.74, 152286.23, 109564.20, 9861.86, -12238.18, 2720.32, -70009.93, -34499.20, -2713.66, -70637.92, -70219.16, -37980.35, -80598.78, 0.504, 0.808, -0.232, 15:27:47.207
139, -40130.95, 56757.74, 39068.39, 100976.91, 152260.48, 109543.34, 10314.44, -11991.04, 2720.32, -70009.93, -34499.20, -2713.66, -70637.92, -70219.16, -37980.35, -80598.78, 0.000, 0.000, 0.000, 15:27:47.207
140, -40130.95, 56757.74, 39068.39, 100976.91, 152260.48, 109543.34, 10314.44, -11991.04, 2477.40, -69999.49, -34581.93, -2689.83, -70685.91, -70222.80, -37966.61, -80649.45, 0.000, 0.000, 0.000, 15:27:47.207
141, -40340.85, 56776.98, 39080.62, 101008.13, 152258.89, 109564.36, 9939.80, -12236.35, 2477.40, -69999.49, -34581.93, -2689.83, -70685.91, -70222.80, -37966.61, -80649.45, 0.000, 0.000, 0.000, 15:27:47.208
142, -40340.85, 56776.98, 39080.62, 101008.13, 152258.89, 109564.36, 9939.80, -12236.35, 2488.44, -69982.86, -34500.70, -2677.67, -70655.07, -70215.41, -38176.00, -80597.23, 0.000, 0.000, 0.000, 15:27:47.208
143, -40044.00, 56772.65, 39099.08, 100996.60, 152300.63, 109582.82, 10069.57, -12097.72, 2488.44, -69982.86, -34500.70, -2677.67, -70655.07, -70215.41, -38176.00, -80597.23, 0.000, 0.000, 0.000, 15:27:47.208
144, -40044.00, 56772.65, 39099.08, 100996.60, 152300.63, 109582.82, 10069.57, -12097.72, 2758.61, -70003.47, -34507.79, -2684.85, -70641.21, -70221.96, -37875.41, -80617.45, 0.000, 0.000, 0.000, 15:27:47.209
145, -40348.77, 56790.53, 39105.47, 101012.91, 152299.84, 109571.91, 10205.99, -12101.50, 2758.61, -70003.47, -34507.79, -2684.85, -70641.21, -70221.96, -37875.41, -80617.45, 0.000, 0.000, 0.000, 15:27:47.209
146, -40348.77, 56790.53, 39105.47, 101012.91, 152299.84, 109571.91, 10205.99, -12101.50, 2319.24, -69980.85, -34544.06, -2651.97, -70660.16, -70203.34, -38186.19, -80630.90, 0.000, 0.000, 0.000, 15:27:47.209
147, -40118.74, 56791.49, 39107.71, 101005.49, 152278.55, 109574.15, 9889.86, -12203.74, 2319.24, -69980.85, -34544.06, -2651.97, -70660.16, -70203.34, -38186.19, -80630.90, 0.000, 0.000, 0.000, 15:27:47.209
148, -40118.74, 56791.49, 39107.71, 101005.49, 152278.55, 109574.15, 9889.86, -12203.74, 2715.89, -69994.59, -34473.47, -2660.60, -70640.02, -70220.75, -38004.91, -80607.79, 0.504, 0.810, -0.230, 15:27:47.210
149, -40145.61, 56792.92, 39106.86, 101001.95, 152273.38, 109548.16, 10307.89, -11988.58, 2715.89, -69994.59, -34473.47, -2660.60, -70640.02, -70220.75, -38004.91, -80607.79, 0.000, 0.000, 0.000, 15:27:47.210
150, -40145.61, 56792.92, 39106.86, 101001.95, 152273.38, 109548.16, 10307.89, -11988.58, 2476.17, -69993.46, -34547.68, -2640.43, -70673.20, -70222.16, -37994.66, -80652.04, 0.000, 0.000, 0.000, 15:27:47.210
151, -40333.43, 56798.22, 39109.58, 101024.74, 152280.80, 109566.99, 9954.53, -12212.68, 2476.17, -69993.46, -34547.68, -2640.43, -70673.20, -70222.16, -37994.66, -80652.04, 0.000, 0.000, 0.000, 15:27:47.210
152, -40333.43, 56798.22, 39109.58, 101024.74, 152280.80, 109566.99, 9954.53, -12212.68, 2469.71, -69983.53, -34475.48, -2638.24, -70644.41, -70231.97, -38174.43, -80607.45, 0.000, 0.000, 0.000, 15:27:47.210
153, -40036.09, 56789.41, 39108.42, 101012.67, 152264.61, 109555.71, 10091.01, -12064.06, 2469.71, -69983.53, -34475.48, -2638.24, -70644.41, -70231.97, -38174.43, -80607.45, 0.000, 0.000, 0.000, 15:27:47.211
154, -40036.09, 56789.41, 39108.42, 101012.67, 152264.61, 109555.71, 10091.01, -12064.06, 2723.22, -70004.79, -34496.50, -2652.08, -70672.73, -70216.20, -37867.07, -80628.69, 0.000, 0.000, 0.000, 15:27:47.211
155, -40339.11, 56790.46, 39098.95, 101023.29, 152268.95, 109559.77, 10238.86, -12062.95, 2723.22, -70004.79, -34496.50, -2652.08, -70672.73, -70216.20, -37867.07, -80628.69, 0.000, 0.000, 0.000, 15:27:47.211
156, -40339.11, 56790.46, 39098.95, 101023.29, 152268.95, 109559.77, 10238.86, -12062.95, 2286.16, -69992.97, -34546.59, -2636.39, -70673.40, -70217.35, -38155.14, -80641.67, 0.000, 0.000, 0.000, 15:27:47.211
157, -40128.89, 56781.52, 39093.49, 101009.16, 152259.63, 109568.43, 9921.65, -12164.20, 2286.16, -69992.97, -34546.59, -2636.39, -70673.40, -70217.35, -38155.14, -80641.67, 0.000, 0.000, 0.000, 15:27:47.211
158, -40128.89, 56781.52, 39093.49, 101009.16, 152259.63, 109568.43, 9921.65, -12164.20, 2671.10, -70015.45, -34485.86, -2661.11, -70657.86, -70248.22, -37985.78, -80608.57, 0.502, 0.808, -0.234, 15:27:47.211
159, -40156.92, 56769.18, 39082.00, 100989.91, 152278.92, 109547.75, 10333.34, -11950.16, 2671.10, -70015.45, -34485.86, -2661.11, -70657.86, -70248.22, -37985.78, -80608.57, 0.000, 0.000, 0.000, 15:27:47.212
160, -40156.92, 56769.18, 39082.00, 100989.91, 152278.92, 109547.75, 10333.34, -11950.16, 2461.06, -70014.87, -34569.52, -2651.54, -70678.45, -70226.50, -37944.43, -80658.50, 0.000, 0.000, 0.000, 15:27:47.212
161, -40362.78, 56784.58, 39095.34, 101019.22, 152311.28, 109598.31, 9975.72, -12178.59, 2461.06, -70014.87, -34569.52, -2651.54, -70678.45, -70226.50, -37944.43, -80658.50, 0.000, 0.000, 0.000, 15:27:47.212
162, -40362.78, 56784.58, 39095.34, 101019.22, 152311.28, 109598.31, 9975.72, -12178.59, 2458.29, -70001.80, -34499.29, -2650.40, -70647.54, -70226.56, -38143.54, -80613.42, 0.000, 0.000, 0.000, 15:27:47.213
163, -40055.20, 56761.54, 39074.94, 100979.45, 152269.06, 109566.10, 10129.97, -12012.07, 2458.29, -70001.80, -34499.29, -2650.40, -70647.54, -70226.56, -38143.54, -80613.42, 0.000, 0.000, 0.000, 15:27:47.213
164, -40055.20, 56761.54, 39074.94, 100979.45, 152269.06, 109566.10, 10129.97, -12012.07, 2728.88, -70021.33, -34522.04, -2663.28, -70683.50, -70233.49, -37834.53, -80652.49, 0.000, 0.000, 0.000, 15:27:47.213
165, -40368.66, 56785.03, 39084.82, 101007.10, 152287.19, 109549.94, 10268.86, -12026.20, 2728.88, -70021.33, -34522.04, -2663.28, -70683.50, -70233.49, -37834.53, -80652.49, 0.000, 0.000, 0.000, 15:27:47.213
166, -40368.66, 56785.03, 39084.82, 101007.10, 152287.19, 109549.94, 10268.86, -12026.20, 2306.36, -69993.81, -34550.72, -2627.36, -70644.01, -70236.22, -38146.71, -80656.58, 0.000, 0.000, 0.000, 15:27:47.213
167, -40141.12, 56778.86, 39084.08, 101002.77, 152283.97, 109580.79, 9942.66, -12137.60, 2306.36, -69993.81, -34550.72, -2627.36, -70644.01, -70236.22, -38146.71, -80656.58, 0.000, 0.000, 0.000, 15:27:47.214
168, -40141.12, 56778.86, 39084.08, 101002.77, 152283.97, 109580.79, 9942.66, -12137.60, 2694.79, -70012.41, -34494.08, -2648.21, -70645.48, -70233.29, -37983.21, -80639.33, 0.500, 0.796, -0.238, 15:27:47.214
169, -40162.71, 56774.61, 39070.42, 100990.19, 152255.52, 109541.88, 10349.55, -11929.95, 2694.79, -70012.41, -34494.08, -2648.21, -70645.48, -70233.29, -37983.21, -80639.33, 0.000, 0.000, 0.000, 15:27:47.214
170, -40162.71, 56774.61, 39070.42, 100990.19, 152255.52, 109541.88, 10349.55, -11929.95, 2474.03, -70004.74, -34571.13, -2628.65, -70693.70, -70248.94, -37961.62, -80693.37, 0.000, 0.000, 0.000, 15:27:47.214
171, -40343.51, 56787.80, 39077.71, 101011.84, 152269.33, 109555.26, 10014.61, -12141.80, 2474.03, -70004.74, -34571.13, -2628.65, -70693.70, -70248.94, -37961.62, -80693.37, 0.000, 0.000, 0.000, 15:27:47.214
172, -40343.51, 56787.80, 39077.71, 101011.84, 152269.33, 109555.26, 10014.61, -12141.80, 2474.43, -69998.98, -34498.93, -2626.55, -70659.12, -70232.24, -38130.53, -80654.03, 0.000, 0.000, 0.000, 15:27:47.671
173, -40038.93, 56787.64, 39082.94, 100999.70, 152257.73, 109555.80, 10165.51, -11976.53, 2474.43, -69998.98, -34498.93, -2626.55, -70659.12, -70232.24, -38130.53, -80654.03, 0.000, 0.000, 0.000, 15:27:47.671
174, -40038.93, 56787.64, 39082.94, 100999.70, 152257.73, 109555.80, 10165.51, -11976.53, 2752.64, -70011.16, -34496.25, -2625.35, -70662.63, -70272.01, -37833.61, -80660.85, 0.000, 0.000, 0.000, 15:27:47.671
175, -40345.39, 56806.91, 39090.47, 101020.38, 152273.52, 109547.57, 10308.98, -11983.71, 2752.64, -70011.16, -34496.25, -2625.35, -70662.63, -70272.01, -37833.61, -80660.85, 0.000, 0.000, 0.000, 15:27:47.671
176, -40345.39, 56806.91, 39090.47, 101020.38, 152273.52, 109547.57, 10308.98, -11983.71, 2335.53, -69978.48, -34536.35, -2595.33, -70669.80, -70227.39, -38130.53, -80679.85, 0.000, 0.000, 0.000, 15:27:47.671
177, -40126.95, 56796.45, 39093.45, 101019.17, 152263.36, 109550.41, 9985.28, -12093.03, 2335.53, -69978.48, -34536.35, -2595.33, -70669.80, -70227.39, -38130.53, -80679.85, 0.498, 0.802, -0.240, 15:27:47.672
178, -40126.95, 56796.45, 39093.45, 101019.17, 152263.36, 109550.41, 9985.28, -12093.03, 2743.92, -70000.70, -34468.98, -2614.22, -70646.82, -70251.24, -37940.25, -80636.55, 0.000, 0.000, 0.000, 15:27:47.672
179, -40126.77, 56788.07, 39091.08, 101019.35, 152256.19, 109560.29, 10439.99, -11841.35, 2743.92, -70000.70, -34468.98, -2614.22, -70646.82, -70251.24, -37940.25, -80636.55, 0.000, 0.000, 0.000, 15:27:47.672
180, -40126.77, 56788.07, 39091.08, 101019.35, 152256.19, 109560.29, 10439.99, -11841.35, 2528.12, -69985.09, -34548.73, -2590.75, -70696.45, -70215.77, -37904.91, -80667.80, 0.000, 0.000, 0.000, 15:27:47.672
181, -40341.25, 56798.91, 39094.29, 101048.14, 152266.09, 109594.58, 10083.72, -12076.45, 2528.12, -69985.09, -34548.73, -2590.75, -70696.45, -70215.77, -37904.91, -80667.80, 0.000, 0.000, 0.000, 15:27:47.672
182, -40341.25, 56798.91, 39094.29, 101048.14, 152266.09, 109594.58, 10083.72, -12076.45, 2522.24, -69984.38, -34485.37, -2597.76, -70663.36, -70239.70, -38104.22, -80619.19, 0.000, 0.000, 0.000, 15:27:47.673
183, -40027.03, 56784.71, 39091.95, 101020.54, 152265.08, 109580.70, 10217.00, -11921.08, 2522.24, -69984.38, -34485.37, -2597.76, -70663.36, -70239.70, -38104.22, -80619.19, 0.000, 0.000, 0.000, 15:27:47.673
184, -40027.03, 56784.71, 39091.95, 101020.54, 152265.08, 109580.70, 10217.00, -11921.08, 2799.80, -70002.69, -34493.37, -2609.66, -70658.84, -70265.08, -37790.70, -80628.22, 0.000, 0.000, 0.000, 15:27:47.673
185, -40330.05, 56792.54, 39098.27, 101042.04, 152295.17, 109581.10, 10373.06, -11917.73, 2799.80, -70002.69, -34493.37, -2609.66, -70658.84, -70265.08, -37790.70, -80628.22, 0.000, 0.000, 0.000, 15:27:47.673
186, -40330.05, 56792.54, 39098.27, 101042.04, 152295.17, 109581.10, 10373.06, -11917.73, 2359.45, -69972.91, -34540.42, -2581.87, -70683.79, -70203.43, -38089.16, -80642.95, 0.000, 0.000, 0.000, 15:27:47.673
187, -40121.34, 56785.19, 39095.55, 101024.85, 152284.73, 109572.59, 10026.52, -12046.03, 2359.45, -69972.91, -34540.42, -2581.87, -70683.79, -70203.43, -38089.16, -80642.95, 0.496, 0.798, -0.238, 15:27:47.673
188, -40121.34, 56785.19, 39095.55, 101024.85, 152284.73, 109572.59, 10026.52, -12046.03, 2754.56, -70002.71, -34475.39, -2605.81, -70658.16, -70251.80, -37920.83, -80624.82, 0.000, 0.000, 0.000, 15:27:47.674
189, -40130.21, 56792.25, 39093.07, 101015.98, 152281.80, 109569.34, 10440.83, -11827.65, 2754.56, -70002.71, -34475.39, -2605.81, -70658.16, -70251.80, -37920.83, -80624.82, 0.000, 0.000, 0.000, 15:27:47.674
190, -40130.21, 56792.25, 39093.07, 101015.98, 152281.80, 109569.34, 10440.83, -11827.65, 2553.04, -69991.91, -34550.43, -2581.58, -70682.31, -70240.40, -37886.65, -80666.08, 0.000, 0.000, 0.000, 15:27:47.674
191, -40317.72, 56807.45, 39093.80, 101039.34, 152290.08, 109588.90, 10116.80, -12035.68, 2553.04, -69991.91, -34550.43, -2581.58, -70682.31, -70240.40, -37886.65, -80666.08, 0.000, 0.000, 0.000, 15:27:47.674
192, -40317.72, 56807.45, 39093.80, 101039.34, 152290.08, 109588.90, 10116.80, -12035.68, 2532.03, -69981.05, -34483.00, -2574.72, -70662.76, -70231.15, -38071.86, -80632.28, 0.000, 0.000, 0.000, 15:27:47.674
193, -40014.05, 56800.18, 39083.52, 101017.27, 152260.77, 109562.30, 10260.37, -11874.88, 2532.03, -69981.05, -34483.00, -2574.72, -70662.76, -70231.15, -38071.86, -80632.28, 0.000, 0.000, 0.000, 15:27:47.675
194, -40014.05, 56800.18, 39083.52, 101017.27, 152260.77, 109562.30, 10260.37, -11874.88, 2789.16, -69995.06, -34485.81, -2573.00, -70668.66, -70278.80, -37789.31, -80660.02, 0.000, 0.000, 0.000, 15:27:47.675
195, -40322.10, 56824.05, 39093.04, 101046.91, 152265.11, 109562.64, 10406.68, -11881.16, 2789.16, -69995.06, -34485.81, -2573.00, -70668.66, -70278.80, -37789.31, -80660.02, 0.000, 0.000, 0.000, 15:27:47.675
196, -40322.10, 56824.05, 39093.04, 101046.91, 152265.11, 109562.64, 10406.68, -11881.16, 2353.28, -69967.59, -34529.36, -2541.01, -70678.34, -70203.01, -38077.98, -80662.64, 0.000, 0.000, 0.000, 15:27:47.675
197, -40107.37, 56810.91, 39091.88, 101046.31, 152262.47, 109594.98, 10094.90, -11975.86, 2353.28, -69967.59, -34529.36, -2541.01, -70678.34, -70203.01, -38077.98, -80662.64, 0.498, 0.802, -0.244, 15:27:47.676
198, -40107.37, 56810.91, 39091.88, 101046.31, 152262.47, 109594.98, 10094.90, -11975.86, 2740.82, -69973.97, -34453.34, -2545.44, -70630.17, -70210.23, -37910.48, -80626.27, 0.000, 0.000, 0.000, 15:27:47.676
199, -40114.41, 56823.72, 39109.92, 101054.13, 152271.00, 109591.05, 10507.44, -11754.69, 2740.82, -69973.97, -34453.34, -2545.44, -70630.17, -70210.23, -37910.48, -80626.27, 0.000, 0.000, 0.000, 15:27:47.676
200, -40114.41, 56823.72, 39109.92, 101054.13, 152271.00, 109591.05, 10507.44, -11754.69, 2540.88, -69968.11, -34528.37, -2525.61, -70669.82, -70213.55, -37879.23, -80662.46, 0.000, 0.000, 0.000, 15:27:47.676
201, -40322.79, 56824.57, 39108.15, 101070.95, 152276.31, 109614.74, 10159.00, -11980.74, 2540.88, -69968.11, -34528.37, -2525.61, -70669.82, -70213.55, -37879.23, -80662.46, 0.000, 0.000, 0.000, 15:27:47.677
202, -40322.79, 56824.57, 39108.15, 101070.95, 152276.31, 109614.74, 10159.00, -11980.74, 2508.80, -69964.55, -34471.75, -2533.82, -70651.76, -70222.72, -38088.96, -80623.66, 0.000, 0.000, 0.000, 15:27:47.677
203, -40008.35, 56788.79, 39096.08, 101037.93, 152271.59, 109590.45, 10285.02, -11823.31, 2508.80, -69964.55, -34471.75, -2533.82, -70651.76, -70222.72, -38088.96, -80623.66, 0.000, 0.000, 0.000, 15:27:47.677
204, -40008.35, 56788.79, 39096.08, 101037.93, 152271.59, 109590.45, 10285.02, -11823.31, 2792.78, -69978.48, -34485.88, -2546.24, -70647.07, -70212.88, -37783.54, -80635.79, 0.000, 0.000, 0.000, 15:27:47.677
205, -40313.88, 56801.17, 39102.25, 101065.71, 152294.03, 109612.41, 10435.27, -11825.44, 2792.78, -69978.48, -34485.88, -2546.24, -70647.07, -70212.88, -37783.54, -80635.79, 0.000, 0.000, 0.000, 15:27:47.677
206, -40313.88, 56801.17, 39102.25, 101065.71, 152294.03, 109612.41, 10435.27, -11825.44, 2355.45, -69943.39, -34534.29, -2527.69, -70672.84, -70182.64, -38091.84, -80634.61, 0.000, 0.000, 0.000, 15:27:47.677
207, -40103.92, 56787.76, 39096.53, 101048.79, 152284.64, 109628.42, 10090.47, -11950.67, 2355.45, -69943.39, -34534.29, -2527.69, -70672.84, -70182.64, -38091.84, -80634.61, 0.502, 0.808, -0.242, 15:27:47.678
208, -40103.92, 56787.76, 39096.53, 101048.79, 152284.64, 109628.42, 10090.47, -11950.67, 2750.38, -69969.79, -34472.96, -2572.02, -70640.80, -70212.46, -37928.05, -80600.73, 0.000, 0.000, 0.000, 15:27:47.678
209, -40102.11, 56782.64, 39088.21, 101023.66, 152281.83, 109620.22, 10509.19, -11723.36, 2750.38, -69969.79, -34472.96, -2572.02, -70640.80, -70212.46, -37928.05, -80600.73, 0.000, 0.000, 0.000, 15:27:47.678
210, -40102.11, 56782.64, 39088.21, 101023.66, 152281.83, 109620.22, 10509.19, -11723.36, 2557.37, -69968.71, -34550.59, -2586.10, -70670.13, -70202.27, -37899.82, -80646.48, 0.000, 0.000, 0.000, 15:27:47.678
211, -40315.82, 56793.50, 39085.82, 101028.54, 152299.44, 109632.76, 10172.99, -11945.06, 2557.37, -69968.71, -34550.59, -2586.10, -70670.13, -70202.27, -37899.82, -80646.48, 0.000, 0.000, 0.000, 15:27:47.678
212, -40315.82, 56793.50, 39085.82, 101028.54, 152299.44, 109632.76, 10172.99, -11945.06, 2541.19, -69961.47, -34489.77, -2619.78, -70644.16, -70226.16, -38112.72, -80606.78, 0.000, 0.000, 0.000, 15:27:47.679
213, -40004.37, 56792.79, 39084.97, 101004.67, 152276.53, 109628.64, 10289.04, -11800.51, 2541.19, -69961.47, -34489.77, -2619.78, -70644.16, -70226.16, -38112.72, -80606.78, 0.000, 0.000, 0.000, 15:27:47.679
214, -40004.37, 56792.79, 39084.97, 101004.67, 152276.53, 109628.64, 10289.04, -11800.51, 2849.69, -69964.47, -34484.36, -2643.72, -70653.52, -70226.38, -37821.45, -80614.47, 0.000, 0.000, 0.000, 15:27:47.679
215, -40275.92, 56814.69, 39091.52, 101026.84, 152280.16, 109634.74, 10461.89, -11786.23, 2849.69, -69964.47, -34484.36, -2643.72, -70653.52, -70226.38, -37821.45, -80614.47, 0.000, 0.000, 0.000, 15:27:47.679
216, -40275.92, 56814.69, 39091.52, 101026.84, 152280.16, 109634.74, 10461.89, -11786.23, 2440.97, -69932.17, -34517.46, -2636.16, -70639.13, -70180.92, -38121.30, -80638.27, 0.000, 0.000, 0.000, 15:27:47.680
217, -40049.99, 56837.54, 39117.54, 101032.92, 152275.23, 109639.59, 10119.89, -11913.66, 2440.97, -69932.17, -34517.46, -2636.16, -70639.13, -70180.92, -38121.30, -80638.27, 0.504, 0.800, -0.240, 15:27:47.680
218, -40049.99, 56837.54, 39117.54, 101032.92, 152275.23, 109639.59, 10119.89, -11913.66, 2859.82, -69935.70, -34434.63, -2670.03, -70608.66, -70197.66, -37973.49, -80608.14, 0.000, 0.000, 0.000, 15:27:47.680
219, -40043.57, 56838.59, 39116.91, 101019.80, 152275.56, 109630.36, 10522.13, -11706.73, 2859.82, -69935.70, -34434.63, -2670.03, -70608.66, -70197.66, -37973.49, -80608.14, 0.000, 0.000, 0.000, 15:27:47.680
220, -40043.57, 56838.59, 39116.91, 101019.80, 152275.56, 109630.36, 10522.13, -11706.73, 2687.10, -69937.82, -34514.18, -2682.70, -70639.63, -70205.55, -37937.50, -80655.82, 0.000, 0.000, 0.000, 15:27:47.680
221, -40253.30, 56843.46, 39111.89, 101025.57, 152280.55, 109633.73, 10186.63, -11934.27, 2687.10, -69937.82, -34514.18, -2682.70, -70639.63, -70205.55, -37937.50, -80655.82, 0.000, 0.000, 0.000, 15:27:47.681
222, -40253.30, 56843.46, 39111.89, 101025.57, 152280.55, 109633.73, 10186.63, -11934.27, 2667.57, -69950.03, -34463.28, -2717.97, -70636.77, -70232.51, -38134.09, -80633.85, 0.000, 0.000, 0.000, 15:27:47.681
223, -39932.57, 56836.17, 39100.96, 100996.02, 152255.70, 109607.38, 10326.39, -11767.57, 2667.57, -69950.03, -34463.28, -2717.97, -70636.77, -70232.51, -38134.09, -80633.85, 0.000, 0.000, 0.000, 15:27:47.681
224, -39932.57, 56836.17, 39100.96, 100996.02, 152255.70, 109607.38, 10326.39, -11767.57, 2986.77, -69958.01, -34457.89, -2731.11, -70632.34, -70262.55, -37809.98, -80638.63, 0.000, 0.000, 0.000, 15:27:47.681
225, -40217.11, 56862.48, 39115.60, 101032.20, 152283.59, 109636.04, 10518.78, -11740.19, 2986.77, -69958.01, -34457.89, -2731.11, -70632.34, -70262.55, -37809.98, -80638.63, 0.000, 0.000, 0.000, 15:27:47.681
226, -40217.11, 56862.48, 39115.60, 101032.20, 152283.59, 109636.04, 10518.78, -11740.19, 2553.20, -69929.87, -34509.75, -2714.06, -70647.16, -70193.88, -38105.05, -80655.17, 0.000, 0.000, 0.000, 15:27:47.681
227, -40025.98, 56837.27, 39101.98, 101022.91, 152249.11, 109653.85, 10173.91, -11871.91, 2553.20, -69929.87, -34509.75, -2714.06, -70647.16, -70193.88, -38105.05, -80655.17, 0.506, 0.798, -0.246, 15:27:47.681
228, -40025.98, 56837.27, 39101.98, 101022.91, 152249.11, 109653.85, 10173.91, -11871.91, 2957.31, -69944.80, -34447.93, -2739.70, -70629.97, -70221.45, -37948.01, -80614.83, 0.000, 0.000, 0.000, 15:27:47.682
229, -40016.10, 56832.19, 39098.23, 101022.48, 152250.09, 109674.04, 10596.76, -11641.37, 2957.31, -69944.80, -34447.93, -2739.70, -70629.97, -70221.45, -37948.01, -80614.83, 0.000, 0.000, 0.000, 15:27:47.682
230, -40016.10, 56832.19, 39098.23, 101022.48, 152250.09, 109674.04, 10596.76, -11641.37, 2797.45, -69942.79, -34537.22, -2735.21, -70669.89, -70202.60, -37896.42, -80658.37, 0.000, 0.000, 0.000, 15:27:47.682
231, -40254.04, 56839.50, 39100.48, 101045.26, 152268.97, 109699.54, 10258.38, -11873.04, 2797.45, -69942.79, -34537.22, -2735.21, -70669.89, -70202.60, -37896.42, -80658.37, 0.000, 0.000, 0.000, 15:27:47.682
232, -40254.04, 56839.50, 39100.48, 101045.26, 152268.97, 109699.54, 10258.38, -11873.04, 2768.80, -69939.21, -34479.33, -2742.16, -70648.81, -70214.74, -38121.26, -80633.02, 0.000, 0.000, 0.000, 15:27:47.682
233, -39940.31, 56818.47, 39090.27, 101011.76, 152256.19, 109670.59, 10366.72, -11733.86, 2768.80, -69939.21, -34479.33, -2742.16, -70648.81, -70214.74, -38121.26, -80633.02, 0.000, 0.000, 0.000, 15:27:47.683
234, -39940.31, 56818.47, 39090.27, 101011.76, 152256.19, 109670.59, 10366.72, -11733.86, 3072.76, -69963.53, -34483.93, -2755.34, -70650.60, -70241.54, -37810.14, -80658.26, 0.000, 0.000, 0.000, 15:27:47.683
235, -40246.39, 56836.37, 39101.58, 101038.84, 152287.97, 109676.59, 10529.24, -11734.82, 3072.76, -69963.53, -34483.93, -2755.34, -70650.60, -70241.54, -37810.14, -80658.26, 0.000, 0.000, 0.000, 15:27:47.683
236, -40246.39, 56836.37, 39101.58, 101038.84, 152287.97, 109676.59, 10529.24, -11734.82, 2632.59, -69939.79, -34534.54, -2730.06, -70656.97, -70227.26, -38111.18, -80685.70, 0.502, 0.804, -0.246, 15:27:47.683
237, -40061.45, 56829.15, 39095.46, 101023.98, 152285.73, 109658.23, 10160.41, -11885.67, 2632.59, -69939.79, -34534.54, -2730.06, -70656.97, -70227.26, -38111.18, -80685.70, 0.000, 0.000, 0.000, 15:27:47.684
238, -40061.45, 56829.15, 39095.46, 101023.98, 152285.73, 109658.23, 10160.41, -11885.67, 3007.43, -69960.17, -34465.11, -2746.83, -70630.99, -70245.74, -37956.12, -80668.80, 0.000, 0.000, 0.000, 15:27:47.684
239, -40044.31, 56828.77, 39090.18, 101019.71, 152275.02, 109638.41, 10573.25, -11659.81, 3007.43, -69960.17, -34465.11, -2746.83, -70630.99, -70245.74, -37956.12, -80668.80, 0.000, 0.000, 0.000, 15:27:47.684
240, -40044.31, 56828.77, 39090.18, 101019.71, 152275.02, 109638.41, 10573.25, -11659.81, 2820.68, -69946.61, -34534.47, -2719.22, -70667.77, -70219.32, -37901.14, -80706.49, 0.000, 0.000, 0.000, 15:27:47.684
241, -40269.84, 56842.56, 39091.34, 101046.69, 152273.42, 109659.02, 10248.21, -11881.16, 2820.68, -69946.61, -34534.47, -2719.22, -70667.77, -70219.32, -37901.14, -80706.49, 0.000, 0.000, 0.000, 15:27:47.685
242, -40269.84, 56842.56, 39091.34, 101046.69, 152273.42, 109659.02, 10248.21, -11881.16, 2769.14, -69934.70, -34469.00, -2710.33, -70647.55, -70214.29, -38111.18, -80669.52, 0.000, 0.000, 0.000, 15:27:47.685
243, -39970.26, 56834.72, 39097.65, 101036.85, 152254.77, 109658.21, 10344.61, -11745.30, 2769.14, -69934.70, -34469.00, -2710.33, -70647.55, -70214.29, -38111.18, -80669.52, 0.000, 0.000, 0.000, 15:27:47.685
244, -39970.26, 56834.72, 39097.65, 101036.85, 152254.77, 109658.21, 10344.61, -11745.30, 3054.01, -69945.31, -34464.80, -2707.18, -70650.45, -70228.71, -37823.38, -80674.87, 0.000, 0.000, 0.000, 15:27:47.685
245, -40279.07, 56845.36, 39095.88, 101059.68, 152257.81, 109661.99, 10500.67, -11746.18, 3054.01, -69945.31, -34464.80, -2707.18, -70650.45, -70228.71, -37823.38, -80674.87, 0.000, 0.000, 0.000, 15:27:47.686
246, -40279.07, 56845.36, 39095.88, 101059.68, 152257.81, 109661.99, 10500.67, -11746.18, 2622.17, -69931.52, -34516.28, -2685.25, -70681.47, -70230.12, -38102.28, -80685.15, 0.510, 0.804, -0.248, 15:27:47.686
247, -40094.18, 56838.65, 39098.70, 101056.37, 152252.08, 109668.36, 10166.24, -11857.26, 2622.17, -69931.52, -34516.28, -2685.25, -70681.47, -70230.12, -38102.28, -80685.15, 0.000, 0.000, 0.000, 15:27:47.686
248, -40094.18, 56838.65, 39098.70, 101056.37, 152252.08, 109668.36, 10166.24, -11857.26, 3032.48, -69949.11, -34443.66, -2699.49, -70647.20, -70237.25, -37932.41, -80649.95, 0.000, 0.000, 0.000, 15:27:47.687
249, -40096.57, 56834.94, 39091.93, 101048.79, 152254.41, 109657.70, 10576.17, -11630.73, 3032.48, -69949.11, -34443.66, -2699.49, -70647.20, -70237.25, -37932.41, -80649.95, 0.000, 0.000, 0.000, 15:27:47.687
250, -40096.57, 56834.94, 39091.93, 101048.79, 152254.41, 109657.70, 10576.17, -11630.73, 2862.10, -69941.38, -34520.75, -2679.42, -70673.76, -70227.55, -37874.38, -80685.52, 0.000, 0.000, 0.000, 15:27:47.687
251, -40335.33, 56857.09, 39100.73, 101084.17, 152277.94, 109703.90, 10231.73, -11875.17, 2862.10, -69941.38, -34520.75, -2679.42, -70673.76, -70227.55, -37874.38, -80685.52, 0.000, 0.000, 0.000, 15:27:47.688
252, -40335.33, 56857.09, 39100.73, 101084.17, 152277.94, 109703.90, 10231.73, -11875.17, 2812.45, -69937.60, -34462.32, -2681.25, -70652.30, -70204.55, -38100.52, -80654.93, 0.000, 0.000, 0.000, 15:27:47.688
253, -40021.54, 56834.63, 39085.80, 101052.23, 152255.08, 109683.36, 10318.21, -11745.80, 2812.45, -69937.60, -34462.32, -2681.25, -70652.30, -70204.55, -38100.52, -80654.93, 0.000, 0.000, 0.000, 15:27:47.688
254, -40021.54, 56834.63, 39085.80, 101052.23, 152255.08, 109683.36, 10318.21, -11745.80, 3104.66, -69959.39, -34468.20, -2691.95, -70651.38, -70248.31, -37800.33, -80675.83, 0.000, 0.000, 0.000, 15:27:47.688
255, -40326.50, 56837.00, 39081.58, 101066.63, 152266.63, 109686.47, 10483.15, -11744.84, 3104.66, -69959.39, -34468.20, -2691.95, -70651.38, -70248.31, -37800.33, -80675.83, 0.000, 0.000, 0.000, 15:27:47.688
0, -40326.50, 56837.00, 39081.58, 101066.63, 152266.63, 109686.47, 10483.15, -11744.84, 2662.52, -69946.16, -34528.37, -2675.82, -70685.47, -70220.77, -38076.15, -80695.77, 0.508, 0.798, -0.242, 15:27:47.689
1, -40137.29, 56823.65, 39078.70, 101061.71, 152256.44, 109696.28, 10144.50, -11860.42, 2662.52, -69946.16, -34528.37, -2675.82, -70685.47, -70220.77, -38076.15, -80695.77, 0.000, 0.000, 0.000, 15:27:47.689
2, -40137.29, 56823.65, 39078.70, 101061.71, 152256.44, 109696.28, 10144.50, -11860.42, 3049.63, -69964.94, -34448.60, -2692.78, -70657.59, -70246.26, -37932.45, -80661.07, 0.000, 0.000, 0.000, 15:27:47.689
3, -40133.50, 56819.21, 39082.76, 101050.58, 152275.70, 109687.83, 10534.87, -11648.86, 3049.63, -69964.94, -34448.60, -2692.78, -70657.59, -70246.26, -37932.45, -80661.07, 0.000, 0.000, 0.000, 15:27:47.689
4, -40133.50, 56819.21, 39082.76, 101050.58, 152275.70, 109687.83, 10534.87, -11648.86, 2876.02, -69963.15, -34524.19, -2679.91, -70691.55, -70243.75, -37879.77, -80697.87, 0.000, 0.000, 0.000, 15:27:47.689
5, -40352.77, 56828.32, 39086.14, 101068.44, 152290.88, 109703.97, 10223.49, -11859.41, 2876.02, -69963.15, -34524.19, -2679.91, -70691.55, -70243.75, -37879.77, -80697.87, 0.000, 0.000, 0.000, 15:27:47.689
6, -40352.77, 56828.32, 39086.14, 101068.44, 152290.88, 109703.97, 10223.49, -11859.41, 2823.70, -69950.54, -34456.87, -2671.73, -70658.89, -70238.45, -38080.82, -80658.73, 0.000, 0.000, 0.000, 15:27:47.689
7, -40042.50, 56828.59, 39097.29, 101056.62, 152288.98, 109689.86, 10305.58, -11734.62, 2823.70, -69950.54, -34456.87, -2671.73, -70658.89, -70238.45, -38080.82, -80658.73, 0.000, 0.000, 0.000, 15:27:47.690
8, -40042.50, 56828.59, 39097.29, 101056.62, 152288.98, 109689.86, 10305.58, -11734.62, 3127.34, -69972.36, -34455.64, -2683.95, -70673.22, -70270.71, -37782.23, -80677.93, 0.000, 0.000, 0.000, 15:27:47.690
9, -40344.72, 56828.19, 39086.61, 101066.20, 152274.09, 109664.47, 10483.01, -11720.34, 3127.34, -69972.36, -34455.64, -2683.95, -70673.22, -70270.71, -37782.23, -80677.93, 0.000, 0.000, 0.000, 15:27:47.690
10, -40344.72, 56828.19, 39086.61, 101066.20, 152274.09, 109664.47, 10483.01, -11720.34, 2685.92, -69947.03, -34512.50, -2655.10, -70690.34, -70229.23, -38071.97, -80698.49, 0.510, 0.802, -0.236, 15:27:47.690
11, -40170.42, 56824.75, 39089.87, 101069.35, 152261.06, 109685.05, 10115.46, -11862.90, 2685.92, -69947.03, -34512.50, -2655.10, -70690.34, -70229.23, -38071.97, -80698.49, 0.000, 0.000, 0.000, 15:27:47.690
12, -40170.42, 56824.75, 39089.87, 101069.35, 152261.06, 109685.05, 10115.46, -11862.90, 3088.52, -69962.21, -34438.58, -2670.07, -70651.65, -70266.06, -37945.59, -80660.73, 0.000, 0.000, 0.000, 15:27:47.690
13, -40145.99, 56828.64, 39093.67, 101062.09, 152277.31, 109665.05, 10504.92, -11668.75, 3088.52, -69962.21, -34438.58, -2670.07, -70651.65, -70266.06, -37945.59, -80660.73, 0.000, 0.000, 0.000, 15:27:47.691
14, -40145.99, 56828.64, 39093.67, 101062.09, 152277.31, 109665.05, 10504.92, -11668.75, 2963.04, -69945.67, -34503.22, -2644.75, -70677.06, -70270.06, -37877.58, -80693.20, 0.000, 0.000, 0.000, 15:27:47.691
15, -40362.55, 56844.55, 39106.16, 101097.67, 152285.36, 109693.38, 10182.20, -11916.32, 2963.04, -69945.67, -34503.22, -2644.75, -70677.06, -70270.06, -37877.58, -80693.20, 0.000, 0.000, 0.000, 15:27:47.691
16, -40362.55, 56844.55, 39106.16, 101097.67, 152285.36, 109693.38, 10182.20, -11916.32, 2948.57, -69934.18, -34449.07, -2642.47, -70664.57, -70219.75, -38084.00, -80633.11, 0.000, 0.000, 0.000, 15:27:47.691
17, -40030.09, 56831.50, 39096.11, 101079.99, 152262.53, 109712.51, 10294.23, -11761.22, 2948.57, -69934.18, -34449.07, -2642.47, -70664.57, -70219.75, -38084.00, -80633.11, 0.000, 0.000, 0.000, 15:27:47.692
18, -40030.09, 56831.50, 39096.11, 101079.99, 152262.53, 109712.51, 10294.23, -11761.22, 3321.54, -69942.18, -34441.64, -2640.93, -70672.97, -70228.13, -37771.00, -80620.66, 0.000, 0.000, 0.000, 15:27:47.692
19, -40317.81, 56854.12, 39106.21, 101106.34, 152282.56, 109733.05, 10489.18, -11730.64, 3321.54, -69942.18, -34441.64, -2640.93, -70672.97, -70228.13, -37771.00, -80620.66, 0.000, 0.000, 0.000, 15:27:47.692
20, -40317.81, 56854.12, 39106.21, 101106.34, 152282.56, 109733.05, 10489.18, -11730.64, 2938.76, -69930.65, -34503.00, -2627.00, -70688.35, -70229.40, -38065.64, -80637.96, 0.508, 0.810, -0.234, 15:27:47.692
21, -40155.04, 56829.33, 39091.05, 101085.05, 152265.38, 109736.16, 10119.51, -11880.31, 2938.76, -69930.65, -34503.00, -2627.00, -70688.35, -70229.40, -38065.64, -80637.96, 0.000, 0.000, 0.000, 15:27:47.693
22, -40155.04, 56829.33, 39091.05, 101085.05, 152265.38, 109736.16, 10119.51, -11880.31, 3425.40, -69953.00, -34443.55, -2656.77, -70670.18, -70252.36, -37929.93, -80610.06, 0.000, 0.000, 0.000, 15:27:47.693
23, -40128.42, 56821.60, 39086.88, 101072.26, 152270.05, 109707.32, 10530.71, -11647.18, 3425.40, -69953.00, -34443.55, -2656.77, -70670.18, -70252.36, -37929.93, -80610.06, 0.000, 0.000, 0.000, 15:27:47.693
24, -40128.42, 56821.60, 39086.88, 101072.26, 152270.05, 109707.32, 10530.71, -11647.18, 3366.33, -69949.24, -34524.70, -2646.94, -70698.86, -70248.65, -37869.29, -80656.89, 0.000, 0.000, 0.000, 15:27:47.693
25, -40364.99, 56824.82, 39087.10, 101085.72, 152296.02, 109729.34, 10212.53, -11868.96, 3366.33, -69949.24, -34524.70, -2646.94, -70698.86, -70248.65, -37869.29, -80656.89, 0.000, 0.000, 0.000, 15:27:47.694
26, -40364.99, 56824.82, 39087.10, 101085.72, 152296.02, 109729.34, 10212.53, -11868.96, 3363.02, -69950.97, -34471.64, -2653.42, -70675.86, -70261.03, -38095.11, -80631.68, 0.000, 0.000, 0.000, 15:27:47.694
27, -40039.57, 56816.59, 39081.02, 101064.33, 152268.80, 109722.48, 10302.88, -11729.90, 3363.02, -69950.97, -34471.64, -2653.42, -70675.86, -70261.03, -38095.11, -80631.68, 0.000, 0.000, 0.000, 15:27:47.694
28, -40039.57, 56816.59, 39081.02, 101064.33, 152268.80, 109722.48, 10302.88, -11729.90, 3725.03, -69960.87, -34468.85, -2657.38, -70690.52, -70255.69, -37808.73, -80636.42, 0.000, 0.000, 0.000, 15:27:47.694
29, -40333.45, 56827.97, 39078.16, 101078.45, 152277.98, 109726.09, 10482.45, -11717.99, 3725.03, -69960.87, -34468.85, -2657.38, -70690.52, -70255.69, -37808.73, -80636.42, 0.506, 0.804, -0.236, 15:27:47.694
30, -40333.45, 56827.97, 39078.16, 101078.45, 152277.98, 109726.09, 10482.45, -11717.99, 3329.47, -69939.73, -34518.91, -2631.76, -70705.90, -70247.46, -38105.21, -80658.41, 0.000, 0.000, 0.000, 15:27:47.694
31, -40158.15, 56823.52, 39080.35, 101071.43, 152269.02, 109709.20, 10114.45, -11862.70, 3329.47, -69939.73, -34518.91, -2631.76, -70705.90, -70247.46, -38105.21, -80658.41, 0.000, 0.000, 0.000, 15:27:47.695
32, -40158.15, 56823.52, 39080.35, 101071.43, 152269.02, 109709.20, 10114.45, -11862.70, 3788.58, -69958.95, -34443.12, -2649.40, -70679.08, -70271.67, -37960.68, -80632.53, 0.000, 0.000, 0.000, 15:27:47.695
33, -40117.49, 56826.52, 39082.74, 101072.10, 152246.41, 109698.18, 10539.79, -11614.70, 3788.58, -69958.95, -34443.12, -2649.40, -70679.08, -70271.67, -37960.68, -80632.53, 0.000, 0.000, 0.000, 15:27:47.695
34, -40117.49, 56826.52, 39082.74, 101072.10, 152246.41, 109698.18, 10539.79, -11614.70, 3721.01, -69940.73, -34507.47, -2616.34, -70699.66, -70239.10, -37892.91, -80654.68, 0.000, 0.000, 0.000, 15:27:47.695
35, -40354.93, 56842.74, 39089.45, 101101.56, 152267.08, 109742.50, 10216.96, -11843.74, 3721.01, -69940.73, -34507.47, -2616.34, -70699.66, -70239.10, -37892.91, -80654.68, 0.000, 0.000, 0.000, 15:27:47.695
36, -40354.93, 56842.74, 39089.45, 101101.56, 152267.08, 109742.50, 10216.96, -11843.74, 3741.70, -69939.23, -34457.96, -2618.89, -70706.91, -70251.20, -38143.59, -80623.59, 0.000, 0.000, 0.000, 15:27:48.153
37, -40033.87, 56830.02, 39090.83, 101080.15, 152264.59, 109724.28, 10280.10, -11725.30, 3741.70, -69939.23, -34457.96, -2618.89, -70706.91, -70251.20, -38143.59, -80623.59, 0.000, 0.000, 0.000, 15:27:48.153
38, -40033.87, 56830.02, 39090.83, 101080.15, 152264.59, 109724.28, 10280.10, -11725.30, 4198.35, -69952.48, -34441.69, -2621.77, -70656.84, -70263.09, -37832.32, -80626.90, 0.000, 0.000, 0.000, 15:27:48.153
39, -40301.02, 56837.38, 39095.61, 101093.90, 152272.39, 109719.19, 10506.82, -11665.29, 4198.35, -69952.48, -34441.69, -2621.77, -70656.84, -70263.09, -37832.32, -80626.90, 0.504, 0.802, -0.238, 15:27:48.153
40, -40301.02, 56837.38, 39095.61, 101093.90, 152272.39, 109719.19, 10506.82, -11665.29, 3863.32, -69929.09, -34496.99, -2587.91, -70682.80, -70233.54, -38077.47, -80647.57, 0.000, 0.000, 0.000, 15:27:48.153
41, -40136.16, 56839.75, 39102.07, 101102.70, 152279.38, 109743.04, 10151.96, -11797.21, 3863.32, -69929.09, -34496.99, -2587.91, -70682.80, -70233.54, -38077.47, -80647.57, 0.000, 0.000, 0.000, 15:27:48.153
42, -40136.16, 56839.75, 39102.07, 101102.70, 152279.38, 109743.04, 10151.96, -11797.21, 4335.88, -69943.03, -34426.71, -2602.70, -70668.37, -70259.31, -37944.99, -80612.32, 0.000, 0.000, 0.000, 15:27:48.154
43, -40106.11, 56829.31, 39093.76, 101088.76, 152269.31, 109722.25, 10563.81, -11558.67, 4335.88, -69943.03, -34426.71, -2602.70, -70668.37, -70259.31, -37944.99, -80612.32, 0.000, 0.000, 0.000, 15:27:48.154
44, -40106.11, 56829.31, 39093.76, 101088.76, 152269.31, 109722.25, 10563.81, -11558.67, 4256.51, -69933.60, -34495.25, -2577.27, -70690.07, -70243.41, -37881.13, -80648.31, 0.000, 0.000, 0.000, 15:27:48.154
45, -40349.30, 56842.05, 39100.96, 101116.30, 152290.39, 109751.82, 10241.55, -11790.97, 4256.51, -69933.60, -34495.25, -2577.27, -70690.07, -70243.41, -37881.13, -80648.31, 0.000, 0.000, 0.000, 15:27:48.154
46, -40349.30, 56842.05, 39100.96, 101116.30, 152290.39, 109751.82, 10241.55, -11790.97, 4242.09, -69937.16, -34447.97, -2583.57, -70684.39, -70282.15, -38112.67, -80611.81, 0.000, 0.000, 0.000, 15:27:48.155
47, -40019.61, 56820.37, 39095.23, 101094.73, 152258.95, 109744.00, 10323.67, -11652.03, 4242.09, -69937.16, -34447.97, -2583.57, -70684.39, -70282.15, -38112.67, -80611.81, 0.000, 0.000, 0.000, 15:27:48.155
48, -40019.61, 56820.37, 39095.23, 101094.73, 152258.95, 109744.00, 10323.67, -11652.03, 4651.69, -69949.80, -34444.73, -2589.49, -70666.06, -70248.67, -37802.34, -80621.66, 0.000, 0.000, 0.000, 15:27:48.155
49, -40309.61, 56834.74, 39106.81, 101117.74, 152315.17, 109734.63, 10525.08, -11621.12, 4651.69, -69949.80, -34444.73, -2589.49, -70666.06, -70248.67, -37802.34, -80621.66, 0.502, 0.794, -0.236, 15:27:48.156
50, -40309.61, 56834.74, 39106.81, 101117.74, 152315.17, 109734.63, 10525.08, -11621.12, 4252.35, -69911.74, -34486.68, -2543.56, -70662.22, -70200.10, -38089.81, -80627.88, 0.000, 0.000, 0.000, 15:27:48.156
51, -40137.50, 56835.39, 39111.91, 101116.27, 152312.81, 109757.68, 10138.66, -11783.42, 4252.35, -69911.74, -34486.68, -2543.56, -70662.22, -70200.10, -38089.81, -80627.88, 0.000, 0.000, 0.000, 15:27:48.156
52, -40137.50, 56835.39, 39111.91, 101116.27, 152312.81, 109757.68, 10138.66, -11783.42, 4699.16, -69936.82, -34418.33, -2566.29, -70639.55, -70260.65, -37961.55, -80606.02, 0.000, 0.000, 0.000, 15:27:48.156
53, -40092.19, 56826.07, 39099.57, 101092.73, 152289.50, 109723.91, 10549.20, -11545.64, 4699.16, -69936.82, -34418.33, -2566.29, -70639.55, -70260.65, -37961.55, -80606.02, 0.000, 0.000, 0.000, 15:27:48.157
54, -40092.19, 56826.07, 39099.57, 101092.73, 152289.50, 109723.91, 10549.20, -11545.64, 4614.45, -69934.38, -34494.08, -2552.46, -70687.52, -70243.46, -37870.78, -80658.55, 0.000, 0.000, 0.000, 15:27:48.157
55, -40339.00, 56840.46, 39090.68, 101106.34, 152285.45, 109738.43, 10251.11, -11754.94, 4614.45, -69934.38, -34494.08, -2552.46, -70687.52, -70243.46, -37870.78, -80658.55, 0.000, 0.000, 0.000, 15:27:48.157
56, -40339.00, 56840.46, 39090.68, 101106.34, 152285.45, 109738.43, 10251.11, -11754.94, 4575.02, -69933.78, -34442.70, -2553.46, -70669.91, -70257.09, -38114.55, -80641.23, 0.000, 0.000, 0.000, 15:27:48.157
57, -40016.04, 56835.03, 39091.23, 101087.26, 152267.55, 109723.50, 10330.69, -11623.04, 4575.02, -69933.78, -34442.70, -2553.46, -70669.91, -70257.09, -38114.55, -80641.23, 0.000, 0.000, 0.000, 15:27:48.157
58, -40016.04, 56835.03, 39091.23, 101087.26, 152267.55, 109723.50, 10330.69, -11623.04, 4981.44, -69937.94, -34433.29, -2550.09, -70657.91, -70235.70, -37820.36, -80652.55, 0.000, 0.000, 0.000, 15:27:48.157
59, -40294.45, 56842.74, 39088.91, 101106.03, 152264.23, 109731.15, 10537.86, -11591.08, 4981.44, -69937.94, -34433.29, -2550.09, -70657.91, -70235.70, -37820.36, -80652.55, 0.502, 0.792, -0.240, 15:27:48.158
60, -40294.45, 56842.74, 39088.91, 101106.03, 152264.23, 109731.15, 10537.86, -11591.08, 4582.55, -69928.70, -34501.59, -2534.04, -70693.02, -70230.74, -38083.77, -80671.78, 0.000, 0.000, 0.000, 15:27:48.158
61, -40131.66, 56825.78, 39081.33, 101087.82, 152265.89, 109713.29, 10195.95, -11711.44, 4582.55, -69928.70, -34501.59, -2534.04, -70693.02, -70230.74, -38083.77, -80671.78, 0.000, 0.000, 0.000, 15:27:48.158
62, -40131.66, 56825.78, 39081.33, 101087.82, 152265.89, 109713.29, 10195.95, -11711.44, 5025.41, -69950.07, -34433.84, -2554.74, -70675.70, -70265.95, -37954.94, -80642.52, 0.000, 0.000, 0.000, 15:27:48.158
63, -40110.98, 56822.54, 39076.86, 101081.73, 152262.00, 109724.44, 10593.32, -11485.35, 5025.41, -69950.07, -34433.84, -2554.74, -70675.70, -70265.95, -37954.94, -80642.52, 0.000, 0.000, 0.000, 15:27:48.159
64, -40110.98, 56822.54, 39076.86, 101081.73, 152262.00, 109724.44, 10593.32, -11485.35, 4930.71, -69942.96, -34508.50, -2536.54, -70696.91, -70227.77, -37904.69, -80670.33, 0.000, 0.000, 0.000, 15:27:48.159
65, -40358.06, 56835.39, 39084.66, 101108.91, 152291.64, 109767.18, 10270.89, -11721.21, 4930.71, -69942.96, -34508.50, -2536.54, -70696.91, -70227.77, -37904.69, -80670.33, 0.000, 0.000, 0.000, 15:27:48.159
66, -40358.06, 56835.39, 39084.66, 101108.91, 152291.64, 109767.18, 10270.89, -11721.21, 4898.70, -69933.63, -34452.89, -2527.04, -70664.44, -70242.14, -38145.69, -80623.77, 0.000, 0.000, 0.000, 15:27:48.159
67, -40022.92, 56812.28, 39071.56, 101080.13, 152265.83, 109762.98, 10333.79, -11598.79, 4898.70, -69933.63, -34452.89, -2527.04, -70664.44, -70242.14, -38145.69, -80623.77, 0.000, 0.000, 0.000, 15:27:48.159
68, -40022.92, 56812.28, 39071.56, 101080.13, 152265.83, 109762.98, 10333.79, -11598.79, 5332.01, -69966.41, -34459.13, -2550.13, -70680.66, -70286.04, -37815.84, -80625.98, 0.000, 0.000, 0.000, 15:27:48.160
69, -40310.36, 56819.96, 39074.85, 101092.89, 152299.81, 109749.79, 10560.93, -11547.65, 5332.01, -69966.41, -34459.13, -2550.13, -70680.66, -70286.04, -37815.84, -80625.98, 0.506, 0.798, -0.236, 15:27:48.160
70, -40310.36, 56819.96, 39074.85, 101092.89, 152299.81, 109749.79, 10560.93, -11547.65, 4922.48, -69933.30, -34513.89, -2514.48, -70683.50, -70203.67, -38104.43, -80657.09, 0.000, 0.000, 0.000, 15:27:48.160
71, -40165.86, 56804.90, 39060.54, 101077.54, 152283.25, 109752.29, 10166.36, -11718.13, 4922.48, -69933.30, -34513.89, -2514.48, -70683.50, -70203.67, -38104.43, -80657.09, 0.000, 0.000, 0.000, 15:27:48.160
72, -40165.86, 56804.90, 39060.54, 101077.54, 152283.25, 109752.29, 10166.36, -11718.13, 5364.93, -69951.10, -34450.43, -2531.92, -70677.31, -70245.67, -37979.17, -80630.80, 0.000, 0.000, 0.000, 15:27:48.160
73, -40102.58, 56806.20, 39060.30, 101068.04, 152278.30, 109738.48, 10587.13, -11467.36, 5364.93, -69951.10, -34450.43, -2531.92, -70677.31, -70245.67, -37979.17, -80630.80, 0.000, 0.000, 0.000, 15:27:48.161
74, -40102.58, 56806.20, 39060.30, 101068.04, 152278.30, 109738.48, 10587.13, -11467.36, 5294.10, -69941.84, -34516.25, -2510.99, -70701.09, -70242.27, -37885.63, -80682.64, 0.000, 0.000, 0.000, 15:27:48.161
75, -40348.03, 56823.12, 39071.18, 101095.44, 152291.17, 109757.79, 10300.35, -11670.63, 5294.10, -69941.84, -34516.25, -2510.99, -70701.09, -70242.27, -37885.63, -80682.64, 0.000, 0.000, 0.000, 15:27:48.162
76, -40348.03, 56823.12, 39071.18, 101095.44, 152291.17, 109757.79, 10300.35, -11670.63, 5251.74, -69920.63, -34450.50, -2494.57, -70657.62, -70217.58, -38136.14, -80639.73, 0.000, 0.000, 0.000, 15:27:48.162
77, -40019.68, 56815.09, 39077.00, 101085.72, 152285.73, 109755.82, 10349.04, -11562.74, 5251.74, -69920.63, -34450.50, -2494.57, -70657.62, -70217.58, -38136.14, -80639.73, 0.000, 0.000, 0.000, 15:27:48.162
78, -40019.68, 56815.09, 39077.00, 101085.72, 152285.73, 109755.82, 10349.04, -11562.74, 5689.23, -69932.17, -34438.58, -2496.85, -70665.41, -70251.75, -37833.99, -80632.24, 0.000, 0.000, 0.000, 15:27:48.162
79, -40281.46, 56824.04, 39080.30, 101106.66, 152289.53, 109763.00, 10577.81, -11507.55, 5689.23, -69932.17, -34438.58, -2496.85, -70665.41, -70251.75, -37833.99, -80632.24, 0.510, 0.804, -0.230, 15:27:48.163
80, -40281.46, 56824.04, 39080.30, 101106.66, 152289.53, 109763.00, 10577.81, -11507.55, 5337.64, -69897.45, -34488.85, -2455.34, -70664.93, -70177.41, -38082.57, -80638.85, 0.000, 0.000, 0.000, 15:27:48.163
81, -40122.86, 56830.89, 39090.50, 101112.98, 152289.45, 109780.90, 10217.50, -11644.39, 5337.64, -69897.45, -34488.85, -2455.34, -70664.93, -70177.41, -38082.57, -80638.85, 0.000, 0.000, 0.000, 15:27:48.163
82, -40122.86, 56830.89, 39090.50, 101112.98, 152289.45, 109780.90, 10217.50, -11644.39, 5823.68, -69910.20, -34409.39, -2467.01, -70650.94, -70229.38, -37966.09, -80603.77, 0.000, 0.000, 0.000, 15:27:48.163
83, -40084.84, 56828.66, 39086.16, 101097.36, 152275.30, 109759.87, 10605.10, -11422.70, 5823.68, -69910.20, -34409.39, -2467.01, -70650.94, -70229.38, -37966.09, -80603.77, 0.000, 0.000, 0.000, 15:27:48.163
84, -40084.84, 56828.66, 39086.16, 101097.36, 152275.30, 109759.87, 10605.10, -11422.70, 5794.91, -69911.18, -34484.54, -2452.90, -70680.04, -70210.29, -37885.85, -80654.68, 0.000, 0.000, 0.000, 15:27:48.163
85, -40343.18, 56836.50, 39089.29, 101121.08, 152281.67, 109762.28, 10306.97, -11639.02, 5794.91, -69911.18, -34484.54, -2452.90, -70680.04, -70210.29, -37885.85, -80654.68, 0.000, 0.000, 0.000, 15:27:48.164
86, -40343.18, 56836.50, 39089.29, 101121.08, 152281.67, 109762.28, 10306.97, -11639.02, 5770.62, -69912.72, -34440.10, -2456.97, -70668.75, -70207.25, -38134.78, -80628.17, 0.000, 0.000, 0.000, 15:27:48.164
87, -40000.43, 56809.04, 39074.76, 101082.48, 152270.25, 109732.35, 10375.90, -11504.46, 5770.62, -69912.72, -34440.10, -2456.97, -70668.75, -70207.25, -38134.78, -80628.17, 0.000, 0.000, 0.000, 15:27:48.164
88, -40000.43, 56809.04, 39074.76, 101082.48, 152270.25, 109732.35, 10375.90, -11504.46, 6243.65, -69935.52, -34431.27, -2465.62, -70642.06, -70249.25, -37808.02, -80633.94, 0.510, 0.796, -0.232, 15:27:48.164
89, -40280.52, 56829.40, 39090.88, 101113.79, 152298.61, 109771.78, 10603.13, -11449.70, 6243.65, -69935.52, -34431.27, -2465.62, -70642.06, -70249.25, -37808.02, -80633.94, 0.000, 0.000, 0.000, 15:27:48.164
90, -40280.52, 56829.40, 39090.88, 101113.79, 152298.61, 109771.78, 10603.13, -11449.70, 5871.27, -69898.84, -34484.18, -2427.20, -70678.78, -70193.28, -38085.63, -80639.34, 0.000, 0.000, 0.000, 15:27:48.165
91, -40145.52, 56820.17, 39084.97, 101101.25, 152289.25, 109764.49, 10202.32, -11624.00, 5871.27, -69898.84, -34484.18, -2427.20, -70678.78, -70193.28, -38085.63, -80639.34, 0.000, 0.000, 0.000, 15:27:48.165
92, -40145.52, 56820.17, 39084.97, 101101.25, 152289.25, 109764.49, 10202.32, -11624.00, 6328.67, -69923.56, -34419.50, -2457.22, -70643.67, -70232.09, -37974.47, -80612.19, 0.000, 0.000, 0.000, 15:27:48.165
93, -40090.40, 56818.16, 39081.71, 101092.49, 152278.94, 109776.25, 10598.73, -11393.80, 6328.67, -69923.56, -34419.50, -2457.22, -70643.67, -70232.09, -37974.47, -80612.19, 0.000, 0.000, 0.000, 15:27:48.165
94, -40090.40, 56818.16, 39081.71, 101092.49, 152278.94, 109776.25, 10598.73, -11393.80, 6288.51, -69905.75, -34479.73, -2430.19, -70665.04, -70192.03, -37873.40, -80637.63, 0.000, 0.000, 0.000, 15:27:48.165
95, -40346.04, 56827.83, 39079.34, 101116.41, 152304.14, 109812.26, 10327.02, -11589.38, 6288.51, -69905.75, -34479.73, -2430.19, -70665.04, -70192.03, -37873.40, -80637.63, 0.000, 0.000, 0.000, 15:27:48.165
96, -40346.04, 56827.83, 39079.34, 101116.41, 152304.14, 109812.26, 10327.02, -11589.38, 6197.69, -69913.52, -34449.29, -2441.97, -70667.63, -70215.27, -38123.71, -80623.79, 0.000, 0.000, 0.000, 15:27:48.166
97, -40043.44, 56811.67, 39065.55, 101079.55, 152283.41, 109773.03, 10365.91, -11485.13, 6197.69, -69913.52, -34449.29, -2441.97, -70667.63, -70215.27, -38123.71, -80623.79, 0.000, 0.000, 0.000, 15:27:48.166
98, -40043.44, 56811.67, 39065.55, 101079.55, 152283.41, 109773.03, 10365.91, -11485.13, 6606.01, -69939.81, -34443.61, -2456.97, -70660.73, -70242.95, -37821.77, -80639.95, 0.510, 0.792, -0.234, 15:27:48.166
99, -40311.19, 56818.47, 39057.41, 101084.13, 152293.20, 109759.11, 10609.66, -11420.11, 6606.01, -69939.81, -34443.61, -2456.97, -70660.73, -70242.95, -37821.77, -80639.95, 0.000, 0.000, 0.000, 15:27:48.166
100, -40311.19, 56818.47, 39057.41, 101084.13, 152293.20, 109759.11, 10609.66, -11420.11, 6184.75, -69911.27, -34499.47, -2428.32, -70666.89, -70234.09, -38066.72, -80666.88, 0.000, 0.000, 0.000, 15:27:48.166
101, -40170.60, 56830.67, 39070.22, 101084.89, 152288.23, 109772.70, 10244.36, -11559.74, 6184.75, -69911.27, -34499.47, -2428.32, -70666.89, -70234.09, -38066.72, -80666.88, 0.000, 0.000, 0.000, 15:27:48.166
102, -40170.60, 56830.67, 39070.22, 101084.89, 152288.23, 109772.70, 10244.36, -11559.74, 6595.49, -69914.69, -34413.57, -2430.66, -70625.92, -70233.00, -37967.16, -80621.96, 0.000, 0.000, 0.000, 15:27:48.167
103, -40113.54, 56838.50, 39082.52, 101096.31, 152291.14, 109774.02, 10619.58, -11348.99, 6595.49, -69914.69, -34413.57, -2430.66, -70625.92, -70233.00, -37967.16, -80621.96, 0.000, 0.000, 0.000, 15:27:48.167
104, -40113.54, 56838.50, 39082.52, 101096.31, 152291.14, 109774.02, 10619.58, -11348.99, 6525.90, -69900.90, -34474.50, -2404.60, -70660.39, -70186.46, -37880.68, -80644.02, 0.000, 0.000, 0.000, 15:27:48.167
105, -40357.91, 56848.53, 39087.66, 101123.09, 152294.03, 109802.02, 10332.34, -11563.09, 6525.90, -69900.90, -34474.50, -2404.60, -70660.39, -70186.46, -37880.68, -80644.02, 0.000, 0.000, 0.000, 15:27:48.167
106, -40357.91, 56848.53, 39087.66, 101123.09, 152294.03, 109802.02, 10332.34, -11563.09, 6463.34, -69894.46, -34428.79, -2401.61, -70637.43, -70200.28, -38124.21, -80611.20, 0.000, 0.000, 0.000, 15:27:48.167
107, -40033.20, 56831.86, 39086.83, 101095.57, 152299.84, 109766.28, 10364.88, -11461.17, 6463.34, -69894.46, -34428.79, -2401.61, -70637.43, -70200.28, -38124.21, -80611.20, 0.000, 0.000, 0.000, 15:27:48.168
108, -40033.20, 56831.86, 39086.83, 101095.57, 152299.84, 109766.28, 10364.88, -11461.17, 6908.66, -69909.08, -34414.22, -2404.31, -70641.55, -70225.02, -37827.06, -80619.74, 0.512, 0.794, -0.234, 15:27:48.168
109, -40306.59, 56843.77, 39084.30, 101106.08, 152287.19, 109762.44, 10580.47, -11426.84, 6908.66, -69909.08, -34414.22, -2404.31, -70641.55, -70225.02, -37827.06, -80619.74, 0.000, 0.000, 0.000, 15:27:48.168
110, -40306.59, 56843.77, 39084.30, 101106.08, 152287.19, 109762.44, 10580.47, -11426.84, 6523.89, -69905.34, -34487.20, -2395.10, -70676.88, -70225.83, -38070.77, -80656.85, 0.000, 0.000, 0.000, 15:27:48.168
111, -40204.44, 56826.78, 39072.46, 101089.07, 152286.88, 109773.57, 10220.13, -11567.47, 6523.89, -69905.34, -34487.20, -2395.10, -70676.88, -70225.83, -38070.77, -80656.85, 0.000, 0.000, 0.000, 15:27:48.169
112, -40204.44, 56826.78, 39072.46, 101089.07, 152286.88, 109773.57, 10220.13, -11567.47, 6966.52, -69916.34, -34411.43, -2404.35, -70623.46, -70233.96, -37950.33, -80608.79, 0.000, 0.000, 0.000, 15:27:48.169
113, -40176.14, 56832.88, 39083.39, 101100.45, 152291.38, 109805.84, 10636.39, -11318.23, 6966.52, -69916.34, -34411.43, -2404.35, -70623.46, -70233.96, -37950.33, -80608.79, 0.000, 0.000, 0.000, 15:27:48.169
114, -40176.14, 56832.88, 39083.39, 101100.45, 152291.38, 109805.84, 10636.39, -11318.23, 6910.24, -69891.20, -34467.46, -2368.21, -70643.45, -70182.40, -37847.07, -80629.13, 0.000, 0.000, 0.000, 15:27:48.170
115, -40456.14, 56846.43, 39085.91, 101129.15, 152303.47, 109824.42, 10346.04, -11540.41, 6910.24, -69891.20, -34467.46, -2368.21, -70643.45, -70182.40, -37847.07, -80629.13, 0.000, 0.000, 0.000, 15:27:48.170
116, -40456.14, 56846.43, 39085.91, 101129.15, 152303.47, 109824.42, 10346.04, -11540.41, 6787.13, -69884.45, -34423.36, -2365.86, -70634.04, -70185.59, -38107.76, -80603.16, 0.000, 0.000, 0.000, 15:27:48.170
117, -40128.98, 56829.71, 39084.26, 101107.51, 152288.05, 109809.09, 10377.11, -11439.15, 6787.13, -69884.45, -34423.36, -2365.86, -70634.04, -70185.59, -38107.76, -80603.16, 0.000, 0.000, 0.000, 15:27:48.170
118, -40128.98, 56829.71, 39084.26, 101107.51, 152288.05, 109809.09, 10377.11, -11439.15, 7183.16, -69904.45, -34416.23, -2379.97, -70638.87, -70217.47, -37802.86, -80600.39, 0.508, 0.796, -0.236, 15:27:48.171
119, -40403.93, 56836.17, 39082.45, 101112.43, 152307.38, 109803.34, 10604.00, -11392.50, 7183.16, -69904.45, -34416.23, -2379.97, -70638.87, -70217.47, -37802.86, -80600.39, 0.000, 0.000, 0.000, 15:27:48.171
120, -40403.93, 56836.17, 39082.45, 101112.43, 152307.38, 109803.34, 10604.00, -11392.50, 6717.77, -69889.14, -34483.29, -2361.39, -70656.55, -70207.99, -38074.65, -80632.20, 0.000, 0.000, 0.000, 15:27:48.171
121, -40280.88, 56815.85, 39069.89, 101091.51, 152306.14, 109795.30, 10204.55, -11567.54, 6717.77, -69889.14, -34483.29, -2361.39, -70656.55, -70207.99, -38074.65, -80632.20, 0.000, 0.000, 0.000, 15:27:48.171
122, -40280.88, 56815.85, 39069.89, 101091.51, 152306.14, 109795.30, 10204.55, -11567.54, 7118.92, -69915.18, -34423.18, -2395.15, -70638.06, -70203.07, -37952.72, -80603.27, 0.000, 0.000, 0.000, 15:27:48.172
123, -40209.33, 56810.00, 39056.83, 101076.66, 152287.66, 109784.59, 10609.10, -11322.50, 7118.92, -69915.18, -34423.18, -2395.15, -70638.06, -70203.07, -37952.72, -80603.27, 0.000, 0.000, 0.000, 15:27:48.172
124, -40209.33, 56810.00, 39056.83, 101076.66, 152287.66, 109784.59, 10609.10, -11322.50, 7027.75, -69911.20, -34496.00, -2384.98, -70680.51, -70200.73, -37854.93, -80650.12, 0.000, 0.000, 0.000, 15:27:48.172
125, -40459.52, 56822.58, 39052.86, 101090.16, 152292.08, 109797.38, 10344.32, -11520.16, 7027.75, -69911.20, -34496.00, -2384.98, -70680.51, -70200.73, -37854.93, -80650.12, 0.000, 0.000, 0.000, 15:27:48.172
126, -40459.52, 56822.58, 39052.86, 101090.16, 152292.08, 109797.38, 10344.32, -11520.16, 6913.15, -69896.27, -34445.60, -2387.70, -70662.16, -70210.09, -38097.90, -80616.46, 0.000, 0.000, 0.000, 15:27:48.173
127, -40110.05, 56833.02, 39066.11, 101079.19, 152280.69, 109798.59, 10404.38, -11390.49, 6913.15, -69896.27, -34445.60, -2387.70, -70662.16, -70210.09, -38097.90, -80616.46, 0.000, 0.000, 0.000, 15:27:48.173
128, -40110.05, 56833.02, 39066.11, 101079.19, 152280.69, 109798.59, 10404.38, -11390.49, 7344.31, -69902.51, -34413.28, -2399.75, -70612.78, -70211.68, -37793.04, -80603.96, 0.506, 0.800, -0.238, 15:27:48.173
129, -40355.09, 56856.09, 39079.09, 101103.80, 152290.23, 109804.82, 10665.98, -11307.70, 7344.31, -69902.51, -34413.28, -2399.75, -70612.78, -70211.68, -37793.04, -80603.96, 0.000, 0.000, 0.000, 15:27:48.174
130, -40355.09, 56856.09, 39079.09, 101103.80, 152290.23, 109804.82, 10665.98, -11307.70, 6906.93, -69872.00, -34474.75, -2393.85, -70648.56, -70192.81, -38047.65, -80625.17, 0.000, 0.000, 0.000, 15:27:48.174
131, -40243.60, 56866.21, 39089.87, 101108.49, 152304.31, 109827.10, 10254.44, -11493.60, 6906.93, -69872.00, -34474.75, -2393.85, -70648.56, -70192.81, -38047.65, -80625.17, 0.000, 0.000, 0.000, 15:27:48.174
132, -40243.60, 56866.21, 39089.87, 101108.49, 152304.31, 109827.10, 10254.44, -11493.60, 7326.54, -69881.52, -34384.71, -2433.88, -70601.76, -70193.91, -37971.70, -80579.58, 0.000, 0.000, 0.000, 15:27:48.174
133, -40146.14, 56855.80, 39086.85, 101089.60, 152290.28, 109836.24, 10648.88, -11257.03, 7326.54, -69881.52, -34384.71, -2433.88, -70601.76, -70193.91, -37971.70, -80579.58, 0.000, 0.000, 0.000, 15:27:48.174
134, -40146.14, 56855.80, 39086.85, 101089.60, 152290.28, 109836.24, 10648.88, -11257.03, 7299.12, -69887.24, -34460.04, -2458.89, -70642.75, -70191.07, -37839.67, -80619.27, 0.000, 0.000, 0.000, 15:27:48.174
135, -40399.97, 56870.01, 39087.07, 101105.84, 152304.63, 109850.82, 10405.41, -11439.33, 7299.12, -69887.24, -34460.04, -2458.89, -70642.75, -70191.07, -37839.67, -80619.27, 0.000, 0.000, 0.000, 15:27:48.175
136, -40399.97, 56870.01, 39087.07, 101105.84, 152304.63, 109850.82, 10405.41, -11439.33, 7172.16, -69877.90, -34421.33, -2486.34, -70624.60, -70211.97, -38107.04, -80605.66, 0.000, 0.000, 0.000, 15:27:48.175
137, -40069.70, 56864.80, 39079.88, 101076.17, 152287.73, 109836.36, 10424.05, -11353.70, 7172.16, -69877.90, -34421.33, -2486.34, -70624.60, -70211.97, -38107.04, -80605.66, 0.510, 0.800, -0.240, 15:27:48.175
138, -40069.70, 56864.80, 39079.88, 101076.17, 152287.73, 109836.36, 10424.05, -11353.70, 7592.04, -69901.34, -34418.13, -2532.03, -70626.33, -70227.10, -37825.50, -80614.05, 0.000, 0.000, 0.000, 15:27:48.175
139, -40325.41, 56873.09, 39074.83, 101085.91, 152283.30, 109838.32, 10655.93, -11307.64, 7592.04, -69901.34, -34418.13, -2532.03, -70626.33, -70227.10, -37825.50, -80614.05, 0.000, 0.000, 0.000, 15:27:48.176
140, -40325.41, 56873.09, 39074.83, 101085.91, 152283.30, 109838.32, 10655.93, -11307.64, 7157.27, -69869.49, -34476.89, -2516.54, -70634.69, -70210.54, -38097.65, -80629.45, 0.000, 0.000, 0.000, 15:27:48.176
141, -40196.62, 56873.32, 39078.20, 101085.65, 152280.39, 109858.17, 10242.19, -11497.96, 7157.27, -69869.49, -34476.89, -2516.54, -70634.69, -70210.54, -38097.65, -80629.45, 0.000, 0.000, 0.000, 15:27:48.176
142, -40196.62, 56873.32, 39078.20, 101085.65, 152280.39, 109858.17, 10242.19, -11497.96, 7572.46, -69897.37, -34409.84, -2563.72, -70624.11, -70230.88, -37979.70, -80595.70, 0.000, 0.000, 0.000, 15:27:48.177
143, -40112.15, 56873.05, 39080.13, 101072.77, 152294.81, 109821.80, 10659.50, -11236.83, 7572.46, -69897.37, -34409.84, -2563.72, -70624.11, -70230.88, -37979.70, -80595.70, 0.000, 0.000, 0.000, 15:27:48.177
144, -40112.15, 56873.05, 39080.13, 101072.77, 152294.81, 109821.80, 10659.50, -11236.83, 7505.31, -69887.95, -34470.28, -2557.87, -70649.13, -70214.83, -37862.82, -80632.71, 0.000, 0.000, 0.000, 15:27:48.177
145, -40384.91, 56883.58, 39086.18, 101100.27, 152320.31, 109866.89, 10393.94, -11441.68, 7505.31, -69887.95, -34470.28, -2557.87, -70649.13, -70214.83, -37862.82, -80632.71, 0.000, 0.000, 0.000, 15:27:48.177
146, -40384.91, 56883.58, 39086.18, 101100.27, 152320.31, 109866.89, 10393.94, -11441.68, 7341.65, -69886.28, -34433.33, -2568.39, -70626.23, -70198.40, -38134.46, -80609.48, 0.000, 0.000, 0.000, 15:27:48.178
147, -40053.88, 56868.42, 39076.93, 101073.04, 152292.91, 109849.03, 10424.52, -11338.21, 7341.65, -69886.28, -34433.33, -2568.39, -70626.23, -70198.40, -38134.46, -80609.48, 0.512, 0.800, -0.242, 15:27:48.178
148, -40053.88, 56868.42, 39076.93, 101073.04, 152292.91, 109849.03, 10424.52, -11338.21, 7756.73, -69907.96, -34421.20, -2588.33, -70613.83, -70237.80, -37828.89, -80621.98, 0.000, 0.000, 0.000, 15:27:48.178
149, -40316.29, 56880.88, 39074.18, 101081.00, 152314.55, 109847.27, 10685.94, -11266.62, 7756.73, -69907.96, -34421.20, -2588.33, -70613.83, -70237.80, -37828.89, -80621.98, 0.000, 0.000, 0.000, 15:27:48.178
150, -40316.29, 56880.88, 39074.18, 101081.00, 152314.55, 109847.27, 10685.94, -11266.62, 7299.54, -69886.88, -34485.84, -2564.19, -70650.20, -70233.02, -38090.43, -80662.62, 0.000, 0.000, 0.000, 15:27:48.179
151, -40200.68, 56885.50, 39076.46, 101084.04, 152301.63, 109847.45, 10285.65, -11446.33, 7299.54, -69886.88, -34485.84, -2564.19, -70650.20, -70233.02, -38090.43, -80662.62, 0.000, 0.000, 0.000, 15:27:48.179
152, -40200.68, 56885.50, 39076.46, 101084.04, 152301.63, 109847.45, 10285.65, -11446.33, 7677.29, -69887.04, -34395.45, -2570.14, -70608.33, -70246.88, -38005.18, -80625.73, 0.000, 0.000, 0.000, 15:27:48.179
153, -40109.11, 56893.41, 39083.36, 101089.07, 152285.92, 109831.98, 10677.79, -11212.64, 7677.29, -69887.04, -34395.45, -2570.14, -70608.33, -70246.88, -38005.18, -80625.73, 0.000, 0.000, 0.000, 15:27:48.180
154, -40109.11, 56893.41, 39083.36, 101089.07, 152285.92, 109831.98, 10677.79, -11212.64, 7614.88, -69872.04, -34455.53, -2543.52, -70640.14, -70208.48, -37888.06, -80663.06, 0.000, 0.000, 0.000, 15:27:48.180
155, -40372.61, 56912.97, 39093.87, 101129.77, 152294.44, 109849.88, 10412.90, -11420.53, 7614.88, -69872.04, -34455.53, -2543.52, -70640.14, -70208.48, -37888.06, -80663.06, 0.000, 0.000, 0.000, 15:27:48.180
156, -40372.61, 56912.97, 39093.87, 101129.77, 152294.44, 109849.88, 10412.90, -11420.53, 7450.33, -69855.86, -34409.91, -2529.73, -70625.12, -70196.08, -38154.74, -80618.96, 0.000, 0.000, 0.000, 15:27:48.631
157, -40030.30, 56898.42, 39093.11, 101110.88, 152276.17, 109860.41, 10434.51, -11319.62, 7450.33, -69855.86, -34409.91, -2529.73, -70625.12, -70196.08, -38154.74, -80618.96, 0.512, 0.800, -0.240, 15:27:48.631
158, -40030.30, 56898.42, 39093.11, 101110.88, 152276.17, 109860.41, 10434.51, -11319.62, 7858.45, -69879.11, -34394.17, -2541.10, -70615.02, -70224.26, -37832.88, -80620.46, 0.000, 0.000, 0.000, 15:27:48.631
159, -40293.62, 56899.54, 39089.82, 101123.83, 152298.95, 109865.66, 10699.80, -11241.38, 7858.45, -69879.11, -34394.17, -2541.10, -70615.02, -70224.26, -37832.88, -80620.46, 0.000, 0.000, 0.000, 15:27:48.631
160, -40293.62, 56899.54, 39089.82, 101123.83, 152298.95, 109865.66, 10699.80, -11241.38, 7384.99, -69861.11, -34470.55, -2516.40, -70671.23, -70211.38, -38090.86, -80651.91, 0.000, 0.000, 0.000, 15:27:48.631
161, -40205.31, 56896.07, 39089.64, 101125.26, 152289.50, 109876.32, 10279.88, -11443.18, 7384.99, -69861.11, -34470.55, -2516.40, -70671.23, -70211.38, -38090.86, -80651.91, 0.000, 0.000, 0.000, 15:27:48.632
162, -40205.31, 56896.07, 39089.64, 101125.26, 152289.50, 109876.32, 10279.88, -11443.18, 7773.87, -69875.91, -34387.82, -2530.17, -70612.51, -70236.29, -38005.00, -80607.88, 0.000, 0.000, 0.000, 15:27:48.632
163, -40109.33, 56888.65, 39086.09, 101114.75, 152280.39, 109868.37, 10683.49, -11202.02, 7773.87, -69875.91, -34387.82, -2530.17, -70612.51, -70236.29, -38005.00, -80607.88, 0.000, 0.000, 0.000, 15:27:48.632
164, -40109.33, 56888.65, 39086.09, 101114.75, 152280.39, 109868.37, 10683.49, -11202.02, 7718.17, -69863.55, -34452.66, -2510.61, -70643.63, -70218.80, -37888.62, -80637.67, 0.000, 0.000, 0.000, 15:27:48.632
165, -40388.59, 56906.73, 39095.59, 101152.39, 152313.50, 109892.39, 10404.40, -11430.77, 7718.17, -69863.55, -34452.66, -2510.61, -70643.63, -70218.80, -37888.62, -80637.67, 0.000, 0.000, 0.000, 15:27:48.632
166, -40388.59, 56906.73, 39095.59, 101152.39, 152313.50, 109892.39, 10404.40, -11430.77, 7543.67, -69859.84, -34422.76, -2516.11, -70638.13, -70192.59, -38159.84, -80610.87, 0.000, 0.000, 0.000, 15:27:48.632
167, -40051.42, 56879.64, 39076.68, 101107.89, 152281.80, 109874.60, 10424.36, -11335.96, 7543.67, -69859.84, -34422.76, -2516.11, -70638.13, -70192.59, -38159.84, -80610.87, 0.514, 0.790, -0.244, 15:27:48.633
168, -40051.42, 56879.64, 39076.68, 101107.89, 152281.80, 109874.60, 10424.36, -11335.96, 7941.22, -69881.56, -34418.46, -2537.48, -70630.17, -70212.02, -37846.22, -80620.99, 0.000, 0.000, 0.000, 15:27:48.633
169, -40311.59, 56885.70, 39069.17, 101113.05, 152300.84, 109874.09, 10694.19, -11258.77, 7941.22, -69881.56, -34418.46, -2537.48, -70630.17, -70212.02, -37846.22, -80620.99, 0.000, 0.000, 0.000, 15:27:48.633
170, -40311.59, 56885.70, 39069.17, 101113.05, 152300.84, 109874.09, 10694.19, -11258.77, 7474.85, -69865.47, -34486.08, -2514.97, -70666.49, -70209.04, -38087.59, -80654.16, 0.000, 0.000, 0.000, 15:27:48.633
171, -40227.82, 56885.30, 39075.54, 101108.88, 152317.95, 109887.99, 10274.47, -11458.80, 7474.85, -69865.47, -34486.08, -2514.97, -70666.49, -70209.04, -38087.59, -80654.16, 0.000, 0.000, 0.000, 15:27:48.633
172, -40227.82, 56885.30, 39075.54, 101108.88, 152317.95, 109887.99, 10274.47, -11458.80, 7847.67, -69894.04, -34408.14, -2543.23, -70602.68, -70241.41, -38018.84, -80621.35, 0.000, 0.000, 0.000, 15:27:48.633
173, -40146.61, 56867.57, 39060.77, 101085.09, 152299.95, 109857.34, 10647.75, -11241.34, 7847.67, -69894.04, -34408.14, -2543.23, -70602.68, -70241.41, -38018.84, -80621.35, 0.000, 0.000, 0.000, 15:27:48.634
174, -40146.61, 56867.57, 39060.77, 101085.09, 152299.95, 109857.34, 10647.75, -11241.34, 7773.89, -69896.67, -34485.45, -2536.48, -70658.78, -70245.74, -37904.33, -80673.16, 0.000, 0.000, 0.000, 15:27:48.634
175, -40419.60, 56872.94, 39059.11, 101102.50, 152323.02, 109862.76, 10394.34, -11439.22, 7773.89, -69896.67, -34485.45, -2536.48, -70658.78, -70245.74, -37904.33, -80673.16, 0.000, 0.000, 0.000, 15:27:48.634
176, -40419.60, 56872.94, 39059.11, 101102.50, 152323.02, 109862.76, 10394.34, -11439.22, 7584.55, -69877.12, -34440.64, -2521.05, -70636.59, -70211.99, -38169.34, -80646.68, 0.000, 0.000, 0.000, 15:27:48.634
177, -40081.79, 56870.26, 39065.21, 101087.66, 152304.14, 109853.37, 10401.34, -11351.87, 7584.55, -69877.12, -34440.64, -2521.05, -70636.59, -70211.99, -38169.34, -80646.68, 0.514, 0.792, -0.250, 15:27:48.634
178, -40081.79, 56870.26, 39065.21, 101087.66, 152304.14, 109853.37, 10401.34, -11351.87, 7986.05, -69895.00, -34420.43, -2529.97, -70639.60, -70239.51, -37860.68, -80654.32, 0.000, 0.000, 0.000, 15:27:48.634
179, -40329.81, 56884.18, 39068.70, 101105.41, 152296.13, 109840.34, 10664.60, -11277.46, 7986.05, -69895.00, -34420.43, -2529.97, -70639.60, -70239.51, -37860.68, -80654.32, 0.000, 0.000, 0.000, 15:27:48.635
180, -40329.81, 56884.18, 39068.70, 101105.41, 152296.13, 109840.34, 10664.60, -11277.46, 7510.36, -69868.63, -34477.21, -2496.09, -70671.14, -70231.81, -38107.78, -80674.55, 0.000, 0.000, 0.000, 15:27:48.635
181, -40219.57, 56882.93, 39071.77, 101106.91, 152282.27, 109858.35, 10265.66, -11456.01, 7510.36, -69868.63, -34477.21, -2496.09, -70671.14, -70231.81, -38107.78, -80674.55, 0.000, 0.000, 0.000, 15:27:48.635
182, -40219.57, 56882.93, 39071.77, 101106.91, 152282.27, 109858.35, 10265.66, -11456.01, 7886.50, -69882.26, -34397.03, -2510.50, -70641.16, -70248.38, -38010.84, -80636.53, 0.000, 0.000, 0.000, 15:27:48.635
183, -40118.07, 56881.88, 39071.65, 101103.80, 152276.11, 109844.11, 10673.74, -11198.71, 7886.50, -69882.26, -34397.03, -2510.50, -70641.16, -70248.38, -38010.84, -80636.53, 0.000, 0.000, 0.000, 15:27:48.635
184, -40118.07, 56881.88, 39071.65, 101103.80, 152276.11, 109844.11, 10673.74, -11198.71, 7832.34, -69867.48, -34460.44, -2482.70, -70670.88, -70240.87, -37880.37, -80665.77, 0.000, 0.000, 0.000, 15:27:48.635
185, -40391.12, 56899.47, 39079.79, 101141.91, 152287.48, 109893.45, 10427.20, -11392.19, 7832.34, -69867.48, -34460.44, -2482.70, -70670.88, -70240.87, -37880.37, -80665.77, 0.000, 0.000, 0.000, 15:27:48.636
186, -40391.12, 56899.47, 39079.79, 101141.91, 152287.48, 109893.45, 10427.20, -11392.19, 7647.72, -69854.52, -34416.21, -2473.29, -70632.23, -70182.11, -38157.71, -80626.49, 0.000, 0.000, 0.000, 15:27:48.636
187, -40049.39, 56887.42, 39076.86, 101122.38, 152271.91, 109888.95, 10431.83, -11303.88, 7647.72, -69854.52, -34416.21, -2473.29, -70632.23, -70182.11, -38157.71, -80626.49, 0.514, 0.800, -0.246, 15:27:48.636
188, -40049.39, 56887.42, 39076.86, 101122.38, 152271.91, 109888.95, 10431.83, -11303.88, 8064.69, -69874.26, -34403.91, -2489.47, -70643.05, -70215.09, -37850.75, -80631.19, 0.000, 0.000, 0.000, 15:27:48.636
189, -40304.13, 56893.21, 39066.49, 101128.50, 152271.97, 109882.89, 10699.49, -11230.72, 8064.69, -69874.26, -34403.91, -2489.47, -70643.05, -70215.09, -37850.75, -80631.19, 0.000, 0.000, 0.000, 15:27:48.636
190, -40304.13, 56893.21, 39066.49, 101128.50, 152271.97, 109882.89, 10699.49, -11230.72, 7591.79, -69857.38, -34478.41, -2473.00, -70677.20, -70214.56, -38096.98, -80662.48, 0.000, 0.000, 0.000, 15:27:48.636
191, -40202.14, 56880.05, 39060.48, 101110.44, 152279.50, 109865.52, 10318.84, -11398.00, 7591.79, -69857.38, -34478.41, -2473.00, -70677.20, -70214.56, -38096.98, -80662.48, 0.000, 0.000, 0.000, 15:27:48.637
192, -40202.14, 56880.05, 39060.48, 101110.44, 152279.50, 109865.52, 10318.84, -11398.00, 7943.34, -69883.60, -34409.86, -2501.94, -70651.98, -70254.75, -37994.90, -80639.97, 0.000, 0.000, 0.000, 15:27:48.637
193, -40119.21, 56881.43, 39069.93, 101107.71, 152292.56, 109870.58, 10719.54, -11152.54, 7943.34, -69883.60, -34409.86, -2501.94, -70651.98, -70254.75, -37994.90, -80639.97, 0.000, 0.000, 0.000, 15:27:48.637
194, -40119.21, 56881.43, 39069.93, 101107.71, 152292.56, 109870.58, 10719.54, -11152.54, 7870.16, -69867.98, -34463.24, -2474.34, -70653.84, -70223.52, -37889.89, -80668.59, 0.000, 0.000, 0.000, 15:27:48.637
195, -40401.43, 56893.12, 39074.20, 101129.19, 152301.73, 109895.50, 10457.58, -11369.04, 7870.16, -69867.98, -34463.24, -2474.34, -70653.84, -70223.52, -37889.89, -80668.59, 0.000, 0.000, 0.000, 15:27:48.637
196, -40401.43, 56893.12, 39074.20, 101129.19, 152301.73, 109895.50, 10457.58, -11369.04, 7682.36, -69871.39, -34434.54, -2490.14, -70641.70, -70225.38, -38163.84, -80648.42, 0.512, 0.800, -0.246, 15:27:48.637
197, -40069.34, 56876.67, 39061.77, 101089.78, 152293.56, 109873.75, 10465.53, -11273.77, 7682.36, -69871.39, -34434.54, -2490.14, -70641.70, -70225.38, -38163.84, -80648.42, 0.000, 0.000, 0.000, 15:27:48.638
198, -40069.34, 56876.67, 39061.77, 101089.78, 152293.56, 109873.75, 10465.53, -11273.77, 8087.22, -69898.98, -34423.94, -2514.64, -70638.02, -70247.41, -37864.79, -80659.69, 0.000, 0.000, 0.000, 15:27:48.638
199, -40337.59, 56884.18, 39060.92, 101104.54, 152307.75, 109869.57, 10717.37, -11211.54, 8087.22, -69898.98, -34423.94, -2514.64, -70638.02, -70247.41, -37864.79, -80659.69, 0.000, 0.000, 0.000, 15:27:48.638
200, -40337.59, 56884.18, 39060.92, 101104.54, 152307.75, 109869.57, 10717.37, -11211.54, 7620.51, -69865.74, -34483.38, -2478.92, -70668.93, -70215.45, -38119.67, -80682.11, 0.000, 0.000, 0.000, 15:27:48.638
201, -40224.67, 56883.00, 39062.55, 101098.88, 152289.50, 109859.52, 10316.31, -11392.97, 7620.51, -69865.74, -34483.38, -2478.92, -70668.93, -70215.45, -38119.67, -80682.11, 0.000, 0.000, 0.000, 15:27:48.638
202, -40224.67, 56883.00, 39062.55, 101098.88, 152289.50, 109859.52, 10316.31, -11392.97, 7998.08, -69885.30, -34404.68, -2497.07, -70637.66, -70246.70, -38020.70, -80644.51, 0.000, 0.000, 0.000, 15:27:48.638
203, -40123.26, 56880.02, 39068.70, 101093.38, 152299.59, 109869.68, 10713.01, -11146.46, 7998.08, -69885.30, -34404.68, -2497.07, -70637.66, -70246.70, -38020.70, -80644.51, 0.000, 0.000, 0.000, 15:27:48.639
204, -40123.26, 56880.02, 39068.70, 101093.38, 152299.59, 109869.68, 10713.01, -11146.46, 7934.89, -69891.66, -34470.32, -2484.06, -70663.23, -70265.19, -37901.74, -80680.18, 0.000, 0.000, 0.000, 15:27:48.639
205, -40399.14, 56893.32, 39079.25, 101117.19, 152307.31, 109896.15, 10472.64, -11341.45, 7934.89, -69891.66, -34470.32, -2484.06, -70663.23, -70265.19, -37901.74, -80680.18, 0.000, 0.000, 0.000, 15:27:48.639
206, -40399.14, 56893.32, 39079.25, 101117.19, 152307.31, 109896.15, 10472.64, -11341.45, 7749.15, -69866.25, -34419.67, -2463.56, -70630.57, -70260.18, -38159.46, -80650.48, 0.510, 0.792, -0.244, 15:27:48.639
207, -40065.99, 56896.45, 39086.72, 101111.84, 152294.44, 109878.36, 10462.14, -11263.45, 7749.15, -69866.25, -34419.67, -2463.56, -70630.57, -70260.18, -38159.46, -80650.48, 0.000, 0.000, 0.000, 15:27:48.640
208, -40065.99, 56896.45, 39086.72, 101111.84, 152294.44, 109878.36, 10462.14, -11263.45, 8157.43, -69875.62, -34396.36, -2469.91, -70626.26, -70206.20, -37870.05, -80656.16, 0.000, 0.000, 0.000, 15:27:48.640
209, -40309.11, 56897.21, 39074.22, 101116.56, 152286.92, 109864.41, 10728.05, -11198.29, 8157.43, -69875.62, -34396.36, -2469.91, -70626.26, -70206.20, -37870.05, -80656.16, 0.000, 0.000, 0.000, 15:27:48.640
210, -40309.11, 56897.21, 39074.22, 101116.56, 152286.92, 109864.41, 10728.05, -11198.29, 7693.96, -69856.22, -34472.38, -2448.19, -70682.18, -70217.31, -38096.38, -80683.40, 0.000, 0.000, 0.000, 15:27:48.640
211, -40209.87, 56889.23, 39065.28, 101112.90, 152269.80, 109882.65, 10338.71, -11370.22, 7693.96, -69856.22, -34472.38, -2448.19, -70682.18, -70217.31, -38096.38, -80683.40, 0.000, 0.000, 0.000, 15:27:48.640
212, -40209.87, 56889.23, 39065.28, 101112.90, 152269.80, 109882.65, 10338.71, -11370.22, 8043.88, -69877.61, -34403.69, -2472.08, -70653.73, -70244.55, -38016.56, -80649.34, 0.000, 0.000, 0.000, 15:27:48.640
213, -40119.50, 56897.55, 39073.91, 101112.54, 152274.31, 109874.53, 10725.66, -11135.91, 8043.88, -69877.61, -34403.69, -2472.08, -70653.73, -70244.55, -38016.56, -80649.34, 0.000, 0.000, 0.000, 15:27:48.641
214, -40119.50, 56897.55, 39073.91, 101112.54, 152274.31, 109874.53, 10725.66, -11135.91, 7986.37, -69855.39, -34445.87, -2435.58, -70645.52, -70219.03, -37897.71, -80665.07, 0.000, 0.000, 0.000, 15:27:48.641
215, -40384.10, 56921.15, 39092.55, 101147.09, 152306.45, 109913.70, 10485.34, -11339.91, 7986.37, -69855.39, -34445.87, -2435.58, -70645.52, -70219.03, -37897.71, -80665.07, 0.000, 0.000, 0.000, 15:27:48.641
216, -40384.10, 56921.15, 39092.55, 101147.09, 152306.45, 109913.70, 10485.34, -11339.91, 7784.15, -69843.01, -34407.02, -2428.41, -70631.04, -70227.63, -38165.91, -80633.16, 0.510, 0.794, -0.242, 15:27:48.641
217, -40048.91, 56906.24, 39083.39, 101121.34, 152296.67, 109902.32, 10471.59, -11262.44, 7784.15, -69843.01, -34407.02, -2428.41, -70631.04, -70227.63, -38165.91, -80633.16, 0.000, 0.000, 0.000, 15:27:48.641
218, -40048.91, 56906.24, 39083.39, 101121.34, 152296.67, 109902.32, 10471.59, -11262.44, 8180.20, -69875.17, -34402.46, -2455.56, -70642.06, -70237.49, -37870.16, -80651.17, 0.000, 0.000, 0.000, 15:27:48.641
219, -40306.30, 56886.86, 39060.03, 101110.55, 152289.16, 109879.16, 10744.44, -11184.46, 8180.20, -69875.17, -34402.46, -2455.56, -70642.06, -70237.49, -37870.16, -80651.17, 0.000, 0.000, 0.000, 15:27:48.642
220, -40306.30, 56886.86, 39060.03, 101110.55, 152289.16, 109879.16, 10744.44, -11184.46, 7699.06, -69871.95, -34492.03, -2449.01, -70690.12, -70229.60, -38100.13, -80690.09, 0.000, 0.000, 0.000, 15:27:48.642
221, -40219.57, 56876.43, 39059.61, 101105.97, 152299.75, 109886.67, 10358.02, -11350.28, 7699.06, -69871.95, -34492.03, -2449.01, -70690.12, -70229.60, -38100.13, -80690.09, 0.000, 0.000, 0.000, 15:27:48.642
222, -40219.57, 56876.43, 39059.61, 101105.97, 152299.75, 109886.67, 10358.02, -11350.28, 8046.92, -69872.29, -34408.09, -2457.13, -70626.57, -70237.36, -38025.84, -80642.99, 0.000, 0.000, 0.000, 15:27:48.642
223, -40124.42, 56887.22, 39070.45, 101097.00, 152304.95, 109879.80, 10727.00, -11128.49, 8046.92, -69872.29, -34408.09, -2457.13, -70626.57, -70237.36, -38025.84, -80642.99, 0.000, 0.000, 0.000, 15:27:48.642
224, -40124.42, 56887.22, 39070.45, 101097.00, 152304.95, 109879.80, 10727.00, -11128.49, 8002.13, -69879.95, -34470.01, -2450.02, -70656.32, -70269.86, -37900.98, -80688.27, 0.000, 0.000, 0.000, 15:27:48.643
225, -40410.37, 56893.59, 39070.69, 101110.39, 152317.52, 109888.95, 10488.60, -11328.67, 8002.13, -69879.95, -34470.01, -2450.02, -70656.32, -70269.86, -37900.98, -80688.27, 0.000, 0.000, 0.000, 15:27:48.643
226, -40410.37, 56893.59, 39070.69, 101110.39, 152317.52, 109888.95, 10488.60, -11328.67, 7775.10, -69858.85, -34433.38, -2430.35, -70650.58, -70221.83, -38183.68, -80661.34, 0.506, 0.798, -0.242, 15:27:48.643
227, -40051.35, 56886.42, 39072.66, 101096.73, 152279.50, 109882.24, 10492.67, -11233.20, 7775.10, -69858.85, -34433.38, -2430.35, -70650.58, -70221.83, -38183.68, -80661.34, 0.000, 0.000, 0.000, 15:27:48.643
228, -40051.35, 56886.42, 39072.66, 101096.73, 152279.50, 109882.24, 10492.67, -11233.20, 8200.94, -69881.27, -34409.64, -2440.21, -70637.23, -70243.93, -37854.40, -80653.20, 0.000, 0.000, 0.000, 15:27:48.644
229, -40295.10, 56896.61, 39083.14, 101118.71, 152307.28, 109886.96, 10791.04, -11134.30, 8200.94, -69881.27, -34409.64, -2440.21, -70637.23, -70243.93, -37854.40, -80653.20, 0.000, 0.000, 0.000, 15:27:48.644
230, -40295.10, 56896.61, 39083.14, 101118.71, 152307.28, 109886.96, 10791.04, -11134.30, 7731.83, -69853.05, -34472.78, -2405.92, -70666.13, -70220.66, -38085.79, -80683.16, 0.000, 0.000, 0.000, 15:27:48.644
231, -40228.80, 56898.00, 39095.61, 101128.63, 152308.67, 109895.81, 10367.61, -11339.26, 7731.83, -69853.05, -34472.78, -2405.92, -70666.13, -70220.66, -38085.79, -80683.16, 0.000, 0.000, 0.000, 15:27:48.644
232, -40228.80, 56898.00, 39095.61, 101128.63, 152308.67, 109895.81, 10367.61, -11339.26, 8095.40, -69866.41, -34384.09, -2415.46, -70612.55, -70246.14, -38022.73, -80649.31, 0.000, 0.000, 0.000, 15:27:48.644
233, -40110.20, 56894.98, 39092.08, 101110.86, 152305.39, 109885.89, 10753.27, -11101.02, 8095.40, -69866.41, -34384.09, -2415.46, -70612.55, -70246.14, -38022.73, -80649.31, 0.000, 0.000, 0.000, 15:27:48.644
234, -40110.20, 56894.98, 39092.08, 101110.86, 152305.39, 109885.89, 10753.27, -11101.02, 8095.62, -69872.11, -34452.69, -2408.82, -70660.30, -70253.79, -37853.80, -80702.98, 0.000, 0.000, 0.000, 15:27:48.645
235, -40389.58, 56902.40, 39083.90, 101128.14, 152297.83, 109880.61, 10554.11, -11261.57, 8095.62, -69872.11, -34452.69, -2408.82, -70660.30, -70253.79, -37853.80, -80702.98, 0.000, 0.000, 0.000, 15:27:48.645
236, -40389.58, 56902.40, 39083.90, 101128.14, 152297.83, 109880.61, 10554.11, -11261.57, 7882.74, -69862.27, -34422.36, -2399.12, -70641.73, -70233.65, -38135.79, -80686.45, 0.502, 0.806, -0.246, 15:27:48.645
237, -40064.25, 56887.69, 39075.48, 101114.66, 152277.13, 109885.77, 10547.23, -11174.91, 7882.74, -69862.27, -34422.36, -2399.12, -70641.73, -70233.65, -38135.79, -80686.45, 0.000, 0.000, 0.000, 15:27:48.646
238, -40064.25, 56887.69, 39075.48, 101114.66, 152277.13, 109885.77, 10547.23, -11174.91, 8298.51, -69875.93, -34405.32, -2405.67, -70639.67, -70250.46, -37847.29, -80680.79, 0.000, 0.000, 0.000, 15:27:48.646
239, -40302.83, 56889.75, 39065.24, 101132.43, 152282.77, 109885.59, 10840.98, -11079.33, 8298.51, -69875.93, -34405.32, -2405.67, -70639.67, -70250.46, -37847.29, -80680.79, 0.000, 0.000, 0.000, 15:27:48.646
240, -40302.83, 56889.75, 39065.24, 101132.43, 152282.77, 109885.59, 10840.98, -11079.33, 7826.82, -69840.48, -34478.23, -2369.96, -70684.64, -70205.20, -38079.77, -80702.40, 0.000, 0.000, 0.000, 15:27:48.646
241, -40220.46, 56891.02, 39063.72, 101141.13, 152263.66, 109894.63, 10433.15, -11269.41, 7826.82, -69840.48, -34478.23, -2369.96, -70684.64, -70205.20, -38079.77, -80702.40, 0.000, 0.000, 0.000, 15:27:48.646
242, -40220.46, 56891.02, 39063.72, 101141.13, 152263.66, 109894.63, 10433.15, -11269.41, 8146.20, -69859.30, -34407.11, -2391.52, -70661.02, -70233.11, -38033.04, -80666.39, 0.000, 0.000, 0.000, 15:27:48.647
243, -40123.17, 56879.11, 39057.23, 101115.69, 152292.00, 109876.19, 10787.04, -11060.38, 8146.20, -69859.30, -34407.11, -2391.52, -70661.02, -70233.11, -38033.04, -80666.39, 0.000, 0.000, 0.000, 15:27:48.647
244, -40123.17, 56879.11, 39057.23, 101115.69, 152292.00, 109876.19, 10787.04, -11060.38, 8115.40, -69869.88, -34471.33, -2391.68, -70671.59, -70244.83, -37898.48, -80709.53, 0.000, 0.000, 0.000, 15:27:48.647
245, -40402.99, 56887.40, 39055.94, 101134.11, 152309.59, 109903.34, 10582.08, -11237.90, 8115.40, -69869.88, -34471.33, -2391.68, -70671.59, -70244.83, -37898.48, -80709.53, 0.508, 0.804, -0.246, 15:27:48.647
246, -40402.99, 56887.40, 39055.94, 101134.11, 152309.59, 109903.34, 10582.08, -11237.90, 7886.61, -69853.45, -34438.83, -2378.52, -70661.10, -70205.59, -38177.23, -80679.29, 0.000, 0.000, 0.000, 15:27:48.647
247, -40077.59, 56883.73, 39060.84, 101119.76, 152298.67, 109896.57, 10548.82, -11177.53, 7886.61, -69853.45, -34438.83, -2378.52, -70661.10, -70205.59, -38177.23, -80679.29, 0.000, 0.000, 0.000, 15:27:48.648
248, -40077.59, 56883.73, 39060.84, 101119.76, 152298.67, 109896.57, 10548.82, -11177.53, 8304.66, -69885.09, -34416.63, -2396.96, -70651.58, -70251.38, -37885.89, -80669.37, 0.000, 0.000, 0.000, 15:27:48.648
249, -40308.55, 56880.47, 39054.31, 101115.06, 152294.77, 109901.27, 10840.33, -11084.30, 8304.66, -69885.09, -34416.63, -2396.96, -70651.58, -70251.38, -37885.89, -80669.37, 0.000, 0.000, 0.000, 15:27:48.648
250, -40308.55, 56880.47, 39054.31, 101115.06, 152294.77, 109901.27, 10840.33, -11084.30, 7836.81, -69863.64, -34490.04, -2371.97, -70673.98, -70215.95, -38122.02, -80705.09, 0.000, 0.000, 0.000, 15:27:48.648
251, -40247.82, 56878.46, 39061.15, 101114.10, 152298.98, 109894.43, 10401.54, -11304.73, 7836.81, -69863.64, -34490.04, -2371.97, -70673.98, -70215.95, -38122.02, -80705.09, 0.000, 0.000, 0.000, 15:27:48.648
252, -40247.82, 56878.46, 39061.15, 101114.10, 152298.98, 109894.43, 10401.54, -11304.73, 8186.24, -69886.28, -34413.64, -2395.55, -70650.04, -70251.98, -38040.61, -80662.05, 0.000, 0.000, 0.000, 15:27:48.649
253, -40115.34, 56873.57, 39069.04, 101095.88, 152297.31, 109883.50, 10813.59, -11040.62, 8186.24, -69886.28, -34413.64, -2395.55, -70650.04, -70251.98, -38040.61, -80662.05, 0.000, 0.000, 0.000, 15:27:48.649
254, -40115.34, 56873.57, 39069.04, 101095.88, 152297.31, 109883.50, 10813.59, -11040.62, 8155.61, -69878.99, -34460.84, -2369.66, -70660.32, -70244.00, -37880.26, -80696.14, 0.000, 0.000, 0.000, 15:27:48.649
255, -40404.71, 56897.82, 39088.64, 101130.77, 152331.45, 109907.52, 10591.20, -11234.23, 8155.61, -69878.99, -34460.84, -2369.66, -70660.32, -70244.00, -37880.26, -80696.14, 0.510, 0.800, -0.248, 15:27:48.649
0, -40404.71, 56897.82, 39088.64, 101130.77, 152331.45, 109907.52, 10591.20, -11234.23, 7916.61, -69871.64, -34427.88, -2356.54, -70658.69, -70233.02, -38162.79, -80677.26, 0.000, 0.000, 0.000, 15:27:48.649
1, -40067.51, 56887.78, 39084.17, 101107.13, 152301.92, 109885.09, 10558.36, -11168.23, 7916.61, -69871.64, -34427.88, -2356.54, -70658.69, -70233.02, -38162.79, -80677.26, 0.000, 0.000, 0.000, 15:27:48.649
2, -40067.51, 56887.78, 39084.17, 101107.13, 152301.92, 109885.09, 10558.36, -11168.23, 8329.71, -69882.10, -34392.70, -2353.01, -70634.57, -70243.69, -37871.90, -80673.32, 0.000, 0.000, 0.000, 15:27:48.649
3, -40280.97, 56900.32, 39092.26, 101126.75, 152303.34, 109879.43, 10841.56, -11083.60, 8329.71, -69882.10, -34392.70, -2353.01, -70634.57, -70243.69, -37871.90, -80673.32, 0.000, 0.000, 0.000, 15:27:48.650
4, -40280.97, 56900.32, 39092.26, 101126.75, 152303.34, 109879.43, 10841.56, -11083.60, 7882.95, -69856.38, -34460.22, -2319.08, -70662.04, -70224.71, -38091.95, -80706.96, 0.000, 0.000, 0.000, 15:27:48.650
5, -40188.17, 56907.07, 39095.59, 101136.09, 152301.42, 109906.14, 10419.53, -11286.96, 7882.95, -69856.38, -34460.22, -2319.08, -70662.04, -70224.71, -38091.95, -80706.96, 0.000, 0.000, 0.000, 15:27:48.650
6, -40188.17, 56907.07, 39095.59, 101136.09, 152301.42, 109906.14, 10419.53, -11286.96, 8231.70, -69863.82, -34378.48, -2332.11, -70627.20, -70231.15, -38031.92, -80666.23, 0.000, 0.000, 0.000, 15:27:48.650
7, -40063.11, 56906.46, 39091.95, 101125.84, 152286.86, 109895.34, 10783.67, -11065.19, 8231.70, -69863.82, -34378.48, -2332.11, -70627.20, -70231.15, -38031.92, -80666.23, 0.000, 0.000, 0.000, 15:27:48.650
8, -40063.11, 56906.46, 39091.95, 101125.84, 152286.86, 109895.34, 10783.67, -11065.19, 8224.82, -69868.89, -34439.68, -2320.92, -70665.41, -70238.81, -37888.11, -80712.98, 0.000, 0.000, 0.000, 15:27:48.650
9, -40348.47, 56900.66, 39070.94, 101124.38, 152274.05, 109871.74, 10577.36, -11242.52, 8224.82, -69868.89, -34439.68, -2320.92, -70665.41, -70238.81, -37888.11, -80712.98, 0.512, 0.800, -0.242, 15:27:48.651
10, -40348.47, 56900.66, 39070.94, 101124.38, 152274.05, 109871.74, 10577.36, -11242.52, 7980.56, -69873.48, -34429.82, -2329.19, -70673.64, -70264.49, -38183.84, -80716.91, 0.000, 0.000, 0.000, 15:27:48.651
11, -40013.73, 56878.35, 39055.58, 101098.75, 152276.80, 109861.15, 10550.92, -11167.60, 7980.56, -69873.48, -34429.82, -2329.19, -70673.64, -70264.49, -38183.84, -80716.91, 0.000, 0.000, 0.000, 15:27:48.651
12, -40013.73, 56878.35, 39055.58, 101098.75, 152276.80, 109861.15, 10550.92, -11167.60, 8414.87, -69889.50, -34410.18, -2341.03, -70659.74, -70249.98, -37861.77, -80704.01, 0.000, 0.000, 0.000, 15:27:48.651
13, -40246.08, 56896.74, 39062.20, 101125.95, 152289.25, 109889.55, 10858.61, -11059.22, 8414.87, -69889.50, -34410.18, -2341.03, -70659.74, -70249.98, -37861.77, -80704.01, 0.000, 0.000, 0.000, 15:27:48.651
14, -40246.08, 56896.74, 39062.20, 101125.95, 152289.25, 109889.55, 10858.61, -11059.22, 7955.37, -69849.00, -34481.86, -2302.94, -70691.88, -70198.71, -38108.18, -80717.84, 0.000, 0.000, 0.000, 15:27:48.651
15, -40183.16, 56889.12, 39059.71, 101128.34, 152295.69, 109904.30, 10418.64, -11280.05, 7955.37, -69849.00, -34481.86, -2302.94, -70691.88, -70198.71, -38108.18, -80717.84, 0.000, 0.000, 0.000, 15:27:48.652
16, -40183.16, 56889.12, 39059.71, 101128.34, 152295.69, 109904.30, 10418.64, -11280.05, 8313.08, -69861.83, -34402.75, -2322.70, -70638.98, -70230.72, -38049.98, -80661.59, 0.000, 0.000, 0.000, 15:27:48.652
17, -40038.57, 56881.10, 39058.58, 101114.21, 152287.73, 109897.04, 10818.87, -11019.72, 8313.08, -69861.83, -34402.75, -2322.70, -70638.98, -70230.72, -38049.98, -80661.59, 0.000, 0.000, 0.000, 15:27:48.652
18, -40038.57, 56881.10, 39058.58, 101114.21, 152287.73, 109897.04, 10818.87, -11019.72, 8314.92, -69860.84, -34467.24, -2312.47, -70669.82, -70215.50, -37885.78, -80695.67, 0.000, 0.000, 0.000, 15:27:48.652
19, -40341.34, 56897.46, 39065.73, 101139.47, 152303.34, 109902.45, 10612.47, -11200.57, 8314.92, -69860.84, -34467.24, -2312.47, -70669.82, -70215.50, -37885.78, -80695.67, 0.510, 0.800, -0.244, 15:27:48.652
20, -40341.34, 56897.46, 39065.73, 101139.47, 152303.34, 109902.45, 10612.47, -11200.57, 8072.69, -69854.18, -34434.14, -2306.10, -70646.95, -70208.50, -38185.52, -80672.30, 0.000, 0.000, 0.000, 15:27:49.112
21, -40001.46, 56883.36, 39066.47, 101114.73, 152284.28, 109910.63, 10589.25, -11124.17, 8072.69, -69854.18, -34434.14, -2306.10, -70646.95, -70208.50, -38185.52, -80672.30, 0.000, 0.000, 0.000, 15:27:49.112
22, -40001.46, 56883.36, 39066.47, 101114.73, 152284.28, 109910.63, 10589.25, -11124.17, 8502.04, -69873.80, -34398.51, -2310.19, -70640.20, -70235.03, -37877.22, -80665.41, 0.000, 0.000, 0.000, 15:27:49.112
23, -40241.92, 56915.95, 39094.00, 101140.84, 152321.64, 109918.81, 10865.61, -11051.44, 8502.04, -69873.80, -34398.51, -2310.19, -70640.20, -70235.03, -37877.22, -80665.41, 0.000, 0.000, 0.000, 15:27:49.113
24, -40241.92, 56915.95, 39094.00, 101140.84, 152321.64, 109918.81, 10865.61, -11051.44, 8055.12, -69851.73, -34452.80, -2273.22, -70652.45, -70216.86, -38107.84, -80689.37, 0.000, 0.000, 0.000, 15:27:49.113
25, -40174.22, 56912.79, 39090.76, 101126.64, 152308.63, 109905.18, 10438.64, -11268.77, 8055.12, -69851.73, -34452.80, -2273.22, -70652.45, -70216.86, -38107.84, -80689.37, 0.000, 0.000, 0.000, 15:27:49.113
26, -40174.22, 56912.79, 39090.76, 101126.64, 152308.63, 109905.18, 10438.64, -11268.77, 8402.85, -69868.16, -34373.81, -2293.74, -70623.04, -70208.19, -38041.57, -80662.01, 0.000, 0.000, 0.000, 15:27:49.113
27, -40048.07, 56918.85, 39097.38, 101117.21, 152300.48, 109883.83, 10815.67, -11035.70, 8402.85, -69868.16, -34373.81, -2293.74, -70623.04, -70208.19, -38041.57, -80662.01, 0.000, 0.000, 0.000, 15:27:49.114
28, -40048.07, 56918.85, 39097.38, 101117.21, 152300.48, 109883.83, 10815.67, -11035.70, 8394.38, -69865.43, -34428.14, -2276.79, -70652.54, -70215.32, -37886.96, -80702.06, 0.000, 0.000, 0.000, 15:27:49.114
29, -40358.73, 56927.39, 39093.82, 101130.45, 152312.09, 109903.70, 10601.45, -11230.81, 8394.38, -69865.43, -34428.14, -2276.79, -70652.54, -70215.32, -37886.96, -80702.06, 0.510, 0.792, -0.246, 15:27:49.114
30, -40358.73, 56927.39, 39093.82, 101130.45, 152312.09, 109903.70, 10601.45, -11230.81, 8150.90, -69862.81, -34406.02, -2278.31, -70644.30, -70236.15, -38173.94, -80690.13, 0.000, 0.000, 0.000, 15:27:49.114
31, -40042.07, 56915.34, 39084.15, 101104.34, 152287.19, 109884.95, 10574.90, -11151.62, 8150.90, -69862.81, -34406.02, -2278.31, -70644.30, -70236.15, -38173.94, -80690.13, 0.000, 0.000, 0.000, 15:27:49.114
32, -40042.07, 56915.34, 39084.15, 101104.34, 152287.19, 109884.95, 10574.90, -11151.62, 8589.75, -69876.16, -34376.60, -2285.96, -70634.57, -70240.76, -37865.46, -80687.18, 0.000, 0.000, 0.000, 15:27:49.115
33, -40281.08, 56930.85, 39099.39, 101125.59, 152326.23, 109881.84, 10876.58, -11053.63, 8589.75, -69876.16, -34376.60, -2285.96, -70634.57, -70240.76, -37865.46, -80687.18, 0.000, 0.000, 0.000, 15:27:49.115
34, -40281.08, 56930.85, 39099.39, 101125.59, 152326.23, 109881.84, 10876.58, -11053.63, 8159.66, -69848.93, -34437.62, -2247.02, -70635.98, -70200.30, -38075.73, -80704.73, 0.000, 0.000, 0.000, 15:27:49.115
35, -40224.36, 56918.54, 39093.63, 101132.59, 152320.42, 109929.27, 10461.96, -11252.45, 8159.66, -69848.93, -34437.62, -2247.02, -70635.98, -70200.30, -38075.73, -80704.73, 0.000, 0.000, 0.000, 15:27:49.115
36, -40224.36, 56918.54, 39093.63, 101132.59, 152320.42, 109929.27, 10461.96, -11252.45, 8500.90, -69865.27, -34369.07, -2264.30, -70620.36, -70206.36, -38009.92, -80664.20, 0.000, 0.000, 0.000, 15:27:49.115
37, -40098.69, 56916.55, 39094.29, 101130.71, 152320.89, 109920.31, 10847.35, -11000.88, 8500.90, -69865.27, -34369.07, -2264.30, -70620.36, -70206.36, -38009.92, -80664.20, 0.000, 0.000, 0.000, 15:27:49.115
38, -40098.69, 56916.55, 39094.29, 101130.71, 152320.89, 109920.31, 10847.35, -11000.88, 8500.26, -69857.36, -34428.23, -2243.80, -70651.63, -70202.80, -37847.34, -80685.59, 0.000, 0.000, 0.000, 15:27:49.116
39, -40397.18, 56934.29, 39091.39, 101161.49, 152333.45, 109930.68, 10653.47, -11174.96, 8500.26, -69857.36, -34428.23, -2243.80, -70651.63, -70202.80, -37847.34, -80685.59, 0.510, 0.794, -0.240, 15:27:49.116
40, -40397.18, 56934.29, 39091.39, 101161.49, 152333.45, 109930.68, 10653.47, -11174.96, 8224.48, -69834.34, -34406.91, -2226.17, -70648.14, -70183.54, -38153.04, -80655.84, 0.000, 0.000, 0.000, 15:27:49.116
41, -40059.18, 56927.43, 39085.62, 101147.25, 152308.25, 109918.74, 10589.47, -11130.05, 8224.48, -69834.34, -34406.91, -2226.17, -70648.14, -70183.54, -38153.04, -80655.84, 0.000, 0.000, 0.000, 15:27:49.116
42, -40059.18, 56927.43, 39085.62, 101147.25, 152308.25, 109918.74, 10589.47, -11130.05, 8637.54, -69852.66, -34382.70, -2242.60, -70641.73, -70200.81, -37862.25, -80654.03, 0.000, 0.000, 0.000, 15:27:49.116
43, -40276.88, 56928.77, 39080.13, 101157.69, 152301.19, 109926.13, 10896.23, -11028.46, 8637.54, -69852.66, -34382.70, -2242.60, -70641.73, -70200.81, -37862.25, -80654.03, 0.000, 0.000, 0.000, 15:27:49.117
44, -40276.88, 56928.77, 39080.13, 101157.69, 152301.19, 109926.13, 10896.23, -11028.46, 8167.77, -69816.41, -34456.20, -2211.73, -70678.12, -70168.38, -38085.07, -80678.87, 0.000, 0.000, 0.000, 15:27:49.117
45, -40233.79, 56914.94, 39069.20, 101152.23, 152278.05, 109942.57, 10456.37, -11250.97, 8167.77, -69816.41, -34456.20, -2211.73, -70678.12, -70168.38, -38085.07, -80678.87, 0.000, 0.000, 0.000, 15:27:49.117
46, -40233.79, 56914.94, 39069.20, 101152.23, 152278.05, 109942.57, 10456.37, -11250.97, 8471.76, -69845.76, -34392.14, -2250.17, -70658.82, -70211.14, -38047.07, -80646.08, 0.000, 0.000, 0.000, 15:27:49.117
47, -40088.50, 56908.12, 39067.16, 101119.40, 152296.31, 109899.39, 10828.44, -11012.23, 8471.76, -69845.76, -34392.14, -2250.17, -70658.82, -70211.14, -38047.07, -80646.08, 0.000, 0.000, 0.000, 15:27:49.117
48, -40088.50, 56908.12, 39067.16, 101119.40, 152296.31, 109899.39, 10828.44, -11012.23, 8484.68, -69845.51, -34444.53, -2247.40, -70664.14, -70195.85, -37869.66, -80681.05, 0.512, 0.790, -0.242, 15:27:49.118
49, -40346.20, 56932.77, 39082.25, 101155.12, 152298.36, 109944.88, 10664.35, -11160.74, 8484.68, -69845.51, -34444.53, -2247.40, -70664.14, -70195.85, -37869.66, -80681.05, 0.000, 0.000, 0.000, 15:27:49.118
50, -40346.20, 56932.77, 39082.25, 101155.12, 152298.36, 109944.88, 10664.35, -11160.74, 8227.50, -69815.88, -34408.25, -2242.22, -70616.34, -70177.44, -38155.59, -80635.21, 0.000, 0.000, 0.000, 15:27:49.118
51, -39981.28, 56925.27, 39082.58, 101131.70, 152298.55, 109953.23, 10627.11, -11089.64, 8227.50, -69815.88, -34408.25, -2242.22, -70616.34, -70177.44, -38155.59, -80635.21, 0.000, 0.000, 0.000, 15:27:49.118
52, -39981.28, 56925.27, 39082.58, 101131.70, 152298.55, 109953.23, 10627.11, -11089.64, 8654.55, -69848.33, -34386.93, -2289.47, -70612.31, -70225.18, -37853.26, -80634.02, 0.000, 0.000, 0.000, 15:27:49.118
53, -40200.53, 56931.41, 39079.39, 101132.41, 152314.39, 109954.44, 10940.78, -10979.38, 8654.55, -69848.33, -34386.93, -2289.47, -70612.31, -70225.18, -37853.26, -80634.02, 0.000, 0.000, 0.000, 15:27:49.119
54, -40200.53, 56931.41, 39079.39, 101132.41, 152314.39, 109954.44, 10940.78, -10979.38, 8202.31, -69835.25, -34470.81, -2302.27, -70653.23, -70203.48, -38061.36, -80675.98, 0.000, 0.000, 0.000, 15:27:49.119
55, -40156.92, 56917.11, 39065.73, 101110.19, 152292.28, 109944.49, 10529.95, -11172.76, 8202.31, -69835.25, -34470.81, -2302.27, -70653.23, -70203.48, -38061.36, -80675.98, 0.000, 0.000, 0.000, 15:27:49.119
56, -40156.92, 56917.11, 39065.73, 101110.19, 152292.28, 109944.49, 10529.95, -11172.76, 8509.42, -69856.44, -34398.77, -2354.76, -70636.25, -70217.09, -38033.23, -80653.09, 0.000, 0.000, 0.000, 15:27:49.119
57, -40023.41, 56922.74, 39075.18, 101100.98, 152296.88, 109960.81, 10880.23, -10947.17, 8509.42, -69856.44, -34398.77, -2354.76, -70636.25, -70217.09, -38033.23, -80653.09, 0.000, 0.000, 0.000, 15:27:49.120
58, -40023.41, 56922.74, 39075.18, 101100.98, 152296.88, 109960.81, 10880.23, -10947.17, 8522.34, -69856.38, -34454.88, -2378.23, -70650.95, -70217.47, -37889.04, -80691.13, 0.508, 0.796, -0.240, 15:27:49.120
59, -40334.95, 56922.58, 39065.75, 101103.77, 152317.34, 109979.34, 10664.40, -11141.00, 8522.34, -69856.38, -34454.88, -2378.23, -70650.95, -70217.47, -37889.04, -80691.13, 0.000, 0.000, 0.000, 15:27:49.120
60, -40334.95, 56922.58, 39065.75, 101103.77, 152317.34, 109979.34, 10664.40, -11141.00, 8273.61, -69859.39, -34445.67, -2419.15, -70649.91, -70217.16, -38201.03, -80690.80, 0.000, 0.000, 0.000, 15:27:49.120
61, -40000.48, 56904.21, 39052.63, 101061.91, 152290.45, 109957.08, 10610.08, -11079.33, 8273.61, -69859.39, -34445.67, -2419.15, -70649.91, -70217.16, -38201.03, -80690.80, 0.000, 0.000, 0.000, 15:27:49.120
62, -40000.48, 56904.21, 39052.63, 101061.91, 152290.45, 109957.08, 10610.08, -11079.33, 8739.44, -69881.52, -34419.59, -2466.58, -70640.79, -70250.50, -37892.15, -80690.47, 0.000, 0.000, 0.000, 15:27:49.120
63, -40220.75, 56923.72, 39050.31, 101068.66, 152281.11, 109955.67, 10932.15, -10963.84, 8739.44, -69881.52, -34419.59, -2466.58, -70640.79, -70250.50, -37892.15, -80690.47, 0.000, 0.000, 0.000, 15:27:49.121
64, -40220.75, 56923.72, 39050.31, 101068.66, 152281.11, 109955.67, 10932.15, -10963.84, 8314.49, -69862.05, -34490.19, -2461.55, -70676.03, -70238.99, -38106.91, -80724.89, 0.000, 0.000, 0.000, 15:27:49.121
65, -40174.46, 56923.03, 39057.39, 101069.84, 152304.95, 109973.10, 10497.97, -11180.86, 8314.49, -69862.05, -34490.19, -2461.55, -70676.03, -70238.99, -38106.91, -80724.89, 0.000, 0.000, 0.000, 15:27:49.121
66, -40174.46, 56923.03, 39057.39, 101069.84, 152304.95, 109973.10, 10497.97, -11180.86, 8660.72, -69869.30, -34396.76, -2483.55, -70626.44, -70275.80, -38073.29, -80681.32, 0.000, 0.000, 0.000, 15:27:49.121
67, -40010.65, 56933.69, 39069.71, 101068.48, 152296.42, 109951.05, 10865.14, -10942.65, 8660.72, -69869.30, -34396.76, -2483.55, -70626.44, -70275.80, -38073.29, -80681.32, 0.000, 0.000, 0.000, 15:27:49.121
68, -40010.65, 56933.69, 39069.71, 101068.48, 152296.42, 109951.05, 10865.14, -10942.65, 8710.14, -69852.51, -34440.84, -2466.60, -70629.84, -70233.52, -37889.43, -80710.96, 0.512, 0.794, -0.240, 15:27:49.121
69, -40281.93, 56961.74, 39082.45, 101123.27, 152313.00, 110000.10, 10696.76, -11101.42, 8710.14, -69852.51, -34440.84, -2466.60, -70629.84, -70233.52, -37889.43, -80710.96, 0.000, 0.000, 0.000, 15:27:49.122
70, -40281.93, 56961.74, 39082.45, 101123.27, 152313.00, 110000.10, 10696.76, -11101.42, 8456.49, -69822.47, -34409.79, -2451.41, -70631.38, -70202.96, -38187.53, -80678.59, 0.000, 0.000, 0.000, 15:27:49.122
71, -39938.30, 56956.36, 39084.75, 101110.15, 152302.50, 109986.07, 10636.68, -11043.48, 8456.49, -69822.47, -34409.79, -2451.41, -70631.38, -70202.96, -38187.53, -80678.59, 0.000, 0.000, 0.000, 15:27:49.122
72, -39938.30, 56956.36, 39084.75, 101110.15, 152302.50, 109986.07, 10636.68, -11043.48, 8892.82, -69848.13, -34383.75, -2473.00, -70619.38, -70248.42, -37907.68, -80686.22, 0.000, 0.000, 0.000, 15:27:49.122
73, -40178.96, 56958.86, 39080.21, 101110.75, 152306.38, 109971.31, 10917.84, -10969.10, 8892.82, -69848.13, -34383.75, -2473.00, -70619.38, -70248.42, -37907.68, -80686.22, 0.000, 0.000, 0.000, 15:27:49.123
74, -40178.96, 56958.86, 39080.21, 101110.75, 152306.38, 109971.31, 10917.84, -10969.10, 8458.64, -69828.99, -34462.79, -2455.25, -70656.66, -70218.16, -38116.59, -80724.82, 0.000, 0.000, 0.000, 15:27:49.123
75, -40134.21, 56952.89, 39074.34, 101113.97, 152291.34, 109998.34, 10487.37, -11182.38, 8458.64, -69828.99, -34462.79, -2455.25, -70656.66, -70218.16, -38116.59, -80724.82, 0.000, 0.000, 0.000, 15:27:49.123
76, -40134.21, 56952.89, 39074.34, 101113.97, 152291.34, 109998.34, 10487.37, -11182.38, 8790.45, -69851.32, -34390.21, -2482.16, -70624.27, -70236.31, -38076.66, -80696.08, 0.000, 0.000, 0.000, 15:27:49.124
77, -39996.59, 56946.45, 39076.48, 101103.73, 152291.14, 109982.91, 10848.40, -10949.20, 8790.45, -69851.32, -34390.21, -2482.16, -70624.27, -70236.31, -38076.66, -80696.08, 0.000, 0.000, 0.000, 15:27:49.124
78, -39996.59, 56946.45, 39076.48, 101103.73, 152291.14, 109982.91, 10848.40, -10949.20, 8830.55, -69853.91, -34447.59, -2471.99, -70638.87, -70243.04, -37899.66, -80729.07, 0.510, 0.802, -0.242, 15:27:49.124
79, -40288.68, 56951.59, 39066.94, 101125.79, 152301.72, 109990.23, 10682.79, -11103.32, 8830.55, -69853.91, -34447.59, -2471.99, -70638.87, -70243.04, -37899.66, -80729.07, 0.000, 0.000, 0.000, 15:27:49.124
80, -40288.68, 56951.59, 39066.94, 101125.79, 152301.72, 109990.23, 10682.79, -11103.32, 8554.62, -69842.65, -34430.02, -2464.97, -70644.79, -70237.54, -38205.07, -80723.45, 0.000, 0.000, 0.000, 15:27:49.124
81, -39973.14, 56938.59, 39053.84, 101094.27, 152280.17, 109976.16, 10594.19, -11072.65, 8554.62, -69842.65, -34430.02, -2464.97, -70644.79, -70237.54, -38205.07, -80723.45, 0.000, 0.000, 0.000, 15:27:49.125
82, -39973.14, 56938.59, 39053.84, 101094.27, 152280.17, 109976.16, 10594.19, -11072.65, 8998.52, -69873.79, -34412.27, -2494.30, -70657.86, -70264.49, -37922.19, -80733.02, 0.000, 0.000, 0.000, 15:27:49.125
83, -40186.80, 56929.96, 39037.32, 101081.73, 152262.53, 109959.05, 10920.70, -10954.43, 8998.52, -69873.79, -34412.27, -2494.30, -70657.86, -70264.49, -37922.19, -80733.02, 0.000, 0.000, 0.000, 15:27:49.125
84, -40186.80, 56929.96, 39037.32, 101081.73, 152262.53, 109959.05, 10920.70, -10954.43, 8578.22, -69857.76, -34494.89, -2475.77, -70706.88, -70249.52, -38114.93, -80780.68, 0.000, 0.000, 0.000, 15:27:49.126
85, -40170.53, 56925.18, 39039.46, 101075.16, 152269.69, 109966.80, 10491.62, -11166.98, 8578.22, -69857.76, -34494.89, -2475.77, -70706.88, -70249.52, -38114.93, -80780.68, 0.000, 0.000, 0.000, 15:27:49.126
86, -40170.53, 56925.18, 39039.46, 101075.16, 152269.69, 109966.80, 10491.62, -11166.98, 8914.48, -69888.29, -34421.42, -2507.55, -70658.63, -70298.11, -38093.03, -80751.22, 0.000, 0.000, 0.000, 15:27:49.126
87, -40029.22, 56906.18, 39038.10, 101050.06, 152273.58, 109936.63, 10861.61, -10923.83, 8914.48, -69888.29, -34421.42, -2507.55, -70658.63, -70298.11, -38093.03, -80751.22, 0.000, 0.000, 0.000, 15:27:49.126
88, -40029.22, 56906.18, 39038.10, 101050.06, 152273.58, 109936.63, 10861.61, -10923.83, 8975.25, -69885.52, -34468.78, -2485.98, -70661.64, -70288.68, -37917.83, -80784.01, 0.510, 0.806, -0.242, 15:27:49.127
89, -40328.07, 56933.94, 39062.31, 101096.38, 152317.41, 109966.91, 10692.07, -11085.91, 8975.25, -69885.52, -34468.78, -2485.98, -70661.64, -70288.68, -37917.83, -80784.01, 0.000, 0.000, 0.000, 15:27:49.127
90, -40328.07, 56933.94, 39062.31, 101096.38, 152317.41, 109966.91, 10692.07, -11085.91, 8719.77, -69855.84, -34438.00, -2462.45, -70651.96, -70261.68, -38217.30, -80747.98, 0.000, 0.000, 0.000, 15:27:49.127
91, -39993.91, 56934.83, 39070.36, 101093.47, 152281.84, 109969.41, 10615.92, -11044.22, 8719.77, -69855.84, -34438.00, -2462.45, -70651.96, -70261.68, -38217.30, -80747.98, 0.000, 0.000, 0.000, 15:27:49.127
92, -39993.91, 56934.83, 39070.36, 101093.47, 152281.84, 109969.41, 10615.92, -11044.22, 9202.08, -69862.37, -34398.84, -2463.52, -70646.55, -70263.35, -37920.92, -80728.48, 0.000, 0.000, 0.000, 15:27:49.127
93, -40194.34, 56944.38, 39078.38, 101112.85, 152290.61, 109966.45, 10941.58, -10928.73, 9202.08, -69862.37, -34398.84, -2463.52, -70646.55, -70263.35, -37920.92, -80728.48, 0.000, 0.000, 0.000, 15:27:49.127
94, -40194.34, 56944.38, 39078.38, 101112.85, 152290.61, 109966.45, 10941.58, -10928.73, 8822.41, -69830.06, -34459.68, -2423.47, -70650.11, -70235.62, -38101.95, -80744.20, 0.000, 0.000, 0.000, 15:27:49.128
95, -40162.08, 56951.15, 39101.74, 101136.50, 152315.64, 110006.37, 10507.62, -11148.13, 8822.41, -69830.06, -34459.68, -2423.47, -70650.11, -70235.62, -38101.95, -80744.20, 0.000, 0.000, 0.000, 15:27:49.128
96, -40162.08, 56951.15, 39101.74, 101136.50, 152315.64, 110006.37, 10507.62, -11148.13, 9148.97, -69840.37, -34379.11, -2439.63, -70624.09, -70240.55, -38061.53, -80694.94, 0.000, 0.000, 0.000, 15:27:49.128
97, -39992.93, 56933.71, 39092.89, 101122.24, 152295.58, 109985.33, 10892.56, -10887.09, 9148.97, -69840.37, -34379.11, -2439.63, -70624.09, -70240.55, -38061.53, -80694.94, 0.508, 0.802, -0.238, 15:27:49.128
98, -39992.93, 56933.71, 39092.89, 101122.24, 152295.58, 109985.33, 10892.56, -10887.09, 9174.59, -69842.23, -34435.21, -2426.73, -70650.84, -70242.68, -37867.65, -80738.27, 0.000, 0.000, 0.000, 15:27:49.129
99, -40315.68, 56960.63, 39109.27, 101164.26, 152317.45, 110014.09, 10697.79, -11074.13, 9174.59, -69842.23, -34435.21, -2426.73, -70650.84, -70242.68, -37867.65, -80738.27, 0.000, 0.000, 0.000, 15:27:49.129
100, -40315.68, 56960.63, 39109.27, 101164.26, 152317.45, 110014.09, 10697.79, -11074.13, 8895.08, -69822.35, -34413.84, -2413.68, -70653.75, -70222.56, -38190.14, -80716.37, 0.000, 0.000, 0.000, 15:27:49.129
101, -39969.66, 56935.43, 39084.10, 101129.52, 152271.67, 109988.15, 10631.18, -11016.48, 8895.08, -69822.35, -34413.84, -2413.68, -70653.75, -70222.56, -38190.14, -80716.37, 0.000, 0.000, 0.000, 15:27:49.129
102, -39969.66, 56935.43, 39084.10, 101129.52, 152271.67, 109988.15, 10631.18, -11016.48, 9376.06, -69851.39, -34392.00, -2436.70, -70634.55, -70241.52, -37874.11, -80728.42, 0.000, 0.000, 0.000, 15:27:49.129
103, -40189.08, 56940.22, 39078.49, 101138.82, 152297.16, 109991.70, 10974.33, -10884.43, 9376.06, -69851.39, -34392.00, -2436.70, -70634.55, -70241.52, -37874.11, -80728.42, 0.000, 0.000, 0.000, 15:27:49.129
104, -40189.08, 56940.22, 39078.49, 101138.82, 152297.16, 109991.70, 10974.33, -10884.43, 8944.70, -69832.19, -34473.92, -2407.33, -70677.22, -70221.34, -38086.16, -80763.04, 0.000, 0.000, 0.000, 15:27:49.130
105, -40177.89, 56945.45, 39073.39, 101142.22, 152297.00, 110016.00, 10524.27, -11119.77, 8944.70, -69832.19, -34473.92, -2407.33, -70677.22, -70221.34, -38086.16, -80763.04, 0.000, 0.000, 0.000, 15:27:49.130
106, -40177.89, 56945.45, 39073.39, 101142.22, 152297.00, 110016.00, 10524.27, -11119.77, 9246.87, -69851.81, -34399.00, -2430.17, -70647.34, -70263.49, -38083.06, -80730.66, 0.000, 0.000, 0.000, 15:27:49.130
107, -40023.95, 56929.51, 39048.99, 101107.27, 152287.80, 109985.63, 10883.09, -10885.08, 9246.87, -69851.81, -34399.00, -2430.17, -70647.34, -70263.49, -38083.06, -80730.66, 0.512, 0.802, -0.232, 15:27:49.130
108, -40023.95, 56929.51, 39048.99, 101107.27, 152287.80, 109985.63, 10883.09, -10885.08, 9293.34, -69858.05, -34460.80, -2428.79, -70656.95, -70251.71, -37901.89, -80770.13, 0.000, 0.000, 0.000, 15:27:49.130
109, -40338.35, 56938.30, 39048.12, 101127.40, 152319.94, 110013.72, 10711.40, -11057.41, 9293.34, -69858.05, -34460.80, -2428.79, -70656.95, -70251.71, -37901.89, -80770.13, 0.000, 0.000, 0.000, 15:27:49.130
110, -40338.35, 56938.30, 39048.12, 101127.40, 152319.94, 110013.72, 10711.40, -11057.41, 9011.60, -69862.14, -34462.59, -2444.36, -70669.80, -70278.11, -38214.22, -80756.80, 0.000, 0.000, 0.000, 15:27:49.131
111, -40020.28, 56899.80, 39026.05, 101089.34, 152294.34, 109991.73, 10630.49, -11016.59, 9011.60, -69862.14, -34462.59, -2444.36, -70669.80, -70278.11, -38214.22, -80756.80, 0.000, 0.000, 0.000, 15:27:49.131
112, -40020.28, 56899.80, 39026.05, 101089.34, 152294.34, 109991.73, 10630.49, -11016.59, 9470.79, -69896.59, -34440.06, -2474.74, -70667.81, -70265.91, -37925.81, -80759.95, 0.000, 0.000, 0.000, 15:27:49.131
