%OpenBCI Raw EEG Data
%
%Sample Rate = 250.0 Hz
%First Column = SampleIndex
%Last Column = Timestamp 
%Other Columns = EEG data in microvolts followed by Accel Data (in G) interleaved with Aux Data
0.000, 0.000, 17:00:24.065
165, -38129.68, 97352.66, 89816.97, 125206.84, 143911.92, 129642.08, 122775.22, 148753.72, -18932.78, -67406.82, -73825.40, 6360.59, -71119.72, -82379.99, -60830.43, -78453.57, 0.000, 0.000, 0.000, 17:00:24.065
166, -38129.68, 97352.66, 89816.97, 125206.84, 143911.92, 129642.08, 122775.22, 148753.72, -18931.23, -67417.98, -73828.88, 6354.98, -71116.05, -82389.04, -60816.46, -78423.64, 0.000, 0.000, 0.000, 17:00:24.065
167, -38251.14, 97332.34, 89798.16, 125180.09, 143914.14, 129615.37, 122767.02, 148745.98, -18931.23, -67417.98, -73828.88, 6354.98, -71116.05, -82389.04, -60816.46, -78423.64, 0.000, 0.000, 0.000, 17:00:24.065
168, -38251.14, 97332.34, 89798.16, 125180.09, 143914.14, 129615.37, 122767.02, 148745.98, -18940.11, -67434.52, -73845.35, 6334.13, -71124.59, -82396.02, -60820.12, -78445.52, 0.000, 0.000, 0.000, 17:00:24.065
169, -38307.51, 97333.53, 89797.21, 125182.37, 143943.28, 129614.19, 122782.95, 148774.91, -18940.11, -67434.52, -73845.35, 6334.13, -71124.59, -82396.02, -60820.12, -78445.52, -0.176, 0.936, -0.142, 17:00:24.066
170, -38307.51, 97333.53, 89797.21, 125182.37, 143943.28, 129614.19, 122782.95, 148774.91, -18922.40, -67425.82, -73840.95, 6340.41, -71114.98, -82383.12, -60797.26, -78404.33, 0.000, 0.000, 0.000, 17:00:24.066
171, -38199.29, 97335.59, 89793.59, 125184.16, 143949.30, 129652.16, 122790.65, 148814.59, -18922.40, -67425.82, -73840.95, 6340.41, -71114.98, -82383.12, -60797.26, -78404.33, 0.000, 0.000, 0.000, 17:00:24.066
172, -38199.29, 97335.59, 89793.59, 125184.16, 143949.30, 129652.16, 122790.65, 148814.59, -18914.13, -67424.13, -73844.93, 6338.57, -71116.19, -82384.26, -60802.91, -78401.36, 0.000, 0.000, 0.000, 17:00:24.066
173, -38228.59, 97342.60, 89796.68, 125189.34, 143951.05, 129619.39, 122801.93, 148776.78, -18914.13, -67424.13, -73844.93, 6338.57, -71116.19, -82384.26, -60802.91, -78401.36, 0.000, 0.000, 0.000, 17:00:24.066
174, -38228.59, 97342.60, 89796.68, 125189.34, 143951.05, 129619.39, 122801.93, 148776.78, -18912.68, -67421.13, -73846.96, 6341.90, -71119.59, -82379.68, -60804.97, -78409.96, 0.000, 0.000, 0.000, 17:00:24.067
175, -38233.95, 97315.89, 89770.44, 125165.34, 143922.31, 129640.47, 122794.80, 148791.84, -18912.68, -67421.13, -73846.96, 6341.90, -71119.59, -82379.68, -60804.97, -78409.96, 0.000, 0.000, 0.000, 17:00:24.067
176, -38233.95, 97315.89, 89770.44, 125165.34, 143922.31, 129640.47, 122794.80, 148791.84, -18936.11, -67455.55, -73883.29, 6309.54, -71141.29, -82408.42, -60824.50, -78374.06, 0.000, 0.000, 0.000, 17:00:24.067
177, -38256.77, 97308.65, 89762.26, 125155.23, 143921.36, 129609.45, 122794.63, 148777.19, -18936.11, -67455.55, -73883.29, 6309.54, -71141.29, -82408.42, -60824.50, -78374.06, 0.000, 0.000, 0.000, 17:00:24.067
178, -38256.77, 97308.65, 89762.26, 125155.23, 143921.36, 129609.45, 122794.63, 148777.19, -18921.85, -67451.46, -73875.98, 6315.10, -71144.33, -82412.60, -60826.02, -78396.38, 0.000, 0.000, 0.000, 17:00:24.070
179, -38276.31, 97290.66, 89753.70, 125147.70, 143909.78, 129607.91, 122794.69, 148764.38, -18921.85, -67451.46, -73875.98, 6315.10, -71144.33, -82412.60, -60826.02, -78396.38, -0.170, 0.934, -0.150, 17:00:24.070
180, -38276.31, 97290.66, 89753.70, 125147.70, 143909.78, 129607.91, 122794.69, 148764.38, -18917.87, -67459.55, -73876.73, 6314.03, -71140.13, -82412.65, -60828.17, -78373.59, 0.000, 0.000, 0.000, 17:00:24.070
181, -38237.62, 97297.14, 89765.16, 125159.98, 143911.64, 129636.49, 122801.98, 148779.39, -18917.87, -67459.55, -73876.73, 6314.03, -71140.13, -82412.65, -60828.17, -78373.59, 0.000, 0.000, 0.000, 17:00:24.070
182, -38237.62, 97297.14, 89765.16, 125159.98, 143911.64, 129636.49, 122801.98, 148779.39, -18898.94, -67435.55, -73856.30, 6335.78, -71125.75, -82380.93, -60823.50, -78378.53, 0.000, 0.000, 0.000, 17:00:24.071
183, -38288.89, 97303.13, 89769.52, 125164.11, 143899.44, 129586.85, 122779.31, 148712.66, -18898.94, -67435.55, -73856.30, 6335.78, -71125.75, -82380.93, -60823.50, -78378.53, 0.000, 0.000, 0.000, 17:00:24.071
184, -38288.89, 97303.13, 89769.52, 125164.11, 143899.44, 129586.85, 122779.31, 148712.66, -18898.02, -67441.00, -73859.91, 6333.05, -71132.21, -82399.57, -60840.75, -78408.51, 0.000, 0.000, 0.000, 17:00:24.071
185, -38273.18, 97312.20, 89779.94, 125179.60, 143899.86, 129616.30, 122777.39, 148694.50, -18898.02, -67441.00, -73859.91, 6333.05, -71132.21, -82399.57, -60840.75, -78408.51, 0.000, 0.000, 0.000, 17:00:24.071
186, -38273.18, 97312.20, 89779.94, 125179.60, 143899.86, 129616.30, 122777.39, 148694.50, -18867.93, -67422.60, -73836.39, 6361.33, -71109.48, -82373.62, -60815.70, -78374.65, 0.000, 0.000, 0.000, 17:00:24.071
187, -38200.52, 97321.52, 89799.59, 125202.69, 143911.23, 129615.33, 122784.77, 148677.58, -18867.93, -67422.60, -73836.39, 6361.33, -71109.48, -82373.62, -60815.70, -78374.65, 0.000, 0.000, 0.000, 17:00:24.072
188, -38200.52, 97321.52, 89799.59, 125202.69, 143911.23, 129615.33, 122784.77, 148677.58, -18863.82, -67432.80, -73839.55, 6355.29, -71109.84, -82379.34, -60819.16, -78402.12, 0.000, 0.000, 0.000, 17:00:24.072
189, -38169.00, 97290.75, 89780.36, 125180.29, 143895.83, 129597.69, 122764.59, 148630.56, -18863.82, -67432.80, -73839.55, 6355.29, -71109.84, -82379.34, -60819.16, -78402.12, -0.164, 0.936, -0.156, 17:00:24.072
190, -38169.00, 97290.75, 89780.36, 125180.29, 143895.83, 129597.69, 122764.59, 148630.56, -18861.12, -67444.24, -73843.37, 6344.97, -71111.16, -82379.63, -60822.58, -78400.91, 0.000, 0.000, 0.000, 17:00:24.072
191, -38157.96, 97301.41, 89795.65, 125193.14, 143919.66, 129634.39, 122782.29, 148635.14, -18861.12, -67444.24, -73843.37, 6344.97, -71111.16, -82379.63, -60822.58, -78400.91, 0.000, 0.000, 0.000, 17:00:24.072
192, -38157.96, 97301.41, 89795.65, 125193.14, 143919.66, 129634.39, 122782.29, 148635.14, -18854.10, -67441.65, -73833.95, 6348.10, -71102.41, -82385.82, -60817.42, -78417.56, 0.000, 0.000, 0.000, 17:00:24.072
193, -38210.02, 97305.63, 89786.10, 125185.81, 143916.11, 129600.66, 122778.95, 148593.81, -18854.10, -67441.65, -73833.95, 6348.10, -71102.41, -82385.82, -60817.42, -78417.56, 0.000, 0.000, 0.000, 17:00:24.073
194, -38210.02, 97305.63, 89786.10, 125185.81, 143916.11, 129600.66, 122778.95, 148593.81, -18855.48, -67434.05, -73829.71, 6356.63, -71102.06, -82374.42, -60821.91, -78414.19, 0.000, 0.000, 0.000, 17:00:24.073
195, -38181.52, 97322.84, 89793.10, 125207.74, 143925.11, 129666.47, 122800.32, 148624.34, -18855.48, -67434.05, -73829.71, 6356.63, -71102.06, -82374.42, -60821.91, -78414.19, 0.000, 0.000, 0.000, 17:00:24.073
196, -38181.52, 97322.84, 89793.10, 125207.74, 143925.11, 129666.47, 122800.32, 148624.34, -18848.38, -67428.04, -73826.16, 6357.06, -71104.02, -82360.70, -60816.50, -78369.21, 0.000, 0.000, 0.000, 17:00:24.073
197, -38243.90, 97292.83, 89775.47, 125188.09, 143915.91, 129631.02, 122794.96, 148607.06, -18848.38, -67428.04, -73826.16, 6357.06, -71104.02, -82360.70, -60816.50, -78369.21, 0.000, 0.000, 0.000, 17:00:24.074
198, -38243.90, 97292.83, 89775.47, 125188.09, 143915.91, 129631.02, 122794.96, 148607.06, -18870.30, -67450.70, -73846.67, 6329.12, -71114.24, -82398.02, -60840.71, -78417.96, 0.000, 0.000, 0.000, 17:00:24.074
199, -38254.07, 97275.62, 89762.03, 125174.10, 143914.45, 129621.90, 122791.16, 148580.63, -18870.30, -67450.70, -73846.67, 6329.12, -71114.24, -82398.02, -60840.71, -78417.96, -0.166, 0.934, -0.158, 17:00:24.074
200, -38254.07, 97275.62, 89762.03, 125174.10, 143914.45, 129621.90, 122791.16, 148580.63, -18880.70, -67455.75, -73854.36, 6318.84, -71114.62, -82386.25, -60831.61, -78375.30, 0.000, 0.000, 0.000, 17:00:24.074
201, -38135.52, 97262.07, 89756.09, 125169.98, 143920.73, 129648.80, 122804.86, 148603.11, -18880.70, -67455.75, -73854.36, 6318.84, -71114.62, -82386.25, -60831.61, -78375.30, 0.000, 0.000, 0.000, 17:00:24.074
202, -38135.52, 97262.07, 89756.09, 125169.98, 143920.73, 129648.80, 122804.86, 148603.11, -18886.29, -67466.80, -73862.50, 6304.82, -71118.09, -82392.53, -60835.05, -78359.38, 0.000, 0.000, 0.000, 17:00:24.075
203, -38119.82, 97252.64, 89749.56, 125159.48, 143931.55, 129602.63, 122809.15, 148564.33, -18886.29, -67466.80, -73862.50, 6304.82, -71118.09, -82392.53, -60835.05, -78359.38, 0.000, 0.000, 0.000, 17:00:24.075
204, -38119.82, 97252.64, 89749.56, 125159.48, 143931.55, 129602.63, 122809.15, 148564.33, -18893.39, -67471.73, -73865.83, 6297.72, -71124.92, -82424.94, -60841.38, -78373.39, 0.000, 0.000, 0.000, 17:00:24.075
205, -38123.22, 97232.14, 89734.95, 125143.52, 143918.63, 129621.13, 122800.99, 148574.80, -18893.39, -67471.73, -73865.83, 6297.72, -71124.92, -82424.94, -60841.38, -78373.39, 0.000, 0.000, 0.000, 17:00:24.075
206, -38123.22, 97232.14, 89734.95, 125143.52, 143918.63, 129621.13, 122800.99, 148574.80, -18911.38, -67485.57, -73878.33, 6281.76, -71129.53, -82445.88, -60853.72, -78353.34, 0.000, 0.000, 0.000, 17:00:24.075
207, -38203.00, 97232.14, 89732.23, 125141.49, 143905.83, 129581.20, 122780.88, 148542.98, -18911.38, -67485.57, -73878.33, 6281.76, -71129.53, -82445.88, -60853.72, -78353.34, 0.000, 0.000, 0.000, 17:00:24.076
208, -38203.00, 97232.14, 89732.23, 125141.49, 143905.83, 129581.20, 122780.88, 148542.98, -18898.13, -67462.91, -73855.33, 6302.74, -71115.34, -82389.66, -60851.64, -78379.20, 0.000, 0.000, 0.000, 17:00:24.076
209, -38313.14, 97265.55, 89765.34, 125185.73, 143913.28, 129612.84, 122790.31, 148530.80, -18898.13, -67462.91, -73855.33, 6302.74, -71115.34, -82389.66, -60851.64, -78379.20, -0.162, 0.930, -0.162, 17:00:24.076
210, -38313.14, 97265.55, 89765.34, 125185.73, 143913.28, 129612.84, 122790.31, 148530.80, -18864.76, -67431.66, -73823.70, 6338.37, -71094.64, -82351.49, -60824.84, -78326.95, 0.000, 0.000, 0.000, 17:00:24.076
211, -38358.57, 97282.45, 89784.59, 125206.24, 143911.70, 129655.65, 122793.17, 148544.61, -18864.76, -67431.66, -73823.70, 6338.37, -71094.64, -82351.49, -60824.84, -78326.95, 0.000, 0.000, 0.000, 17:00:24.076
212, -38358.57, 97282.45, 89784.59, 125206.24, 143911.70, 129655.65, 122793.17, 148544.61, -18853.79, -67425.29, -73814.91, 6347.11, -71097.30, -82373.73, -60824.23, -78320.69, 0.000, 0.000, 0.000, 17:00:24.076
213, -38437.20, 97296.02, 89791.72, 125212.28, 143914.83, 129620.84, 122799.81, 148505.61, -18853.79, -67425.29, -73814.91, 6347.11, -71097.30, -82373.73, -60824.23, -78320.69, 0.000, 0.000, 0.000, 17:00:24.077
214, -38437.20, 97296.02, 89791.72, 125212.28, 143914.83, 129620.84, 122799.81, 148505.61, -18839.21, -67410.38, -73806.42, 6360.21, -71083.53, -82346.41, -60804.79, -78297.84, 0.000, 0.000, 0.000, 17:00:24.077
215, -38410.91, 97279.80, 89778.20, 125205.64, 143906.58, 129676.16, 122799.01, 148557.05, -18839.21, -67410.38, -73806.42, 6360.21, -71083.53, -82346.41, -60804.79, -78297.84, 0.000, 0.000, 0.000, 17:00:24.077
216, -38410.91, 97279.80, 89778.20, 125205.64, 143906.58, 129676.16, 122799.01, 148557.05, -18868.96, -67444.91, -73843.48, 6324.60, -71114.33, -82386.76, -60836.21, -78280.52, 0.000, 0.000, 0.000, 17:00:24.077
217, -38491.20, 97261.22, 89765.66, 125188.20, 143902.42, 129608.95, 122785.02, 148522.06, -18868.96, -67444.91, -73843.48, 6324.60, -71114.33, -82386.76, -60836.21, -78280.52, 0.000, 0.000, 0.000, 17:00:24.077
218, -38491.20, 97261.22, 89765.66, 125188.20, 143902.42, 129608.95, 122785.02, 148522.06, -18876.32, -67435.08, -73827.38, 6334.31, -71092.13, -82382.76, -60827.30, -78303.43, 0.000, 0.000, 0.000, 17:00:24.077
219, -38553.27, 97270.23, 89778.86, 125193.66, 143917.67, 129606.41, 122798.13, 148534.63, -18876.32, -67435.08, -73827.38, 6334.31, -71092.13, -82382.76, -60827.30, -78303.43, -0.172, 0.938, -0.164, 17:00:24.078
220, -38553.27, 97270.23, 89778.86, 125193.66, 143917.67, 129606.41, 122798.13, 148534.63, -18873.46, -67427.97, -73817.80, 6340.77, -71085.43, -82381.53, -60824.57, -78274.84, 0.000, 0.000, 0.000, 17:00:24.078
221, -38592.21, 97289.01, 89790.17, 125209.51, 143928.95, 129645.97, 122808.77, 148556.42, -18873.46, -67427.97, -73817.80, 6340.77, -71085.43, -82381.53, -60824.57, -78274.84, 0.000, 0.000, 0.000, 17:00:24.078
222, -38592.21, 97289.01, 89790.17, 125209.51, 143928.95, 129645.97, 122808.77, 148556.42, -18843.28, -67398.76, -73796.25, 6363.09, -71067.41, -82341.97, -60815.38, -78266.20, 0.000, 0.000, 0.000, 17:00:24.078
223, -38714.61, 97280.27, 89777.19, 125199.88, 143924.52, 129618.97, 122805.58, 148503.08, -18843.28, -67398.76, -73796.25, 6363.09, -71067.41, -82341.97, -60815.38, -78266.20, 0.000, 0.000, 0.000, 17:00:24.078
224, -38714.61, 97280.27, 89777.19, 125199.88, 143924.52, 129618.97, 122805.58, 148503.08, -18881.23, -67441.13, -73840.64, 6319.31, -71106.46, -82385.66, -60844.02, -78300.52, 0.000, 0.000, 0.000, 17:00:24.078
225, -38796.14, 97236.09, 89731.45, 125154.34, 143899.23, 129632.47, 122782.84, 148509.19, -18881.23, -67441.13, -73840.64, 6319.31, -71106.46, -82385.66, -60844.02, -78300.52, 0.000, 0.000, 0.000, 17:00:24.079
226, -38796.14, 97236.09, 89731.45, 125154.34, 143899.23, 129632.47, 122782.84, 148509.19, -18893.73, -67456.76, -73861.25, 6297.54, -71110.77, -82410.81, -60856.27, -78290.40, 0.000, 0.000, 0.000, 17:00:24.079
227, -38881.84, 97238.63, 89736.51, 125157.34, 143919.91, 129609.96, 122797.66, 148498.92, -18893.73, -67456.76, -73861.25, 6297.54, -71110.77, -82410.81, -60856.27, -78290.40, 0.000, 0.000, 0.000, 17:00:24.079
228, -38881.84, 97238.63, 89736.51, 125157.34, 143919.91, 129609.96, 122797.66, 148498.92, -18888.23, -67444.95, -73850.18, 6306.92, -71099.02, -82385.20, -60845.78, -78311.28, -0.174, 0.936, -0.168, 17:00:24.079
229, -38959.52, 97246.20, 89741.58, 125169.70, 143935.22, 129621.83, 122806.70, 148504.20, -18888.23, -67444.95, -73850.18, 6306.92, -71099.02, -82385.20, -60845.78, -78311.28, 0.000, 0.000, 0.000, 17:00:24.080
230, -38959.52, 97246.20, 89741.58, 125169.70, 143935.22, 129621.83, 122806.70, 148504.20, -18864.56, -67435.50, -73839.05, 6316.71, -71092.42, -82382.70, -60824.41, -78266.28, 0.000, 0.000, 0.000, 17:00:24.080
231, -38997.15, 97261.58, 89756.51, 125179.13, 143944.67, 129662.95, 122817.24, 148552.39, -18864.56, -67435.50, -73839.05, 6316.71, -71092.42, -82382.70, -60824.41, -78266.28, 0.000, 0.000, 0.000, 17:00:24.080
232, -38997.15, 97261.58, 89756.51, 125179.13, 143944.67, 129662.95, 122817.24, 148552.39, -18842.79, -67435.13, -73834.31, 6317.94, -71084.78, -82390.29, -60826.58, -78262.28, 0.000, 0.000, 0.000, 17:00:24.080
233, -39139.82, 97259.86, 89757.72, 125179.11, 143929.16, 129603.03, 122794.18, 148489.66, -18842.79, -67435.13, -73834.31, 6317.94, -71084.78, -82390.29, -60826.58, -78262.28, 0.000, 0.000, 0.000, 17:00:24.080
234, -39139.82, 97259.86, 89757.72, 125179.11, 143929.16, 129603.03, 122794.18, 148489.66, -18844.31, -67427.27, -73825.87, 6330.26, -71079.23, -82375.12, -60823.03, -78266.11, 0.000, 0.000, 0.000, 17:00:24.080
235, -39151.65, 97254.85, 89757.23, 125185.81, 143924.36, 129663.70, 122780.70, 148503.17, -18844.31, -67427.27, -73825.87, 6330.26, -71079.23, -82375.12, -60823.03, -78266.11, 0.000, 0.000, 0.000, 17:00:24.081
236, -39151.65, 97254.85, 89757.23, 125185.81, 143924.36, 129663.70, 122780.70, 148503.17, -18843.88, -67438.63, -73833.80, 6323.11, -71089.36, -82382.09, -60837.24, -78218.12, 0.000, 0.000, 0.000, 17:00:24.081
237, -39280.80, 97256.15, 89766.39, 125197.66, 143928.42, 129620.51, 122783.11, 148470.45, -18843.88, -67438.63, -73833.80, 6323.11, -71089.36, -82382.09, -60837.24, -78218.12, 0.000, 0.000, 0.000, 17:00:24.081
238, -39280.80, 97256.15, 89766.39, 125197.66, 143928.42, 129620.51, 122783.11, 148470.45, -18826.40, -67419.99, -73815.54, 6342.22, -71078.34, -82369.06, -60822.54, -78247.73, -0.174, 0.940, -0.166, 17:00:24.081
239, -39338.24, 97265.29, 89772.36, 125206.51, 143933.05, 129620.45, 122799.25, 148499.05, -18826.40, -67419.99, -73815.54, 6342.22, -71078.34, -82369.06, -60822.54, -78247.73, 0.000, 0.000, 0.000, 17:00:24.082
240, -39338.24, 97265.29, 89772.36, 125206.51, 143933.05, 129620.45, 122799.25, 148499.05, -18806.22, -67396.23, -73802.53, 6357.89, -71072.73, -82347.38, -60806.46, -78195.20, 0.000, 0.000, 0.000, 17:00:24.082
241, -39343.02, 97273.54, 89770.77, 125212.79, 143923.84, 129677.09, 122800.13, 148534.25, -18806.22, -67396.23, -73802.53, 6357.89, -71072.73, -82347.38, -60806.46, -78195.20, 0.000, 0.000, 0.000, 17:00:24.082
242, -39343.02, 97273.54, 89770.77, 125212.79, 143923.84, 129677.09, 122800.13, 148534.25, -18847.97, -67419.81, -73828.28, 6333.34, -71106.64, -82375.02, -60832.64, -78189.73, 0.000, 0.000, 0.000, 17:00:24.083
243, -39441.30, 97251.84, 89745.52, 125190.33, 143905.39, 129612.24, 122784.01, 148479.33, -18847.97, -67419.81, -73828.28, 6333.34, -71106.64, -82375.02, -60832.64, -78189.73, 0.000, 0.000, 0.000, 17:00:24.083
244, -39441.30, 97251.84, 89745.52, 125190.33, 143905.39, 129612.24, 122784.01, 148479.33, -18858.17, -67417.59, -73828.95, 6333.32, -71109.52, -82373.77, -60843.52, -78219.50, 0.000, 0.000, 0.000, 17:00:24.083
245, -39429.30, 97247.81, 89746.97, 125192.63, 143906.27, 129655.88, 122791.77, 148506.14, -18858.17, -67417.59, -73828.95, 6333.32, -71109.52, -82373.77, -60843.52, -78219.50, 0.000, 0.000, 0.000, 17:00:24.084
246, -39429.30, 97247.81, 89746.97, 125192.63, 143906.27, 129655.88, 122791.77, 148506.14, -18846.72, -67414.60, -73820.23, 6336.34, -71096.98, -82376.93, -60831.81, -78176.88, 0.000, 0.000, 0.000, 17:00:24.084
247, -39461.18, 97269.13, 89760.58, 125201.99, 143917.30, 129622.43, 122810.27, 148500.17, -18846.72, -67414.60, -73820.23, 6336.34, -71096.98, -82376.93, -60831.81, -78176.88, 0.000, 0.000, 0.000, 17:00:24.084
248, -39461.18, 97269.13, 89760.58, 125201.99, 143917.30, 129622.43, 122810.27, 148500.17, -18842.70, -67409.41, -73813.13, 6343.76, -71092.18, -82373.10, -60827.43, -78187.27, -0.174, 0.940, -0.164, 17:00:24.084
249, -39480.13, 97262.80, 89758.99, 125206.60, 143926.41, 129626.63, 122807.97, 148486.91, -18842.70, -67409.41, -73813.13, 6343.76, -71092.18, -82373.10, -60827.43, -78187.27, 0.000, 0.000, 0.000, 17:00:24.084
250, -39480.13, 97262.80, 89758.99, 125206.60, 143926.41, 129626.63, 122807.97, 148486.91, -18832.78, -67402.84, -73814.89, 6345.21, -71092.70, -82353.59, -60817.22, -78168.16, 0.000, 0.000, 0.000, 17:00:24.084
251, -39468.38, 97248.32, 89748.82, 125194.28, 143936.00, 129664.16, 122815.23, 148515.13, -18832.78, -67402.84, -73814.89, 6345.21, -71092.70, -82353.59, -60817.22, -78168.16, 0.000, 0.000, 0.000, 17:00:24.085
252, -39468.38, 97248.32, 89748.82, 125194.28, 143936.00, 129664.16, 122815.23, 148515.13, -18847.64, -67422.98, -73836.19, 6321.01, -71096.94, -82389.55, -60828.46, -78175.89, 0.000, 0.000, 0.000, 17:00:24.085
253, -39570.52, 97233.77, 89735.79, 125173.25, 143940.45, 129593.47, 122812.77, 148443.63, -18847.64, -67422.98, -73836.19, 6321.01, -71096.94, -82389.55, -60828.46, -78175.89, 0.000, 0.000, 0.000, 17:00:24.085
254, -39570.52, 97233.77, 89735.79, 125173.25, 143940.45, 129593.47, 122812.77, 148443.63, -18851.30, -67428.15, -73834.23, 6321.63, -71098.33, -82388.23, -60825.75, -78204.33, 0.000, 0.000, 0.000, 17:00:24.085
255, -39555.01, 97247.90, 89751.75, 125189.66, 143942.86, 129638.99, 122815.86, 148469.89, -18851.30, -67428.15, -73834.23, 6321.63, -71098.33, -82388.23, -60825.75, -78204.33, 0.000, 0.000, 0.000, 17:00:24.086
0, -39555.01, 97247.90, 89751.75, 125189.66, 143942.86, 129638.99, 122815.86, 148469.89, -18850.79, -67409.84, -73813.68, 6342.84, -71080.52, -82376.46, -60816.75, -78173.52, 0.000, 0.000, 0.000, 17:00:24.086
1, -39606.66, 97259.92, 89766.19, 125204.48, 143936.17, 129624.13, 122807.23, 148432.67, -18850.79, -67409.84, -73813.68, 6342.84, -71080.52, -82376.46, -60816.75, -78173.52, 0.000, 0.000, 0.000, 17:00:24.086
2, -39606.66, 97259.92, 89766.19, 125204.48, 143936.17, 129624.13, 122807.23, 148432.67, -18855.39, -67401.41, -73806.89, 6348.45, -71084.91, -82373.88, -60822.07, -78184.32, -0.168, 0.936, -0.176, 17:00:24.086
3, -39630.42, 97271.70, 89780.49, 125220.39, 143934.09, 129639.38, 122800.79, 148416.61, -18855.39, -67401.41, -73806.89, 6348.45, -71084.91, -82373.88, -60822.07, -78184.32, 0.000, 0.000, 0.000, 17:00:24.086
4, -39630.42, 97271.70, 89780.49, 125220.39, 143934.09, 129639.38, 122800.79, 148416.61, -18829.13, -67360.24, -73774.16, 6382.94, -71059.66, -82332.85, -60802.73, -78134.92, 0.000, 0.000, 0.000, 17:00:24.087
5, -39616.66, 97276.58, 89779.89, 125222.47, 143928.63, 129670.11, 122799.83, 148438.42, -18829.13, -67360.24, -73774.16, 6382.94, -71059.66, -82332.85, -60802.73, -78134.92, 0.000, 0.000, 0.000, 17:00:24.087
6, -39616.66, 97276.58, 89779.89, 125222.47, 143928.63, 129670.11, 122799.83, 148438.42, -18869.57, -67400.30, -73815.76, 6339.78, -71092.72, -82387.14, -60843.21, -78136.20, 0.000, 0.000, 0.000, 17:00:24.087
7, -39694.95, 97247.63, 89742.70, 125181.39, 143904.75, 129599.37, 122764.78, 148411.52, -18869.57, -67400.30, -73815.76, 6339.78, -71092.72, -82387.14, -60843.21, -78136.20, 0.000, 0.000, 0.000, 17:00:24.087
8, -39694.95, 97247.63, 89742.70, 125181.39, 143904.75, 129599.37, 122764.78, 148411.52, -18864.98, -67391.00, -73812.14, 6342.55, -71085.61, -82374.98, -60841.91, -78158.68, 0.000, 0.000, 0.000, 17:00:24.087
9, -39662.30, 97260.48, 89757.30, 125200.66, 143916.19, 129652.14, 122785.73, 148458.20, -18864.98, -67391.00, -73812.14, 6342.55, -71085.61, -82374.98, -60841.91, -78158.68, 0.000, 0.000, 0.000, 17:00:24.087
10, -39662.30, 97260.48, 89757.30, 125200.66, 143916.19, 129652.14, 122785.73, 148458.20, -18865.65, -67382.04, -73809.66, 6347.05, -71087.17, -82367.74, -60830.65, -78118.18, 0.000, 0.000, 0.000, 17:00:24.088
11, -39654.32, 97262.63, 89758.86, 125204.32, 143914.67, 129646.84, 122787.05, 148468.94, -18865.65, -67382.04, -73809.66, 6347.05, -71087.17, -82367.74, -60830.65, -78118.18, 0.000, 0.000, 0.000, 17:00:24.088
12, -39654.32, 97262.63, 89758.86, 125204.32, 143914.67, 129646.84, 122787.05, 148468.94, -18859.08, -67369.81, -73799.91, 6356.37, -71078.05, -82364.39, -60828.75, -78126.48, -0.172, 0.932, -0.168, 17:00:24.088
13, -39670.59, 97267.55, 89763.87, 125209.77, 143923.08, 129651.27, 122798.87, 148466.67, -18859.08, -67369.81, -73799.91, 6356.37, -71078.05, -82364.39, -60828.75, -78126.48, 0.000, 0.000, 0.000, 17:00:24.088
14, -39670.59, 97267.55, 89763.87, 125209.77, 143923.08, 129651.27, 122798.87, 148466.67, -18878.75, -67380.34, -73812.55, 6345.77, -71087.44, -82387.55, -60831.37, -78116.30, 0.000, 0.000, 0.000, 17:00:24.088
15, -39674.34, 97254.78, 89754.74, 125198.40, 143919.70, 129666.53, 122795.54, 148477.77, -18878.75, -67380.34, -73812.55, 6345.77, -71087.44, -82387.55, -60831.37, -78116.30, 0.000, 0.000, 0.000, 17:00:24.089
16, -39674.34, 97254.78, 89754.74, 125198.40, 143919.70, 129666.53, 122795.54, 148477.77, -18889.23, -67385.45, -73812.77, 6342.89, -71078.37, -82369.51, -60822.76, -78122.41, 0.000, 0.000, 0.000, 17:00:24.089
17, -39719.74, 97253.17, 89761.02, 125198.40, 143938.23, 129619.75, 122811.95, 148457.52, -18889.23, -67385.45, -73812.77, 6342.89, -71078.37, -82369.51, -60822.76, -78122.41, 0.000, 0.000, 0.000, 17:00:24.089
18, -39719.74, 97253.17, 89761.02, 125198.40, 143938.23, 129619.75, 122811.95, 148457.52, -18909.42, -67394.55, -73820.21, 6338.44, -71089.45, -82372.91, -60813.66, -78146.03, 0.000, 0.000, 0.000, 17:00:24.089
19, -39720.48, 97226.11, 89734.90, 125172.42, 143936.52, 129628.05, 122804.99, 148480.36, -18909.42, -67394.55, -73820.21, 6338.44, -71089.45, -82372.91, -60813.66, -78146.03, 0.000, 0.000, 0.000, 17:00:24.089
20, -39720.48, 97226.11, 89734.90, 125172.42, 143936.52, 129628.05, 122804.99, 148480.36, -18946.23, -67428.23, -73848.91, 6306.59, -71114.42, -82434.17, -60828.32, -78146.57, 0.000, 0.000, 0.000, 17:00:24.089
21, -39741.91, 97226.17, 89739.63, 125174.13, 143952.36, 129589.69, 122813.73, 148455.47, -18946.23, -67428.23, -73848.91, 6306.59, -71114.42, -82434.17, -60828.32, -78146.57, -0.162, 0.932, -0.164, 17:00:24.089
22, -39741.91, 97226.17, 89739.63, 125174.13, 143952.36, 129589.69, 122813.73, 148455.47, -18932.02, -67400.45, -73822.55, 6333.52, -71089.61, -82400.91, -60807.72, -78143.88, 0.000, 0.000, 0.000, 17:00:24.090
23, -39750.05, 97257.02, 89769.97, 125215.01, 143964.08, 129624.58, 122829.38, 148448.48, -18932.02, -67400.45, -73822.55, 6333.52, -71089.61, -82400.91, -60807.72, -78143.88, 0.000, 0.000, 0.000, 17:00:24.090
24, -39750.05, 97257.02, 89769.97, 125215.01, 143964.08, 129624.58, 122829.38, 148448.48, -18913.24, -67366.70, -73794.66, 6369.00, -71071.30, -82343.98, -60781.79, -78105.40, 0.000, 0.000, 0.000, 17:00:24.090
25, -39756.93, 97272.30, 89786.44, 125235.30, 143960.14, 129652.95, 122837.92, 148476.91, -18913.24, -67366.70, -73794.66, 6369.00, -71071.30, -82343.98, -60781.79, -78105.40, 0.000, 0.000, 0.000, 17:00:24.090
26, -39756.93, 97272.30, 89786.44, 125235.30, 143960.14, 129652.95, 122837.92, 148476.91, -18923.12, -67367.80, -73794.17, 6373.15, -71074.97, -82353.86, -60791.56, -78112.41, 0.000, 0.000, 0.000, 17:00:24.090
27, -39831.90, 97267.23, 89784.79, 125234.23, 143947.36, 129603.66, 122816.70, 148446.89, -18923.12, -67367.80, -73794.17, 6373.15, -71074.97, -82353.86, -60791.56, -78112.41, 0.000, 0.000, 0.000, 17:00:24.091
28, -39831.90, 97267.23, 89784.79, 125234.23, 143947.36, 129603.66, 122816.70, 148446.89, -18922.70, -67356.24, -73783.02, 6379.95, -71065.40, -82352.70, -60789.97, -78092.97, 0.000, 0.000, 0.000, 17:00:24.546
29, -39815.00, 97270.16, 89785.39, 125234.07, 143941.97, 129654.33, 122810.47, 148473.77, -18922.70, -67356.24, -73783.02, 6379.95, -71065.40, -82352.70, -60789.97, -78092.97, 0.000, 0.000, 0.000, 17:00:24.546
30, -39815.00, 97270.16, 89785.39, 125234.07, 143941.97, 129654.33, 122810.47, 148473.77, -18941.29, -67374.39, -73798.30, 6359.72, -71071.88, -82360.14, -60810.69, -78070.04, 0.000, 0.000, 0.000, 17:00:24.546
31, -39877.43, 97253.29, 89769.88, 125213.28, 143928.06, 129613.91, 122791.92, 148450.45, -18941.29, -67374.39, -73798.30, 6359.72, -71071.88, -82360.14, -60810.69, -78070.04, -0.168, 0.928, -0.166, 17:00:24.546
32, -39877.43, 97253.29, 89769.88, 125213.28, 143928.06, 129613.91, 122791.92, 148450.45, -18944.78, -67364.18, -73788.60, 6368.97, -71068.71, -82355.54, -60814.87, -78088.32, 0.000, 0.000, 0.000, 17:00:24.546
33, -39933.00, 97266.23, 89776.02, 125217.73, 143938.86, 129596.69, 122801.48, 148463.20, -18944.78, -67364.18, -73788.60, 6368.97, -71068.71, -82355.54, -60814.87, -78088.32, 0.000, 0.000, 0.000, 17:00:24.547
34, -39933.00, 97266.23, 89776.02, 125217.73, 143938.86, 129596.69, 122801.48, 148463.20, -18983.85, -67383.11, -73810.64, 6350.96, -71086.32, -82380.41, -60826.05, -78077.59, 0.000, 0.000, 0.000, 17:00:24.547
35, -39990.71, 97235.41, 89744.58, 125189.99, 143908.86, 129594.74, 122780.03, 148473.88, -18983.85, -67383.11, -73810.64, 6350.96, -71086.32, -82380.41, -60826.05, -78077.59, 0.000, 0.000, 0.000, 17:00:24.547
36, -39990.71, 97235.41, 89744.58, 125189.99, 143908.86, 129594.74, 122780.03, 148473.88, -18991.05, -67374.39, -73804.67, 6359.58, -71083.17, -82372.68, -60826.38, -78065.59, 0.000, 0.000, 0.000, 17:00:24.547
37, -40081.55, 97264.17, 89770.81, 125215.61, 143933.50, 129559.80, 122806.23, 148456.42, -18991.05, -67374.39, -73804.67, 6359.58, -71083.17, -82372.68, -60826.38, -78065.59, 0.000, 0.000, 0.000, 17:00:24.547
38, -40081.55, 97264.17, 89770.81, 125215.61, 143933.50, 129559.80, 122806.23, 148456.42, -19002.25, -67369.67, -73800.61, 6367.18, -71086.59, -82368.79, -60815.18, -78068.05, 0.000, 0.000, 0.000, 17:00:24.548
39, -40114.56, 97254.78, 89764.87, 125207.94, 143936.36, 129594.74, 122807.74, 148495.67, -19002.25, -67369.67, -73800.61, 6367.18, -71086.59, -82368.79, -60815.18, -78068.05, 0.000, 0.000, 0.000, 17:00:24.548
40, -40114.56, 97254.78, 89764.87, 125207.94, 143936.36, 129594.74, 122807.74, 148495.67, -19007.14, -67368.00, -73796.52, 6366.78, -71068.17, -82373.95, -60804.05, -78036.04, 0.000, 0.000, 0.000, 17:00:24.548
41, -40355.38, 97265.09, 89777.45, 125213.28, 143949.56, 129552.92, 122819.08, 148492.02, -19007.14, -67368.00, -73796.52, 6366.78, -71068.17, -82373.95, -60804.05, -78036.04, -0.172, 0.924, -0.160, 17:00:24.548
42, -40355.38, 97265.09, 89777.45, 125213.28, 143949.56, 129552.92, 122819.08, 148492.02, -19007.34, -67360.73, -73789.14, 6373.76, -71066.77, -82344.43, -60793.59, -78070.05, 0.000, 0.000, 0.000, 17:00:24.549
43, -40539.22, 97238.51, 89758.79, 125193.52, 143946.81, 129524.31, 122807.56, 148456.27, -19007.34, -67360.73, -73789.14, 6373.76, -71066.77, -82344.43, -60793.59, -78070.05, 0.000, 0.000, 0.000, 17:00:24.549
44, -40539.22, 97238.51, 89758.79, 125193.52, 143946.81, 129524.31, 122807.56, 148456.27, -19047.73, -67394.84, -73822.42, 6343.89, -71091.89, -82381.66, -60803.92, -78052.96, 0.000, 0.000, 0.000, 17:00:24.549
45, -40595.19, 97243.38, 89762.79, 125192.32, 143968.28, 129527.55, 122828.06, 148493.09, -19047.73, -67394.84, -73822.42, 6343.89, -71091.89, -82381.66, -60803.92, -78052.96, 0.000, 0.000, 0.000, 17:00:24.549
46, -40595.19, 97243.38, 89762.79, 125192.32, 143968.28, 129527.55, 122828.06, 148493.09, -19052.78, -67377.12, -73802.48, 6364.21, -71066.45, -82383.09, -60780.54, -78036.15, 0.000, 0.000, 0.000, 17:00:24.549
47, -40731.20, 97257.33, 89783.87, 125211.70, 143995.94, 129489.38, 122850.46, 148481.16, -19052.78, -67377.12, -73802.48, 6364.21, -71066.45, -82383.09, -60780.54, -78036.15, 0.000, 0.000, 0.000, 17:00:24.549
48, -40731.20, 97257.33, 89783.87, 125211.70, 143995.94, 129489.38, 122850.46, 148481.16, -19049.27, -67377.52, -73795.29, 6369.24, -71068.77, -82369.95, -60776.74, -78034.97, 0.000, 0.000, 0.000, 17:00:24.550
49, -40874.86, 97258.09, 89779.40, 125213.84, 143966.55, 129516.55, 122835.46, 148495.31, -19049.27, -67377.52, -73795.29, 6369.24, -71068.77, -82369.95, -60776.74, -78034.97, 0.000, 0.000, 0.000, 17:00:24.550
50, -40874.86, 97258.09, 89779.40, 125213.84, 143966.55, 129516.55, 122835.46, 148495.31, -19042.10, -67382.20, -73793.97, 6369.24, -71070.74, -82373.98, -60790.82, -78012.16, 0.000, 0.000, 0.000, 17:00:24.550
51, -40960.66, 97273.65, 89778.80, 125215.56, 143944.64, 129473.28, 122819.44, 148481.30, -19042.10, -67382.20, -73793.97, 6369.24, -71070.74, -82373.98, -60790.82, -78012.16, -0.180, 0.930, -0.164, 17:00:24.550
52, -40960.66, 97273.65, 89778.80, 125215.56, 143944.64, 129473.28, 122819.44, 148481.30, -19033.45, -67375.62, -73784.05, 6379.70, -71075.44, -82374.20, -60803.11, -78029.98, 0.000, 0.000, 0.000, 17:00:24.551
53, -40966.54, 97292.18, 89788.50, 125233.22, 143935.89, 129474.29, 122812.55, 148434.47, -19033.45, -67375.62, -73784.05, 6379.70, -71075.44, -82374.20, -60803.11, -78029.98, 0.000, 0.000, 0.000, 17:00:24.551
54, -40966.54, 97292.18, 89788.50, 125233.22, 143935.89, 129474.29, 122812.55, 148434.47, -19033.27, -67362.55, -73776.73, 6394.52, -71070.41, -82364.95, -60800.54, -77975.60, 0.000, 0.000, 0.000, 17:00:24.551
55, -40923.61, 97289.67, 89788.98, 125243.23, 143932.52, 129522.25, 122807.07, 148449.08, -19033.27, -67362.55, -73776.73, 6394.52, -71070.41, -82364.95, -60800.54, -77975.60, 0.000, 0.000, 0.000, 17:00:24.551
56, -40923.61, 97289.67, 89788.98, 125243.23, 143932.52, 129522.25, 122807.07, 148449.08, -19038.86, -67359.08, -73777.00, 6400.62, -71066.88, -82341.41, -60805.48, -77960.58, 0.000, 0.000, 0.000, 17:00:24.551
57, -40942.56, 97288.24, 89783.04, 125238.98, 143929.58, 129468.12, 122807.99, 148398.75, -19038.86, -67359.08, -73777.00, 6400.62, -71066.88, -82341.41, -60805.48, -77960.58, 0.000, 0.000, 0.000, 17:00:24.552
58, -40942.56, 97288.24, 89783.04, 125238.98, 143929.58, 129468.12, 122807.99, 148398.75, -19031.08, -67345.11, -73765.74, 6414.50, -71058.92, -82328.71, -60798.64, -77969.41, 0.000, 0.000, 0.000, 17:00:24.552
59, -40906.20, 97318.09, 89807.12, 125269.48, 143954.02, 129529.23, 122840.73, 148392.52, -19031.08, -67345.11, -73765.74, 6414.50, -71058.92, -82328.71, -60798.64, -77969.41, 0.000, 0.000, 0.000, 17:00:24.552
60, -40906.20, 97318.09, 89807.12, 125269.48, 143954.02, 129529.23, 122840.73, 148392.52, -19029.85, -67343.21, -73761.42, 6416.07, -71058.30, -82323.04, -60787.18, -77936.82, 0.000, 0.000, 0.000, 17:00:24.552
61, -40923.70, 97296.24, 89792.09, 125244.11, 143938.23, 129506.85, 122836.17, 148382.77, -19029.85, -67343.21, -73761.42, 6416.07, -71058.30, -82323.04, -60787.18, -77936.82, -0.178, 0.934, -0.172, 17:00:24.552
62, -40923.70, 97296.24, 89792.09, 125244.11, 143938.23, 129506.85, 122836.17, 148382.77, -19076.88, -67363.69, -73778.66, 6394.23, -71076.78, -82364.09, -60800.79, -77966.95, 0.000, 0.000, 0.000, 17:00:24.553
63, -40947.63, 97278.39, 89777.92, 125228.73, 143929.83, 129512.44, 122829.45, 148365.08, -19076.88, -67363.69, -73778.66, 6394.23, -71076.78, -82364.09, -60800.79, -77966.95, 0.000, 0.000, 0.000, 17:00:24.553
64, -40947.63, 97278.39, 89777.92, 125228.73, 143929.83, 129512.44, 122829.45, 148365.08, -19094.78, -67377.34, -73792.56, 6379.41, -71085.23, -82359.20, -60800.54, -77959.17, 0.000, 0.000, 0.000, 17:00:24.553
65, -40942.85, 97267.52, 89765.85, 125213.62, 143933.34, 129503.52, 122828.42, 148385.11, -19094.78, -67377.34, -73792.56, 6379.41, -71085.23, -82359.20, -60800.54, -77959.17, 0.000, 0.000, 0.000, 17:00:24.554
66, -40942.85, 97267.52, 89765.85, 125213.62, 143933.34, 129503.52, 122828.42, 148385.11, -19097.11, -67373.85, -73793.08, 6382.00, -71081.72, -82357.52, -60795.60, -77968.11, 0.000, 0.000, 0.000, 17:00:24.554
67, -40973.70, 97285.65, 89781.39, 125229.58, 143961.55, 129465.34, 122847.09, 148404.72, -19097.11, -67373.85, -73793.08, 6382.00, -71081.72, -82357.52, -60795.60, -77968.11, 0.000, 0.000, 0.000, 17:00:24.554
68, -40973.70, 97285.65, 89781.39, 125229.58, 143961.55, 129465.34, 122847.09, 148404.72, -19089.73, -67362.99, -73784.63, 6393.02, -71070.84, -82350.98, -60785.61, -77970.34, 0.000, 0.000, 0.000, 17:00:24.554
69, -40973.96, 97281.18, 89785.01, 125232.75, 143972.44, 129509.02, 122853.01, 148497.20, -19089.73, -67362.99, -73784.63, 6393.02, -71070.84, -82350.98, -60785.61, -77970.34, 0.000, 0.000, 0.000, 17:00:24.554
70, -40973.96, 97281.18, 89785.01, 125232.75, 143972.44, 129509.02, 122853.01, 148497.20, -19095.34, -67363.93, -73782.93, 6393.85, -71069.45, -82362.51, -60777.86, -77946.09, -0.178, 0.936, -0.170, 17:00:24.554
71, -41042.00, 97278.01, 89788.30, 125230.74, 143984.41, 129472.41, 122851.51, 148517.72, -19095.34, -67363.93, -73782.93, 6393.85, -71069.45, -82362.51, -60777.86, -77946.09, 0.000, 0.000, 0.000, 17:00:24.555
72, -41042.00, 97278.01, 89788.30, 125230.74, 143984.41, 129472.41, 122851.51, 148517.72, -19095.25, -67363.55, -73781.52, 6392.02, -71070.68, -82375.48, -60779.96, -77980.45, 0.000, 0.000, 0.000, 17:00:24.555
73, -41079.84, 97281.29, 89788.30, 125237.71, 143979.70, 129469.81, 122851.66, 148517.17, -19095.25, -67363.55, -73781.52, 6392.02, -71070.68, -82375.48, -60779.96, -77980.45, 0.000, 0.000, 0.000, 17:00:24.555
74, -41079.84, 97281.29, 89788.30, 125237.71, 143979.70, 129469.81, 122851.66, 148517.17, -19103.90, -67362.08, -73786.17, 6393.58, -71073.25, -82358.93, -60789.10, -77948.98, 0.000, 0.000, 0.000, 17:00:24.555
75, -41066.66, 97283.15, 89773.86, 125229.55, 143957.64, 129494.23, 122829.56, 148536.84, -19103.90, -67362.08, -73786.17, 6393.58, -71073.25, -82358.93, -60789.10, -77948.98, 0.000, 0.000, 0.000, 17:00:24.555
76, -41066.66, 97283.15, 89773.86, 125229.55, 143957.64, 129494.23, 122829.56, 148536.84, -19101.82, -67356.84, -73779.55, 6403.98, -71069.98, -82369.20, -60802.55, -77955.02, 0.000, 0.000, 0.000, 17:00:24.555
77, -41111.23, 97293.67, 89783.78, 125245.31, 143953.95, 129460.61, 122827.21, 148484.56, -19101.82, -67356.84, -73779.55, 6403.98, -71069.98, -82369.20, -60802.55, -77955.02, 0.000, 0.000, 0.000, 17:00:24.556
78, -41111.23, 97293.67, 89783.78, 125245.31, 143953.95, 129460.61, 122827.21, 148484.56, -19104.57, -67343.52, -73769.94, 6417.03, -71068.17, -82332.20, -60804.70, -77960.91, 0.000, 0.000, 0.000, 17:00:24.556
79, -41088.09, 97304.54, 89789.86, 125250.59, 143942.09, 129516.58, 122822.59, 148487.02, -19104.57, -67343.52, -73769.94, 6417.03, -71068.17, -82332.20, -60804.70, -77960.91, 0.000, 0.000, 0.000, 17:00:24.556
80, -41088.09, 97304.54, 89789.86, 125250.59, 143942.09, 129516.58, 122822.59, 148487.02, -19077.21, -67338.70, -73759.81, 6424.45, -71057.76, -82349.39, -60797.97, -77924.05, -0.176, 0.936, -0.168, 17:00:24.556
81, -41124.46, 97301.41, 89791.78, 125247.68, 143940.47, 129483.30, 122829.27, 148461.95, -19077.21, -67338.70, -73759.81, 6424.45, -71057.76, -82349.39, -60797.97, -77924.05, 0.000, 0.000, 0.000, 17:00:24.556
82, -41124.46, 97301.41, 89791.78, 125247.68, 143940.47, 129483.30, 122829.27, 148461.95, -19072.79, -67337.60, -73762.77, 6423.40, -71061.06, -82335.91, -60801.37, -77938.77, 0.000, 0.000, 0.000, 17:00:24.557
83, -41131.30, 97293.23, 89784.85, 125246.84, 143933.16, 129479.47, 122831.39, 148434.31, -19072.79, -67337.60, -73762.77, 6423.40, -71061.06, -82335.91, -60801.37, -77938.77, 0.000, 0.000, 0.000, 17:00:24.557
84, -41131.30, 97293.23, 89784.85, 125246.84, 143933.16, 129479.47, 122831.39, 148434.31, -19089.46, -67356.69, -73778.88, 6410.46, -71080.34, -82345.70, -60816.61, -77923.12, 0.000, 0.000, 0.000, 17:00:24.557
85, -41139.19, 97275.59, 89765.07, 125222.63, 143918.58, 129476.90, 122820.66, 148317.83, -19089.46, -67356.69, -73778.88, 6410.46, -71080.34, -82345.70, -60816.61, -77923.12, 0.000, 0.000, 0.000, 17:00:24.558
86, -41139.19, 97275.59, 89765.07, 125222.63, 143918.58, 129476.90, 122820.66, 148317.83, -19082.40, -67356.04, -73777.09, 6409.21, -71074.74, -82368.23, -60811.41, -77929.45, 0.000, 0.000, 0.000, 17:00:24.558
87, -41177.39, 97298.17, 89789.57, 125237.85, 143940.41, 129448.60, 122847.55, 148190.16, -19082.40, -67356.04, -73777.09, 6409.21, -71074.74, -82368.23, -60811.41, -77929.45, 0.000, 0.000, 0.000, 17:00:24.558
88, -41177.39, 97298.17, 89789.57, 125237.85, 143940.41, 129448.60, 122847.55, 148190.16, -19070.66, -67340.82, -73770.95, 6421.23, -71068.42, -82337.50, -60799.22, -77946.34, 0.000, 0.000, 0.000, 17:00:24.559
89, -41214.29, 97273.80, 89771.38, 125218.52, 143930.67, 129457.88, 122842.88, 148119.08, -19070.66, -67340.82, -73770.95, 6421.23, -71068.42, -82337.50, -60799.22, -77946.34, 0.000, 0.000, 0.000, 17:00:24.559
90, -41214.29, 97273.80, 89771.38, 125218.52, 143930.67, 129457.88, 122842.88, 148119.08, -19072.18, -67359.62, -73786.99, 6403.95, -71074.79, -82342.84, -60803.36, -77952.09, -0.174, 0.938, -0.164, 17:00:24.559
91, -41266.35, 97273.49, 89794.46, 125237.83, 143963.56, 129433.41, 122864.83, 148049.72, -19072.18, -67359.62, -73786.99, 6403.95, -71074.79, -82342.84, -60803.36, -77952.09, 0.000, 0.000, 0.000, 17:00:24.560
92, -41266.35, 97273.49, 89794.46, 125237.83, 143963.56, 129433.41, 122864.83, 148049.72, -19045.05, -67327.72, -73757.40, 6438.29, -71040.28, -82314.92, -60763.28, -77956.73, 0.000, 0.000, 0.000, 17:00:24.560
93, -41269.37, 97289.49, 89812.05, 125261.97, 143994.25, 129452.78, 122899.92, 148030.66, -19045.05, -67327.72, -73757.40, 6438.29, -71040.28, -82314.92, -60763.28, -77956.73, 0.000, 0.000, 0.000, 17:00:24.560
94, -41269.37, 97289.49, 89812.05, 125261.97, 143994.25, 129452.78, 122899.92, 148030.66, -19054.30, -67334.09, -73768.45, 6429.79, -71051.63, -82334.93, -60753.05, -77923.12, 0.000, 0.000, 0.000, 17:00:24.561
95, -41268.56, 97269.49, 89789.97, 125242.12, 143978.58, 129445.12, 122880.92, 148001.44, -19054.30, -67334.09, -73768.45, 6429.79, -71051.63, -82334.93, -60753.05, -77923.12, 0.000, 0.000, 0.000, 17:00:24.561
96, -41268.56, 97269.49, 89789.97, 125242.12, 143978.58, 129445.12, 122880.92, 148001.44, -19063.40, -67357.18, -73784.29, 6410.01, -71064.89, -82355.29, -60764.18, -77934.70, 0.000, 0.000, 0.000, 17:00:24.561
97, -41328.53, 97264.69, 89784.34, 125230.49, 143963.63, 129397.75, 122864.54, 147957.08, -19063.40, -67357.18, -73784.29, 6410.01, -71064.89, -82355.29, -60764.18, -77934.70, 0.000, 0.000, 0.000, 17:00:24.562
98, -41328.53, 97264.69, 89784.34, 125230.49, 143963.63, 129397.75, 122864.54, 147957.08, -19047.91, -67345.52, -73768.63, 6419.40, -71053.09, -82352.77, -60766.30, -77940.04, 0.000, 0.000, 0.000, 17:00:24.562
99, -41312.62, 97282.88, 89803.78, 125254.79, 143965.75, 129434.34, 122868.85, 147962.39, -19047.91, -67345.52, -73768.63, 6419.40, -71053.09, -82352.77, -60766.30, -77940.04, 0.000, 0.000, 0.000, 17:00:24.562
100, -41312.62, 97282.88, 89803.78, 125254.79, 143965.75, 129434.34, 122868.85, 147962.39, -19030.70, -67329.58, -73756.15, 6431.63, -71052.44, -82326.10, -60770.03, -77908.37, -0.176, 0.934, -0.166, 17:00:24.562
101, -41307.50, 97276.80, 89800.92, 125259.84, 143951.20, 129384.97, 122850.39, 147906.16, -19030.70, -67329.58, -73756.15, 6431.63, -71052.44, -82326.10, -60770.03, -77908.37, 0.000, 0.000, 0.000, 17:00:24.563
102, -41307.50, 97276.80, 89800.92, 125259.84, 143951.20, 129384.97, 122850.39, 147906.16, -19036.67, -67330.11, -73752.35, 6436.97, -71054.61, -82320.73, -60779.96, -77932.13, 0.000, 0.000, 0.000, 17:00:24.563
103, -41285.68, 97288.13, 89806.98, 125277.48, 143956.72, 129363.80, 122857.32, 147890.02, -19036.67, -67330.11, -73752.35, 6436.97, -71054.61, -82320.73, -60779.96, -77932.13, 0.000, 0.000, 0.000, 17:00:24.563
104, -41285.68, 97288.13, 89806.98, 125277.48, 143956.72, 129363.80, 122857.32, 147890.02, -19029.31, -67319.52, -73746.09, 6446.29, -71049.48, -82319.91, -60770.50, -77881.41, 0.000, 0.000, 0.000, 17:00:24.564
105, -41249.81, 97282.34, 89803.07, 125276.38, 143952.25, 129367.69, 122858.13, 147902.50, -19029.31, -67319.52, -73746.09, 6446.29, -71049.48, -82319.91, -60770.50, -77881.41, 0.000, 0.000, 0.000, 17:00:24.564
106, -41249.81, 97282.34, 89803.07, 125276.38, 143952.25, 129367.69, 122858.13, 147902.50, -19034.28, -67324.59, -73745.48, 6440.68, -71049.84, -82329.88, -60783.62, -77893.91, 0.000, 0.000, 0.000, 17:00:24.564
107, -41295.09, 97268.93, 89798.87, 125266.70, 143944.88, 129306.49, 122857.30, 147867.61, -19034.28, -67324.59, -73745.48, 6440.68, -71049.84, -82329.88, -60783.62, -77893.91, 0.000, 0.000, 0.000, 17:00:24.565
108, -41295.09, 97268.93, 89798.87, 125266.70, 143944.88, 129306.49, 122857.30, 147867.61, -19048.76, -67341.49, -73755.91, 6423.00, -71061.89, -82328.76, -60790.30, -77902.29, 0.000, 0.000, 0.000, 17:00:24.565
109, -41307.03, 97267.63, 89804.59, 125267.42, 143945.94, 129334.05, 122859.58, 147881.38, -19048.76, -67341.49, -73755.91, 6423.00, -71061.89, -82328.76, -60790.30, -77902.29, 0.000, 0.000, 0.000, 17:00:24.565
110, -41307.03, 97267.63, 89804.59, 125267.42, 143945.94, 129334.05, 122859.58, 147881.38, -19029.58, -67327.90, -73742.31, 6432.63, -71041.98, -82340.49, -60765.94, -77869.59, -0.172, 0.932, -0.162, 17:00:24.566
111, -41336.15, 97273.47, 89819.88, 125273.72, 143967.14, 129310.47, 122881.35, 147898.25, -19029.58, -67327.90, -73742.31, 6432.63, -71041.98, -82340.49, -60765.94, -77869.59, 0.000, 0.000, 0.000, 17:00:24.566
112, -41336.15, 97273.47, 89819.88, 125273.72, 143967.14, 129310.47, 122881.35, 147898.25, -19030.43, -67323.81, -73736.88, 6436.25, -71035.49, -82311.19, -60755.64, -77884.52, 0.000, 0.000, 0.000, 17:00:24.566
113, -41383.80, 97254.18, 89809.30, 125262.84, 143972.39, 129259.73, 122882.78, 147870.89, -19030.43, -67323.81, -73736.88, 6436.25, -71035.49, -82311.19, -60755.64, -77884.52, 0.000, 0.000, 0.000, 17:00:24.566
114, -41383.80, 97254.18, 89809.30, 125262.84, 143972.39, 129259.73, 122882.78, 147870.89, -19046.28, -67349.58, -73761.24, 6411.80, -71049.87, -82339.04, -60764.47, -77884.27, 0.000, 0.000, 0.000, 17:00:24.566
115, -41397.33, 97240.99, 89798.89, 125252.27, 143980.25, 129219.72, 122885.59, 147840.78, -19046.28, -67349.58, -73761.24, 6411.80, -71049.87, -82339.04, -60764.47, -77884.27, 0.000, 0.000, 0.000, 17:00:24.567
116, -41397.33, 97240.99, 89798.89, 125252.27, 143980.25, 129219.72, 122885.59, 147840.78, -19059.73, -67359.98, -73775.20, 6397.23, -71060.87, -82346.98, -60777.23, -77910.09, 0.000, 0.000, 0.000, 17:00:24.567
117, -41478.36, 97230.89, 89782.08, 125239.48, 143968.45, 129135.99, 122872.97, 147773.81, -19059.73, -67359.98, -73775.20, 6397.23, -71060.87, -82346.98, -60777.23, -77910.09, 0.000, 0.000, 0.000, 17:00:24.567
118, -41478.36, 97230.89, 89782.08, 125239.48, 143968.45, 129135.99, 122872.97, 147773.81, -19059.60, -67352.42, -73767.84, 6405.16, -71058.09, -82338.26, -60763.19, -77902.06, 0.000, 0.000, 0.000, 17:00:24.568
119, -41465.34, 97255.63, 89811.72, 125269.97, 143995.25, 129161.79, 122904.55, 147787.98, -19059.60, -67352.42, -73767.84, 6405.16, -71058.09, -82338.26, -60763.19, -77902.06, 0.000, 0.000, 0.000, 17:00:24.568
120, -41465.34, 97255.63, 89811.72, 125269.97, 143995.25, 129161.79, 122904.55, 147787.98, -19038.90, -67339.77, -73750.88, 6420.16, -71041.27, -82346.38, -60739.72, -77863.10, -0.172, 0.932, -0.160, 17:00:24.568
121, -41491.30, 97267.41, 89820.30, 125275.16, 143997.11, 129124.21, 122904.33, 147757.83, -19038.90, -67339.77, -73750.88, 6420.16, -71041.27, -82346.38, -60739.72, -77863.10, 0.000, 0.000, 0.000, 17:00:24.568
122, -41491.30, 97267.41, 89820.30, 125275.16, 143997.11, 129124.21, 122904.33, 147757.83, -19034.63, -67324.88, -73741.45, 6430.48, -71038.85, -82317.02, -60743.08, -77896.38, 0.000, 0.000, 0.000, 17:00:24.569
123, -41505.02, 97278.77, 89824.73, 125283.96, 143988.91, 129111.54, 122890.47, 147745.19, -19034.63, -67324.88, -73741.45, 6430.48, -71038.85, -82317.02, -60743.08, -77896.38, 0.000, 0.000, 0.000, 17:00:24.569
124, -41505.02, 97278.77, 89824.73, 125283.96, 143988.91, 129111.54, 122890.47, 147745.19, -19026.07, -67323.38, -73734.40, 6433.26, -71036.13, -82311.93, -60741.64, -77869.07, 0.000, 0.000, 0.000, 17:00:24.569
125, -41506.63, 97265.73, 89809.35, 125263.82, 143961.64, 129117.59, 122868.09, 147760.47, -19026.07, -67323.38, -73734.40, 6433.26, -71036.13, -82311.93, -60741.64, -77869.07, 0.000, 0.000, 0.000, 17:00:24.569
126, -41506.63, 97265.73, 89809.35, 125263.82, 143961.64, 129117.59, 122868.09, 147760.47, -19052.04, -67354.43, -73767.68, 6395.86, -71069.65, -82363.13, -60790.13, -77908.01, 0.000, 0.000, 0.000, 17:00:24.570
127, -41578.11, 97246.67, 89786.82, 125247.46, 143939.22, 129037.13, 122843.28, 147705.44, -19052.04, -67354.43, -73767.68, 6395.86, -71069.65, -82363.13, -60790.13, -77908.01, 0.000, 0.000, 0.000, 17:00:24.570
128, -41578.11, 97246.67, 89786.82, 125247.46, 143939.22, 129037.13, 122843.28, 147705.44, -19046.57, -67332.55, -73751.27, 6418.57, -71058.63, -82338.10, -60776.31, -77889.44, 0.000, 0.000, 0.000, 17:00:24.570
129, -41531.95, 97276.82, 89816.77, 125276.80, 143967.17, 129086.84, 122877.82, 147777.09, -19046.57, -67332.55, -73751.27, 6418.57, -71058.63, -82338.10, -60776.31, -77889.44, -0.176, 0.928, -0.170, 17:00:24.570
130, -41531.95, 97276.82, 89816.77, 125276.80, 143967.17, 129086.84, 122877.82, 147777.09, -19014.63, -67309.91, -73721.64, 6443.47, -71026.89, -82313.70, -60750.07, -77836.77, 0.000, 0.000, 0.000, 17:00:24.571
131, -41576.61, 97280.11, 89822.07, 125283.18, 143971.89, 129066.61, 122883.92, 147785.84, -19014.63, -67309.91, -73721.64, 6443.47, -71026.89, -82313.70, -60750.07, -77836.77, 0.000, 0.000, 0.000, 17:00:24.571
132, -41576.61, 97280.11, 89822.07, 125283.18, 143971.89, 129066.61, 122883.92, 147785.84, -19033.16, -67323.25, -73736.91, 6427.71, -71039.12, -82333.66, -60766.12, -77852.87, 0.000, 0.000, 0.000, 17:00:24.571
133, -41648.68, 97273.65, 89806.13, 125271.45, 143955.83, 129052.89, 122871.29, 147778.69, -19033.16, -67323.25, -73736.91, 6427.71, -71039.12, -82333.66, -60766.12, -77852.87, 0.000, 0.000, 0.000, 17:00:24.571
134, -41648.68, 97273.65, 89806.13, 125271.45, 143955.83, 129052.89, 122871.29, 147778.69, -19029.54, -67312.03, -73732.23, 6431.24, -71038.38, -82324.16, -60767.68, -77829.40, 0.000, 0.000, 0.000, 17:00:24.571
135, -41659.00, 97277.96, 89809.13, 125275.16, 143959.69, 129082.46, 122882.58, 147806.00, -19029.54, -67312.03, -73732.23, 6431.24, -71038.38, -82324.16, -60767.68, -77829.40, 0.000, 0.000, 0.000, 17:00:24.571
136, -41659.00, 97277.96, 89809.13, 125275.16, 143959.69, 129082.46, 122882.58, 147806.00, -19032.29, -67318.91, -73746.13, 6413.79, -71045.24, -82326.44, -60777.34, -77825.91, 0.000, 0.000, 0.000, 17:00:24.572
137, -41737.88, 97247.09, 89786.59, 125250.30, 143955.83, 129018.47, 122873.37, 147758.91, -19032.29, -67318.91, -73746.13, 6413.79, -71045.24, -82326.44, -60777.34, -77825.91, 0.000, 0.000, 0.000, 17:00:24.572
138, -41737.88, 97247.09, 89786.59, 125250.30, 143955.83, 129018.47, 122873.37, 147758.91, -19046.93, -67327.54, -73759.55, 6402.95, -71045.71, -82343.60, -60777.57, -77838.45, 0.000, 0.000, 0.000, 17:00:24.572
139, -41722.61, 97246.58, 89788.54, 125248.06, 143984.70, 129049.52, 122891.38, 147788.13, -19046.93, -67327.54, -73759.55, 6402.95, -71045.71, -82343.60, -60777.57, -77838.45, -0.180, 0.926, -0.166, 17:00:24.572
140, -41722.61, 97246.58, 89788.54, 125248.06, 143984.70, 129049.52, 122891.38, 147788.13, -19049.14, -67334.00, -73772.38, 6391.75, -71053.65, -82355.24, -60776.71, -77815.52, 0.000, 0.000, 0.000, 17:00:24.572
141, -41762.18, 97240.77, 89780.54, 125237.34, 143993.58, 129009.57, 122894.27, 147808.44, -19049.14, -67334.00, -73772.38, 6391.75, -71053.65, -82355.24, -60776.71, -77815.52, 0.000, 0.000, 0.000, 17:00:24.572
142, -41762.18, 97240.77, 89780.54, 125237.34, 143993.58, 129009.57, 122894.27, 147808.44, -19054.06, -67334.54, -73774.88, 6391.59, -71056.44, -82334.70, -60777.16, -77831.95, 0.000, 0.000, 0.000, 17:00:24.573
143, -41796.82, 97239.59, 89779.31, 125245.45, 143979.70, 129005.32, 122889.71, 147816.58, -19054.06, -67334.54, -73774.88, 6391.59, -71056.44, -82334.70, -60777.16, -77831.95, 0.000, 0.000, 0.000, 17:00:24.573
144, -41796.82, 97239.59, 89779.31, 125245.45, 143979.70, 129005.32, 122889.71, 147816.58, -19039.30, -67319.38, -73762.77, 6407.04, -71051.01, -82327.13, -60766.30, -77794.69, 0.000, 0.000, 0.000, 17:00:24.573
145, -41787.93, 97261.38, 89799.00, 125267.33, 143985.64, 129031.74, 122903.90, 147863.33, -19039.30, -67319.38, -73762.77, 6407.04, -71051.01, -82327.13, -60766.30, -77794.69, 0.000, 0.000, 0.000, 17:00:24.573
146, -41787.93, 97261.38, 89799.00, 125267.33, 143985.64, 129031.74, 122903.90, 147863.33, -19025.85, -67305.68, -73748.17, 6422.35, -71039.70, -82328.24, -60758.99, -77785.09, 0.000, 0.000, 0.000, 17:00:24.573
147, -41845.19, 97258.56, 89804.55, 125274.33, 143978.44, 128974.66, 122895.95, 147829.63, -19025.85, -67305.68, -73748.17, 6422.35, -71039.70, -82328.24, -60758.99, -77785.09, 0.000, 0.000, 0.000, 17:00:24.574
148, -41845.19, 97258.56, 89804.55, 125274.33, 143978.44, 128974.66, 122895.95, 147829.63, -19036.44, -67319.02, -73757.29, 6416.58, -71047.70, -82351.34, -60761.81, -77789.09, 0.000, 0.000, 0.000, 17:00:25.029
149, -41801.52, 97250.42, 89806.71, 125274.59, 143964.86, 129015.23, 122890.40, 147845.92, -19036.44, -67319.02, -73757.29, 6416.58, -71047.70, -82351.34, -60761.81, -77789.09, -0.182, 0.938, -0.166, 17:00:25.029
150, -41801.52, 97250.42, 89806.71, 125274.59, 143964.86, 129015.23, 122890.40, 147845.92, -19008.17, -67298.95, -73733.10, 6439.36, -71033.75, -82318.77, -60745.42, -77741.66, 0.000, 0.000, 0.000, 17:00:25.029
151, -41822.44, 97281.70, 89830.98, 125301.41, 143991.52, 128990.15, 122898.85, 147826.25, -19008.17, -67298.95, -73733.10, 6439.36, -71033.75, -82318.77, -60745.42, -77741.66, 0.000, 0.000, 0.000, 17:00:25.030
152, -41822.44, 97281.70, 89830.98, 125301.41, 143991.52, 128990.15, 122898.85, 147826.25, -18987.36, -67283.82, -73715.05, 6455.97, -71017.32, -82290.88, -60747.82, -77777.05, 0.000, 0.000, 0.000, 17:00:25.030
153, -41842.04, 97276.58, 89821.45, 125291.47, 143978.89, 128977.77, 122891.36, 147798.11, -18987.36, -67283.82, -73715.05, 6455.97, -71017.32, -82290.88, -60747.82, -77777.05, 0.000, 0.000, 0.000, 17:00:25.030
154, -41842.04, 97276.58, 89821.45, 125291.47, 143978.89, 128977.77, 122891.36, 147798.11, -19006.80, -67302.80, -73739.25, 6433.79, -71032.95, -82313.63, -60760.49, -77747.45, 0.000, 0.000, 0.000, 17:00:25.030
155, -41837.66, 97255.27, 89807.41, 125276.94, 143965.80, 128990.23, 122878.27, 147828.31, -19006.80, -67302.80, -73739.25, 6433.79, -71032.95, -82313.63, -60760.49, -77747.45, 0.000, 0.000, 0.000, 17:00:25.030
156, -41837.66, 97255.27, 89807.41, 125276.94, 143965.80, 128990.23, 122878.27, 147828.31, -19018.96, -67306.71, -73749.22, 6425.48, -71044.50, -82338.44, -60770.34, -77762.05, 0.000, 0.000, 0.000, 17:00:25.031
157, -41886.96, 97246.16, 89800.99, 125269.95, 143955.20, 128996.07, 122870.82, 147788.67, -19018.96, -67306.71, -73749.22, 6425.48, -71044.50, -82338.44, -60770.34, -77762.05, 0.000, 0.000, 0.000, 17:00:25.031
158, -41886.96, 97246.16, 89800.99, 125269.95, 143955.20, 128996.07, 122870.82, 147788.67, -19022.34, -67306.82, -73749.58, 6426.24, -71047.03, -82338.48, -60771.11, -77773.61, 0.000, 0.000, 0.000, 17:00:25.031
159, -41852.21, 97243.14, 89795.65, 125269.21, 143956.31, 129090.38, 122878.87, 147746.14, -19022.34, -67306.82, -73749.58, 6426.24, -71047.03, -82338.48, -60771.11, -77773.61, -0.178, 0.930, -0.166, 17:00:25.031
160, -41852.21, 97243.14, 89795.65, 125269.21, 143956.31, 129090.38, 122878.87, 147746.14, -19024.06, -67309.70, -73750.18, 6424.36, -71048.05, -82332.98, -60765.56, -77737.27, 0.000, 0.000, 0.000, 17:00:25.031
161, -41902.10, 97261.49, 89807.88, 125278.35, 143981.23, 129068.09, 122906.07, 147713.84, -19024.06, -67309.70, -73750.18, 6424.36, -71048.05, -82332.98, -60765.56, -77737.27, 0.000, 0.000, 0.000, 17:00:25.031
162, -41902.10, 97261.49, 89807.88, 125278.35, 143981.23, 129068.09, 122906.07, 147713.84, -19010.18, -67289.70, -73734.60, 6439.69, -71028.63, -82320.89, -60747.30, -77757.13, 0.000, 0.000, 0.000, 17:00:25.032
163, -41914.41, 97262.59, 89815.45, 125297.17, 144005.88, 129102.11, 122923.10, 147726.03, -19010.18, -67289.70, -73734.60, 6439.69, -71028.63, -82320.89, -60747.30, -77757.13, 0.000, 0.000, 0.000, 17:00:25.032
164, -41914.41, 97262.59, 89815.45, 125297.17, 144005.88, 129102.11, 122923.10, 147726.03, -19015.10, -67291.42, -73743.72, 6432.23, -71027.16, -82309.60, -60733.69, -77701.52, 0.000, 0.000, 0.000, 17:00:25.032
165, -41885.45, 97239.67, 89796.41, 125276.16, 144004.50, 129138.59, 122915.95, 147784.14, -19015.10, -67291.42, -73743.72, 6432.23, -71027.16, -82309.60, -60733.69, -77701.52, 0.000, 0.000, 0.000, 17:00:25.032
166, -41885.45, 97239.67, 89796.41, 125276.16, 144004.50, 129138.59, 122915.95, 147784.14, -19043.55, -67318.24, -73771.20, 6404.96, -71050.02, -82341.48, -60761.74, -77709.16, 0.000, 0.000, 0.000, 17:00:25.032
167, -41964.59, 97222.59, 89782.06, 125258.03, 143992.92, 129062.12, 122896.88, 147749.30, -19043.55, -67318.24, -73771.20, 6404.96, -71050.02, -82341.48, -60761.74, -77709.16, 0.000, 0.000, 0.000, 17:00:25.032
168, -41964.59, 97222.59, 89782.06, 125258.03, 143992.92, 129062.12, 122896.88, 147749.30, -19037.58, -67310.58, -73760.15, 6411.51, -71042.36, -82340.41, -60759.50, -77712.21, 0.000, 0.000, 0.000, 17:00:25.033
169, -41937.39, 97240.68, 89802.34, 125278.23, 144000.27, 129108.73, 122902.31, 147809.36, -19037.58, -67310.58, -73760.15, 6411.51, -71042.36, -82340.41, -60759.50, -77712.21, -0.182, 0.932, -0.168, 17:00:25.033
170, -41937.39, 97240.68, 89802.34, 125278.23, 144000.27, 129108.73, 122902.31, 147809.36, -19017.76, -67295.83, -73742.34, 6427.56, -71034.55, -82329.79, -60755.84, -77670.48, 0.000, 0.000, 0.000, 17:00:25.033
171, -41986.21, 97229.66, 89796.55, 125268.38, 143977.55, 129028.84, 122879.74, 147787.16, -19017.76, -67295.83, -73742.34, 6427.56, -71034.55, -82329.79, -60755.84, -77670.48, 0.000, 0.000, 0.000, 17:00:25.033
172, -41986.21, 97229.66, 89796.55, 125268.38, 143977.55, 129028.84, 122879.74, 147787.16, -19035.84, -67309.64, -73755.08, 6412.76, -71047.05, -82342.84, -60780.34, -77739.72, 0.000, 0.000, 0.000, 17:00:25.033
173, -41994.39, 97238.45, 89805.62, 125278.33, 143979.67, 128995.65, 122877.82, 147783.06, -19035.84, -67309.64, -73755.08, 6412.76, -71047.05, -82342.84, -60780.34, -77739.72, 0.000, 0.000, 0.000, 17:00:25.033
174, -41994.39, 97238.45, 89805.62, 125278.33, 143979.67, 128995.65, 122877.82, 147783.06, -19027.35, -67296.97, -73740.39, 6431.31, -71038.96, -82331.87, -60760.69, -77707.71, 0.000, 0.000, 0.000, 17:00:25.034
175, -41987.15, 97248.52, 89804.16, 125277.34, 143969.70, 129055.73, 122876.05, 147779.89, -19027.35, -67296.97, -73740.39, 6431.31, -71038.96, -82331.87, -60760.69, -77707.71, 0.000, 0.000, 0.000, 17:00:25.034
176, -41987.15, 97248.52, 89804.16, 125277.34, 143969.70, 129055.73, 122876.05, 147779.89, -19028.96, -67298.93, -73737.95, 6428.14, -71040.91, -82338.30, -60769.12, -77715.88, 0.000, 0.000, 0.000, 17:00:25.034
177, -42054.27, 97263.14, 89820.64, 125285.77, 143980.77, 129028.13, 122895.41, 147696.20, -19028.96, -67298.93, -73737.95, 6428.14, -71040.91, -82338.30, -60769.12, -77715.88, 0.000, 0.000, 0.000, 17:00:25.034
178, -42054.27, 97263.14, 89820.64, 125285.77, 143980.77, 129028.13, 122895.41, 147696.20, -19019.57, -67292.56, -73728.66, 6435.87, -71024.84, -82323.39, -60752.93, -77701.12, -0.182, 0.934, -0.172, 17:00:25.035
179, -42027.78, 97269.09, 89827.03, 125294.22, 143991.72, 129095.49, 122902.20, 147684.36, -19019.57, -67292.56, -73728.66, 6435.87, -71024.84, -82323.39, -60752.93, -77701.12, 0.000, 0.000, 0.000, 17:00:25.035
180, -42027.78, 97269.09, 89827.03, 125294.22, 143991.72, 129095.49, 122902.20, 147684.36, -19010.43, -67290.05, -73725.98, 6439.43, -71021.81, -82332.02, -60747.97, -77656.41, 0.000, 0.000, 0.000, 17:00:25.035
181, -42074.81, 97266.52, 89831.26, 125290.62, 143990.64, 129057.90, 122907.43, 147645.81, -19010.43, -67290.05, -73725.98, 6439.43, -71021.81, -82332.02, -60747.97, -77656.41, 0.000, 0.000, 0.000, 17:00:25.035
182, -42074.81, 97266.52, 89831.26, 125290.62, 143990.64, 129057.90, 122907.43, 147645.81, -19005.33, -67280.16, -73720.01, 6448.32, -71018.11, -82314.19, -60742.32, -77691.82, 0.000, 0.000, 0.000, 17:00:25.036
183, -42083.19, 97255.66, 89828.55, 125295.20, 143989.69, 129058.14, 122910.18, 147596.25, -19005.33, -67280.16, -73720.01, 6448.32, -71018.11, -82314.19, -60742.32, -77691.82, 0.000, 0.000, 0.000, 17:00:25.036
184, -42083.19, 97255.66, 89828.55, 125295.20, 143989.69, 129058.14, 122910.18, 147596.25, -19019.63, -67293.45, -73735.79, 6434.91, -71033.33, -82324.18, -60746.32, -77652.10, 0.000, 0.000, 0.000, 17:00:25.036
185, -42101.07, 97237.69, 89810.00, 125276.43, 143981.97, 129068.02, 122899.92, 147418.09, -19019.63, -67293.45, -73735.79, 6434.91, -71033.33, -82324.18, -60746.32, -77652.10, 0.000, 0.000, 0.000, 17:00:25.037
186, -42101.07, 97237.69, 89810.00, 125276.43, 143981.97, 129068.02, 122899.92, 147418.09, -19039.39, -67319.49, -73748.51, 6420.96, -71044.81, -82345.41, -60757.98, -77681.97, 0.000, 0.000, 0.000, 17:00:25.037
187, -42197.97, 97243.70, 89807.00, 125270.70, 143992.39, 129027.09, 122911.23, 147291.59, -19039.39, -67319.49, -73748.51, 6420.96, -71044.81, -82345.41, -60757.98, -77681.97, 0.000, 0.000, 0.000, 17:00:25.037
188, -42197.97, 97243.70, 89807.00, 125270.70, 143992.39, 129027.09, 122911.23, 147291.59, -19051.22, -67326.54, -73753.83, 6416.92, -71047.37, -82327.40, -60753.63, -77695.73, -0.178, 0.936, -0.174, 17:00:25.037
189, -42207.25, 97238.98, 89807.14, 125270.33, 144014.88, 129079.20, 122929.47, 147268.36, -19051.22, -67326.54, -73753.83, 6416.92, -71047.37, -82327.40, -60753.63, -77695.73, 0.000, 0.000, 0.000, 17:00:25.038
190, -42207.25, 97238.98, 89807.14, 125270.33, 144014.88, 129079.20, 122929.47, 147268.36, -19043.57, -67324.41, -73751.73, 6417.77, -71030.98, -82338.50, -60740.89, -77638.80, 0.000, 0.000, 0.000, 17:00:25.038
191, -42249.24, 97244.05, 89808.95, 125268.96, 144029.19, 129059.39, 122939.48, 147210.63, -19043.57, -67324.41, -73751.73, 6417.77, -71030.98, -82338.50, -60740.89, -77638.80, 0.000, 0.000, 0.000, 17:00:25.038
192, -42249.24, 97244.05, 89808.95, 125268.96, 144029.19, 129059.39, 122939.48, 147210.63, -19042.72, -67316.61, -73747.63, 6424.41, -71029.04, -82345.26, -60745.07, -77686.08, 0.000, 0.000, 0.000, 17:00:25.038
193, -42275.37, 97248.48, 89809.91, 125277.90, 144012.00, 129038.92, 122930.63, 147147.42, -19042.72, -67316.61, -73747.63, 6424.41, -71029.04, -82345.26, -60745.07, -77686.08, 0.000, 0.000, 0.000, 17:00:25.038
194, -42275.37, 97248.48, 89809.91, 125277.90, 144012.00, 129038.92, 122930.63, 147147.42, -19044.45, -67319.98, -73748.93, 6423.85, -71040.52, -82314.09, -60748.55, -77659.93, 0.000, 0.000, 0.000, 17:00:25.038
195, -42279.42, 97249.04, 89811.79, 125283.09, 143994.63, 129056.20, 122918.48, 147130.95, -19044.45, -67319.98, -73748.93, 6423.85, -71040.52, -82314.09, -60748.55, -77659.93, 0.000, 0.000, 0.000, 17:00:25.039
196, -42279.42, 97249.04, 89811.79, 125283.09, 143994.63, 129056.20, 122918.48, 147130.95, -19026.79, -67300.66, -73723.16, 6446.62, -71022.15, -82303.91, -60743.05, -77670.95, 0.000, 0.000, 0.000, 17:00:25.039
197, -42333.80, 97282.48, 89841.07, 125310.80, 144013.30, 129016.95, 122931.88, 147107.53, -19026.79, -67300.66, -73723.16, 6446.62, -71022.15, -82303.91, -60743.05, -77670.95, 0.000, 0.000, 0.000, 17:00:25.039
198, -42333.80, 97282.48, 89841.07, 125310.80, 144013.30, 129016.95, 122931.88, 147107.53, -19014.34, -67285.86, -73706.26, 6465.40, -71007.49, -82312.27, -60733.93, -77672.13, -0.180, 0.924, -0.174, 17:00:25.039
199, -42342.03, 97272.51, 89837.76, 125309.46, 144006.05, 129042.52, 122921.38, 147148.56, -19014.34, -67285.86, -73706.26, 6465.40, -71007.49, -82312.27, -60733.93, -77672.13, 0.000, 0.000, 0.000, 17:00:25.039
200, -42342.03, 97272.51, 89837.76, 125309.46, 144006.05, 129042.52, 122921.38, 147148.56, -19035.04, -67309.37, -73728.50, 6442.44, -71025.28, -82335.29, -60752.02, -77648.95, 0.000, 0.000, 0.000, 17:00:25.040
201, -42422.18, 97259.90, 89820.39, 125290.51, 143987.41, 129065.16, 122889.57, 147158.78, -19035.04, -67309.37, -73728.50, 6442.44, -71025.28, -82335.29, -60752.02, -77648.95, 0.000, 0.000, 0.000, 17:00:25.040
202, -42422.18, 97259.90, 89820.39, 125290.51, 143987.41, 129065.16, 122889.57, 147158.78, -19024.06, -67296.83, -73709.08, 6455.23, -71014.64, -82304.28, -60749.20, -77662.74, 0.000, 0.000, 0.000, 17:00:25.040
203, -42458.48, 97270.03, 89826.80, 125295.47, 143992.08, 129105.51, 122902.36, 147225.66, -19024.06, -67296.83, -73709.08, 6455.23, -71014.64, -82304.28, -60749.20, -77662.74, 0.000, 0.000, 0.000, 17:00:25.040
204, -42458.48, 97270.03, 89826.80, 125295.47, 143992.08, 129105.51, 122902.36, 147225.66, -19050.66, -67327.56, -73734.80, 6425.59, -71037.40, -82340.16, -60767.15, -77641.28, 0.000, 0.000, 0.000, 17:00:25.040
205, -42515.79, 97230.60, 89797.21, 125259.91, 143964.41, 129098.15, 122877.08, 147272.31, -19050.66, -67327.56, -73734.80, 6425.59, -71037.40, -82340.16, -60767.15, -77641.28, 0.000, 0.000, 0.000, 17:00:25.040
206, -42515.79, 97230.60, 89797.21, 125259.91, 143964.41, 129098.15, 122877.08, 147272.31, -19067.49, -67342.85, -73744.55, 6416.22, -71043.30, -82361.13, -60774.26, -77646.38, 0.000, 0.000, 0.000, 17:00:25.041
207, -42581.77, 97246.47, 89819.88, 125283.78, 143981.84, 129073.27, 122903.03, 147332.81, -19067.49, -67342.85, -73744.55, 6416.22, -71043.30, -82361.13, -60774.26, -77646.38, 0.000, 0.000, 0.000, 17:00:25.041
208, -42581.77, 97246.47, 89819.88, 125283.78, 143981.84, 129073.27, 122903.03, 147332.81, -19054.28, -67329.17, -73726.55, 6442.20, -71024.79, -82321.54, -60748.38, -77624.97, -0.186, 0.930, -0.162, 17:00:25.041
209, -42588.83, 97263.55, 89828.35, 125292.77, 143989.63, 129091.16, 122920.91, 147522.80, -19054.28, -67329.17, -73726.55, 6442.20, -71024.79, -82321.54, -60748.38, -77624.97, 0.000, 0.000, 0.000, 17:00:25.041
210, -42588.83, 97263.55, 89828.35, 125292.77, 143989.63, 129091.16, 122920.91, 147522.80, -19046.77, -67317.93, -73713.19, 6456.21, -71018.66, -82308.33, -60735.03, -77587.75, 0.000, 0.000, 0.000, 17:00:25.042
211, -42651.22, 97278.70, 89847.37, 125306.00, 144010.03, 129010.27, 122943.30, 147607.83, -19046.77, -67317.93, -73713.19, 6456.21, -71018.66, -82308.33, -60735.03, -77587.75, 0.000, 0.000, 0.000, 17:00:25.042
212, -42651.22, 97278.70, 89847.37, 125306.00, 144010.03, 129010.27, 122943.30, 147607.83, -19057.86, -67329.09, -73722.73, 6443.63, -71023.47, -82330.50, -60739.19, -77626.63, 0.000, 0.000, 0.000, 17:00:25.042
213, -42666.59, 97261.91, 89832.09, 125281.44, 144013.41, 128944.04, 122933.27, 147445.13, -19057.86, -67329.09, -73722.73, 6443.63, -71023.47, -82330.50, -60739.19, -77626.63, 0.000, 0.000, 0.000, 17:00:25.042
214, -42666.59, 97261.91, 89832.09, 125281.44, 144013.41, 128944.04, 122933.27, 147445.13, -19064.43, -67344.75, -73732.26, 6431.89, -71025.30, -82349.70, -60740.04, -77625.04, 0.000, 0.000, 0.000, 17:00:25.042
215, -42553.61, 97243.90, 89812.37, 125265.99, 144014.03, 128934.13, 122929.16, 147278.02, -19064.43, -67344.75, -73732.26, 6431.89, -71025.30, -82349.70, -60740.04, -77625.04, 0.000, 0.000, 0.000, 17:00:25.042
216, -42553.61, 97243.90, 89812.37, 125265.99, 144014.03, 128934.13, 122929.16, 147278.02, -19079.47, -67358.05, -73752.33, 6413.41, -71035.09, -82340.98, -60755.97, -77641.58, 0.000, 0.000, 0.000, 17:00:25.043
217, -42579.63, 97253.04, 89811.23, 125271.89, 144010.78, 128883.87, 122926.66, 147186.03, -19079.47, -67358.05, -73752.33, 6413.41, -71035.09, -82340.98, -60755.97, -77641.58, 0.000, 0.000, 0.000, 17:00:25.043
218, -42579.63, 97253.04, 89811.23, 125271.89, 144010.78, 128883.87, 122926.66, 147186.03, -19063.67, -67337.69, -73737.04, 6434.46, -71029.04, -82308.89, -60752.11, -77650.20, -0.192, 0.930, -0.170, 17:00:25.043
219, -42536.84, 97265.47, 89821.31, 125286.95, 144004.58, 129005.80, 122930.23, 147248.81, -19063.67, -67337.69, -73737.04, 6434.46, -71029.04, -82308.89, -60752.11, -77650.20, 0.000, 0.000, 0.000, 17:00:25.043
220, -42536.84, 97265.47, 89821.31, 125286.95, 144004.58, 129005.80, 122930.23, 147248.81, -19054.91, -67334.09, -73727.63, 6439.74, -71024.97, -82335.93, -60749.60, -77606.06, 0.000, 0.000, 0.000, 17:00:25.043
221, -42556.76, 97276.06, 89823.55, 125277.97, 143992.25, 129010.35, 122918.19, 147345.28, -19054.91, -67334.09, -73727.63, 6439.74, -71024.97, -82335.93, -60749.60, -77606.06, 0.000, 0.000, 0.000, 17:00:25.043
222, -42556.76, 97276.06, 89823.55, 125277.97, 143992.25, 129010.35, 122918.19, 147345.28, -19054.82, -67335.77, -73726.49, 6436.43, -71030.63, -82355.83, -60762.66, -77626.96, 0.000, 0.000, 0.000, 17:00:25.044
223, -42582.80, 97286.95, 89836.66, 125291.83, 143986.83, 129003.67, 122911.99, 147347.17, -19054.82, -67335.77, -73726.49, 6436.43, -71030.63, -82355.83, -60762.66, -77626.96, 0.000, 0.000, 0.000, 17:00:25.044
224, -42582.80, 97286.95, 89836.66, 125291.83, 143986.83, 129003.67, 122911.99, 147347.17, -19017.89, -67298.24, -73692.09, 6473.65, -71005.92, -82283.27, -60744.37, -77605.86, 0.000, 0.000, 0.000, 17:00:25.044
225, -42606.85, 97305.34, 89852.02, 125310.36, 144000.80, 129024.23, 122916.87, 147312.14, -19017.89, -67298.24, -73692.09, 6473.65, -71005.92, -82283.27, -60744.37, -77605.86, 0.000, 0.000, 0.000, 17:00:25.044
226, -42606.85, 97305.34, 89852.02, 125310.36, 144000.80, 129024.23, 122916.87, 147312.14, -19026.92, -67318.00, -73704.85, 6458.33, -71003.40, -82319.59, -60760.27, -77632.68, 0.000, 0.000, 0.000, 17:00:25.044
227, -42671.25, 97304.85, 89846.21, 125299.63, 143998.03, 128970.66, 122915.37, 147181.92, -19026.92, -67318.00, -73704.85, 6458.33, -71003.40, -82319.59, -60760.27, -77632.68, -0.200, 0.924, -0.178, 17:00:25.045
228, -42671.25, 97304.85, 89846.21, 125299.63, 143998.03, 128970.66, 122915.37, 147181.92, -19022.03, -67310.04, -73696.45, 6467.25, -70997.01, -82334.97, -60747.01, -77627.72, 0.000, 0.000, 0.000, 17:00:25.045
229, -42669.08, 97280.40, 89825.89, 125281.03, 143980.14, 128995.24, 122904.35, 147129.53, -19022.03, -67310.04, -73696.45, 6467.25, -70997.01, -82334.97, -60747.01, -77627.72, 0.000, 0.000, 0.000, 17:00:25.045
230, -42669.08, 97280.40, 89825.89, 125281.03, 143980.14, 128995.24, 122904.35, 147129.53, -19060.11, -67351.48, -73738.72, 6425.54, -71033.57, -82351.34, -60780.25, -77618.48, 0.000, 0.000, 0.000, 17:00:25.045
231, -42743.46, 97258.43, 89807.92, 125263.10, 143965.91, 128933.24, 122889.40, 147069.73, -19060.11, -67351.48, -73738.72, 6425.54, -71033.57, -82351.34, -60780.25, -77618.48, 0.000, 0.000, 0.000, 17:00:25.045
232, -42743.46, 97258.43, 89807.92, 125263.10, 143965.91, 128933.24, 122889.40, 147069.73, -19060.79, -67341.94, -73729.08, 6434.91, -71025.19, -82355.49, -60766.05, -77624.43, 0.000, 0.000, 0.000, 17:00:25.046
233, -42776.66, 97274.07, 89831.48, 125288.03, 143996.39, 128917.30, 122920.15, 147102.86, -19060.79, -67341.94, -73729.08, 6434.91, -71025.19, -82355.49, -60766.05, -77624.43, 0.000, 0.000, 0.000, 17:00:25.046
234, -42776.66, 97274.07, 89831.48, 125288.03, 143996.39, 128917.30, 122920.15, 147102.86, -19051.96, -67322.85, -73715.85, 6452.66, -71010.73, -82320.91, -60740.06, -77595.53, 0.000, 0.000, 0.000, 17:00:25.046
235, -42784.99, 97254.25, 89815.38, 125278.62, 143987.56, 128868.98, 122919.84, 147133.19, -19051.96, -67322.85, -73715.85, 6452.66, -71010.73, -82320.91, -60740.06, -77595.53, 0.000, 0.000, 0.000, 17:00:25.046
236, -42784.99, 97254.25, 89815.38, 125278.62, 143987.56, 128868.98, 122919.84, 147133.19, -19084.03, -67350.27, -73742.23, 6426.42, -71034.27, -82340.78, -60758.50, -77602.51, 0.000, 0.000, 0.000, 17:00:25.046
237, -42854.91, 97268.15, 89828.75, 125290.40, 144021.05, 128765.65, 122943.98, 146775.19, -19084.03, -67350.27, -73742.23, 6426.42, -71034.27, -82340.78, -60758.50, -77602.51, -0.202, 0.934, -0.184, 17:00:25.046
238, -42854.91, 97268.15, 89828.75, 125290.40, 144021.05, 128765.65, 122943.98, 146775.19, -19060.56, -67324.03, -73712.63, 6458.16, -71005.32, -82321.38, -60730.34, -77616.88, 0.000, 0.000, 0.000, 17:00:25.047
239, -42803.57, 97277.41, 89837.52, 125304.97, 144028.83, 128810.51, 122958.06, 146432.16, -19060.56, -67324.03, -73712.63, 6458.16, -71005.32, -82321.38, -60730.34, -77616.88, 0.000, 0.000, 0.000, 17:00:25.047
240, -42803.57, 97277.41, 89837.52, 125304.97, 144028.83, 128810.51, 122958.06, 146432.16, -19055.00, -67322.96, -73710.40, 6462.49, -71006.64, -82312.77, -60722.51, -77570.43, 0.000, 0.000, 0.000, 17:00:25.047
241, -42833.63, 97268.40, 89830.59, 125298.11, 144020.72, 128774.20, 122947.80, 146274.30, -19055.00, -67322.96, -73710.40, 6462.49, -71006.64, -82312.77, -60722.51, -77570.43, 0.000, 0.000, 0.000, 17:00:25.047
242, -42833.63, 97268.40, 89830.59, 125298.11, 144020.72, 128774.20, 122947.80, 146274.30, -19079.22, -67351.26, -73739.07, 6434.33, -71030.31, -82357.80, -60765.23, -77620.41, 0.000, 0.000, 0.000, 17:00:25.048
243, -42883.03, 97235.67, 89785.86, 125255.98, 143977.34, 128710.33, 122907.68, 146168.77, -19079.22, -67351.26, -73739.07, 6434.33, -71030.31, -82357.80, -60765.23, -77620.41, 0.000, 0.000, 0.000, 17:00:25.048
244, -42883.03, 97235.67, 89785.86, 125255.98, 143977.34, 128710.33, 122907.68, 146168.77, -19073.50, -67348.87, -73743.59, 6434.58, -71039.85, -82360.61, -60775.38, -77599.04, 0.000, 0.000, 0.000, 17:00:25.048
245, -42839.11, 97262.05, 89816.57, 125292.63, 143993.11, 128735.02, 122922.21, 146117.50, -19073.50, -67348.87, -73743.59, 6434.58, -71039.85, -82360.61, -60775.38, -77599.04, 0.000, 0.000, 0.000, 17:00:25.048
246, -42839.11, 97262.05, 89816.57, 125292.63, 143993.11, 128735.02, 122922.21, 146117.50, -19035.79, -67319.79, -73716.20, 6462.74, -71013.95, -82317.00, -60758.34, -77579.23, 0.000, 0.000, 0.000, 17:00:25.048
247, -42870.18, 97264.59, 89828.46, 125301.93, 143984.77, 128702.08, 122915.62, 146025.64, -19035.79, -67319.79, -73716.20, 6462.74, -71013.95, -82317.00, -60758.34, -77579.23, -0.200, 0.938, -0.178, 17:00:25.048
248, -42870.18, 97264.59, 89828.46, 125301.93, 143984.77, 128702.08, 122915.62, 146025.64, -19021.04, -67312.86, -73700.12, 6482.68, -71005.81, -82299.30, -60753.98, -77582.52, 0.000, 0.000, 0.000, 17:00:25.048
249, -42820.29, 97286.99, 89861.66, 125336.24, 144000.86, 128770.36, 122937.09, 146011.72, -19021.04, -67312.86, -73700.12, 6482.68, -71005.81, -82299.30, -60753.98, -77582.52, 0.000, 0.000, 0.000, 17:00:25.049
250, -42820.29, 97286.99, 89861.66, 125336.24, 144000.86, 128770.36, 122937.09, 146011.72, -19005.82, -67306.64, -73691.53, 6493.20, -70995.30, -82315.93, -60742.85, -77548.73, 0.000, 0.000, 0.000, 17:00:25.049
251, -42859.60, 97255.41, 89831.14, 125299.74, 143977.53, 128698.81, 122909.66, 145937.53, -19005.82, -67306.64, -73691.53, 6493.20, -70995.30, -82315.93, -60742.85, -77548.73, 0.000, 0.000, 0.000, 17:00:25.049
252, -42859.60, 97255.41, 89831.14, 125299.74, 143977.53, 128698.81, 122909.66, 145937.53, -19038.75, -67332.98, -73718.13, 6466.76, -71019.85, -82325.48, -60778.46, -77621.59, 0.000, 0.000, 0.000, 17:00:25.049
253, -42880.75, 97241.77, 89817.94, 125291.98, 143974.78, 128677.18, 122909.27, 145821.45, -19038.75, -67332.98, -73718.13, 6466.76, -71019.85, -82325.48, -60778.46, -77621.59, 0.000, 0.000, 0.000, 17:00:25.049
254, -42880.75, 97241.77, 89817.94, 125291.98, 143974.78, 128677.18, 122909.27, 145821.45, -19037.43, -67332.08, -73718.40, 6465.91, -71017.63, -82323.46, -60754.86, -77581.02, 0.000, 0.000, 0.000, 17:00:25.050
255, -42837.27, 97249.45, 89827.37, 125303.00, 143983.11, 128718.55, 122928.73, 145714.58, -19037.43, -67332.08, -73718.40, 6465.91, -71017.63, -82323.46, -60754.86, -77581.02, 0.000, 0.000, 0.000, 17:00:25.050
0, -42837.27, 97249.45, 89827.37, 125303.00, 143983.11, 128718.55, 122928.73, 145714.58, -19023.90, -67329.46, -73720.37, 6461.82, -71009.66, -82325.54, -60744.75, -77581.18, 0.000, 0.000, 0.000, 17:00:25.050
1, -42898.83, 97215.71, 89807.88, 125283.71, 143978.98, 128658.89, 122919.80, 145576.61, -19023.90, -67329.46, -73720.37, 6461.82, -71009.66, -82325.54, -60744.75, -77581.18, -0.200, 0.932, -0.184, 17:00:25.051
2, -42898.83, 97215.71, 89807.88, 125283.71, 143978.98, 128658.89, 122919.80, 145576.61, -19051.38, -67344.48, -73743.34, 6444.32, -71031.90, -82342.33, -60750.23, -77591.82, 0.000, 0.000, 0.000, 17:00:25.051
3, -42853.66, 97229.10, 89832.95, 125308.75, 144004.31, 128705.30, 122960.25, 145635.16, -19051.38, -67344.48, -73743.34, 6444.32, -71031.90, -82342.33, -60750.23, -77591.82, 0.000, 0.000, 0.000, 17:00:25.051
4, -42853.66, 97229.10, 89832.95, 125308.75, 144004.31, 128705.30, 122960.25, 145635.16, -19020.91, -67322.09, -73721.03, 6464.84, -71015.02, -82326.75, -60719.65, -77536.99, 0.000, 0.000, 0.000, 17:00:25.052
5, -42885.62, 97209.37, 89815.50, 125287.47, 144003.08, 128659.07, 122943.44, 145632.36, -19020.91, -67322.09, -73721.03, 6464.84, -71015.02, -82326.75, -60719.65, -77536.99, 0.000, 0.000, 0.000, 17:00:25.052
6, -42885.62, 97209.37, 89815.50, 125287.47, 144003.08, 128659.07, 122943.44, 145632.36, -19043.73, -67348.87, -73745.42, 6434.13, -71023.96, -82344.67, -60747.05, -77578.95, 0.000, 0.000, 0.000, 17:00:25.052
7, -42889.33, 97190.63, 89804.12, 125282.66, 144006.66, 128665.38, 122939.35, 145623.02, -19043.73, -67348.87, -73745.42, 6434.13, -71023.96, -82344.67, -60747.05, -77578.95, 0.000, 0.000, 0.000, 17:00:25.053
8, -42889.33, 97190.63, 89804.12, 125282.66, 144006.66, 128665.38, 122939.35, 145623.02, -19036.85, -67339.73, -73746.56, 6436.45, -71028.01, -82318.09, -60745.89, -77534.24, 0.000, 0.000, 0.000, 17:00:25.054
9, -42874.24, 97196.40, 89797.15, 125281.19, 144002.94, 128706.03, 122942.75, 145583.39, -19036.85, -67339.73, -73746.56, 6436.45, -71028.01, -82318.09, -60745.89, -77534.24, 0.000, 0.000, 0.000, 17:00:25.054
10, -42874.24, 97196.40, 89797.15, 125281.19, 144002.94, 128706.03, 122942.75, 145583.39, -19043.13, -67349.02, -73754.65, 6425.59, -71034.02, -82351.96, -60753.43, -77540.84, 0.000, 0.000, 0.000, 17:00:25.054
11, -42923.30, 97192.40, 89786.59, 125269.27, 143992.48, 128658.02, 122931.17, 145504.53, -19043.13, -67349.02, -73754.65, 6425.59, -71034.02, -82351.96, -60753.43, -77540.84, -0.200, 0.924, -0.186, 17:00:25.054
12, -42923.30, 97192.40, 89786.59, 125269.27, 143992.48, 128658.02, 122931.17, 145504.53, -19047.24, -67342.23, -73755.95, 6422.77, -71048.88, -82359.07, -60761.45, -77550.88, 0.000, 0.000, 0.000, 17:00:25.054
13, -42886.31, 97195.62, 89791.67, 125285.13, 143973.95, 128715.20, 122930.84, 145493.77, -19047.24, -67342.23, -73755.95, 6422.77, -71048.88, -82359.07, -60761.45, -77550.88, 0.000, 0.000, 0.000, 17:00:25.509
14, -42886.31, 97195.62, 89791.67, 125285.13, 143973.95, 128715.20, 122930.84, 145493.77, -19035.57, -67340.08, -73742.13, 6435.98, -71035.79, -82345.88, -60758.66, -77517.28, 0.000, 0.000, 0.000, 17:00:25.509
15, -42906.21, 97218.35, 89817.76, 125307.85, 143997.72, 128683.01, 122928.71, 145481.80, -19035.57, -67340.08, -73742.13, 6435.98, -71035.79, -82345.88, -60758.66, -77517.28, 0.000, 0.000, 0.000, 17:00:25.509
16, -42906.21, 97218.35, 89817.76, 125307.85, 143997.72, 128683.01, 122928.71, 145481.80, -19023.66, -67337.66, -73723.43, 6447.70, -71025.39, -82347.22, -60761.07, -77566.36, 0.000, 0.000, 0.000, 17:00:25.509
17, -42914.39, 97199.64, 89806.00, 125294.58, 143968.08, 128667.39, 122902.23, 145466.80, -19023.66, -67337.66, -73723.43, 6447.70, -71025.39, -82347.22, -60761.07, -77566.36, 0.000, 0.000, 0.000, 17:00:25.509
18, -42914.39, 97199.64, 89806.00, 125294.58, 143968.08, 128667.39, 122902.23, 145466.80, -19031.39, -67333.69, -73718.13, 6451.83, -71028.68, -82346.91, -60762.41, -77538.69, 0.000, 0.000, 0.000, 17:00:25.510
19, -42860.88, 97231.11, 89838.70, 125334.92, 143991.47, 128728.84, 122926.92, 145518.39, -19031.39, -67333.69, -73718.13, 6451.83, -71028.68, -82346.91, -60762.41, -77538.69, 0.000, 0.000, 0.000, 17:00:25.510
20, -42860.88, 97231.11, 89838.70, 125334.92, 143991.47, 128728.84, 122926.92, 145518.39, -19001.60, -67296.14, -73689.12, 6482.70, -71000.13, -82286.58, -60737.38, -77508.27, 0.000, 0.000, 0.000, 17:00:25.510
21, -42899.10, 97237.84, 89848.20, 125345.52, 144006.67, 128699.51, 122951.58, 145541.95, -19001.60, -67296.14, -73689.12, 6482.70, -71000.13, -82286.58, -60737.38, -77508.27, -0.194, 0.922, -0.178, 17:00:25.510
22, -42899.10, 97237.84, 89848.20, 125345.52, 144006.67, 128699.51, 122951.58, 145541.95, -19010.05, -67301.15, -73701.59, 6470.96, -71008.56, -82314.05, -60732.28, -77503.93, 0.000, 0.000, 0.000, 17:00:25.510
23, -42866.38, 97222.09, 89829.09, 125329.60, 143994.25, 128746.58, 122948.88, 145611.23, -19010.05, -67301.15, -73701.59, 6470.96, -71008.56, -82314.05, -60732.28, -77503.93, 0.000, 0.000, 0.000, 17:00:25.511
24, -42866.38, 97222.09, 89829.09, 125329.60, 143994.25, 128746.58, 122948.88, 145611.23, -19017.31, -67310.02, -73714.22, 6459.56, -71020.77, -82334.32, -60731.43, -77475.08, 0.000, 0.000, 0.000, 17:00:25.511
25, -42892.68, 97226.46, 89828.75, 125325.35, 144002.27, 128733.48, 122960.81, 145611.70, -19017.31, -67310.02, -73714.22, 6459.56, -71020.77, -82334.32, -60731.43, -77475.08, 0.000, 0.000, 0.000, 17:00:25.511
26, -42892.68, 97226.46, 89828.75, 125325.35, 144002.27, 128733.48, 122960.81, 145611.70, -19026.18, -67315.38, -73717.95, 6452.81, -71018.80, -82326.45, -60728.86, -77495.91, 0.000, 0.000, 0.000, 17:00:25.511
27, -42893.29, 97217.91, 89818.31, 125314.58, 143991.75, 128737.15, 122947.30, 145604.33, -19026.18, -67315.38, -73717.95, 6452.81, -71018.80, -82326.45, -60728.86, -77495.91, 0.000, 0.000, 0.000, 17:00:25.511
28, -42893.29, 97217.91, 89818.31, 125314.58, 143991.75, 128737.15, 122947.30, 145604.33, -19028.40, -67321.13, -73724.57, 6446.27, -71030.22, -82329.59, -60732.44, -77453.55, 0.000, 0.000, 0.000, 17:00:25.512
29, -42860.68, 97220.01, 89821.87, 125317.55, 144002.56, 128787.48, 122951.29, 145622.27, -19028.40, -67321.13, -73724.57, 6446.27, -71030.22, -82329.59, -60732.44, -77453.55, 0.000, 0.000, 0.000, 17:00:25.512
30, -42860.68, 97220.01, 89821.87, 125317.55, 144002.56, 128787.48, 122951.29, 145622.27, -19024.20, -67320.30, -73720.55, 6445.75, -71022.33, -82344.31, -60737.38, -77442.45, -0.194, 0.922, -0.178, 17:00:25.512
31, -42913.78, 97230.53, 89829.09, 125310.38, 144018.36, 128732.72, 122963.02, 145630.03, -19024.20, -67320.30, -73720.55, 6445.75, -71022.33, -82344.31, -60737.38, -77442.45, 0.000, 0.000, 0.000, 17:00:25.512
32, -42913.78, 97230.53, 89829.09, 125310.38, 144018.36, 128732.72, 122963.02, 145630.03, -19013.20, -67302.80, -73705.92, 6458.51, -71009.50, -82340.25, -60729.89, -77456.59, 0.000, 0.000, 0.000, 17:00:25.512
33, -42909.22, 97235.54, 89829.27, 125313.06, 144013.22, 128768.48, 122970.73, 145671.66, -19013.20, -67302.80, -73705.92, 6458.51, -71009.50, -82340.25, -60729.89, -77456.59, 0.000, 0.000, 0.000, 17:00:25.512
34, -42909.22, 97235.54, 89829.27, 125313.06, 144013.22, 128768.48, 122970.73, 145671.66, -19024.55, -67307.25, -73718.64, 6451.83, -71027.56, -82339.29, -60740.71, -77452.39, 0.000, 0.000, 0.000, 17:00:25.513
35, -42974.09, 97204.45, 89799.25, 125292.34, 143985.80, 128749.38, 122932.89, 145645.53, -19024.55, -67307.25, -73718.64, 6451.83, -71027.56, -82339.29, -60740.71, -77452.39, 0.000, 0.000, 0.000, 17:00:25.513
36, -42974.09, 97204.45, 89799.25, 125292.34, 143985.80, 128749.38, 122932.89, 145645.53, -19057.43, -67338.65, -73749.34, 6420.43, -71048.19, -82346.95, -60768.22, -77483.15, 0.000, 0.000, 0.000, 17:00:25.513
37, -43021.07, 97209.50, 89806.29, 125296.01, 143983.70, 128741.95, 122934.32, 145675.08, -19057.43, -67338.65, -73749.34, 6420.43, -71048.19, -82346.95, -60768.22, -77483.15, 0.000, 0.000, 0.000, 17:00:25.513
38, -43021.07, 97209.50, 89806.29, 125296.01, 143983.70, 128741.95, 122934.32, 145675.08, -19023.28, -67306.84, -73715.11, 6456.26, -71018.75, -82328.06, -60740.62, -77455.85, 0.000, 0.000, 0.000, 17:00:25.513
39, -42969.28, 97250.36, 89834.74, 125332.09, 143996.95, 128817.95, 122958.73, 145670.61, -19023.28, -67306.84, -73715.11, 6456.26, -71018.75, -82328.06, -60740.62, -77455.85, 0.000, 0.000, 0.000, 17:00:25.513
40, -42969.28, 97250.36, 89834.74, 125332.09, 143996.95, 128817.95, 122958.73, 145670.61, -19006.45, -67288.65, -73699.22, 6472.44, -71014.95, -82316.76, -60728.32, -77423.49, -0.200, 0.924, -0.178, 17:00:25.514
41, -43021.77, 97243.36, 89826.85, 125320.37, 143978.88, 128774.97, 122942.57, 145623.06, -19006.45, -67288.65, -73699.22, 6472.44, -71014.95, -82316.76, -60728.32, -77423.49, 0.000, 0.000, 0.000, 17:00:25.514
42, -43021.77, 97243.36, 89826.85, 125320.37, 143978.88, 128774.97, 122942.57, 145623.06, -19016.51, -67300.54, -73711.73, 6459.99, -71027.70, -82346.28, -60754.09, -77464.10, 0.000, 0.000, 0.000, 17:00:25.514
43, -42992.26, 97262.54, 89846.45, 125341.83, 143992.33, 128817.50, 122955.18, 145654.41, -19016.51, -67300.54, -73711.73, 6459.99, -71027.70, -82346.28, -60754.09, -77464.10, 0.000, 0.000, 0.000, 17:00:25.514
44, -42992.26, 97262.54, 89846.45, 125341.83, 143992.33, 128817.50, 122955.18, 145654.41, -18988.72, -67276.76, -73690.77, 6482.81, -71013.93, -82298.20, -60730.45, -77419.27, 0.000, 0.000, 0.000, 17:00:25.514
45, -43000.29, 97240.16, 89830.02, 125315.70, 143969.84, 128791.20, 122937.01, 145668.73, -18988.72, -67276.76, -73690.77, 6482.81, -71013.93, -82298.20, -60730.45, -77419.27, 0.000, 0.000, 0.000, 17:00:25.514
46, -43000.29, 97240.16, 89830.02, 125315.70, 143969.84, 128791.20, 122937.01, 145668.73, -19010.70, -67294.88, -73711.65, 6461.82, -71025.93, -82333.72, -60752.40, -77451.02, 0.000, 0.000, 0.000, 17:00:25.515
47, -43021.92, 97239.00, 89833.87, 125318.29, 143992.09, 128789.95, 122947.84, 145667.03, -19010.70, -67294.88, -73711.65, 6461.82, -71025.93, -82333.72, -60752.40, -77451.02, 0.000, 0.000, 0.000, 17:00:25.515
48, -43021.92, 97239.00, 89833.87, 125318.29, 143992.09, 128789.95, 122947.84, 145667.03, -19010.40, -67296.95, -73717.77, 6459.14, -71030.49, -82335.51, -60744.93, -77428.70, 0.000, 0.000, 0.000, 17:00:25.515
49, -43013.29, 97231.91, 89826.20, 125307.74, 143992.92, 128835.72, 122946.37, 145683.81, -19010.40, -67296.95, -73717.77, 6459.14, -71030.49, -82335.51, -60744.93, -77428.70, 0.000, 0.000, 0.000, 17:00:25.515
50, -43013.29, 97231.91, 89826.20, 125307.74, 143992.92, 128835.72, 122946.37, 145683.81, -19003.90, -67294.33, -73717.15, 6458.16, -71028.95, -82347.45, -60739.12, -77410.80, -0.208, 0.924, -0.178, 17:00:25.515
51, -43067.90, 97236.19, 89833.80, 125313.60, 144002.42, 128802.68, 122964.74, 145688.16, -19003.90, -67294.33, -73717.15, 6458.16, -71028.95, -82347.45, -60739.12, -77410.80, 0.000, 0.000, 0.000, 17:00:25.515
52, -43067.90, 97236.19, 89833.80, 125313.60, 144002.42, 128802.68, 122964.74, 145688.16, -19013.73, -67295.20, -73724.73, 6451.76, -71019.70, -82328.42, -60738.11, -77430.42, 0.000, 0.000, 0.000, 17:00:25.516
53, -43050.69, 97213.57, 89816.13, 125303.45, 143991.91, 128850.67, 122956.72, 145740.14, -19013.73, -67295.20, -73724.73, 6451.76, -71019.70, -82328.42, -60738.11, -77430.42, 0.000, 0.000, 0.000, 17:00:25.516
54, -43050.69, 97213.57, 89816.13, 125303.45, 143991.91, 128850.67, 122956.72, 145740.14, -19011.77, -67297.23, -73727.63, 6447.49, -71026.15, -82343.66, -60735.77, -77400.45, 0.000, 0.000, 0.000, 17:00:25.516
55, -43069.48, 97234.17, 89842.81, 125318.09, 144022.36, 128846.52, 122986.13, 145754.77, -19011.77, -67297.23, -73727.63, 6447.49, -71026.15, -82343.66, -60735.77, -77400.45, 0.000, 0.000, 0.000, 17:00:25.516
56, -43069.48, 97234.17, 89842.81, 125318.09, 144022.36, 128846.52, 122986.13, 145754.77, -18992.30, -67278.63, -73709.39, 6466.69, -71009.66, -82323.62, -60714.02, -77404.00, 0.000, 0.000, 0.000, 17:00:25.516
57, -43075.41, 97229.33, 89836.40, 125320.88, 144019.17, 128845.82, 122982.96, 145757.53, -18992.30, -67278.63, -73709.39, 6466.69, -71009.66, -82323.62, -60714.02, -77404.00, 0.000, 0.000, 0.000, 17:00:25.516
58, -43075.41, 97229.33, 89836.40, 125320.88, 144019.17, 128845.82, 122982.96, 145757.53, -19005.35, -67288.70, -73716.81, 6461.08, -71022.66, -82315.75, -60718.55, -77368.30, 0.000, 0.000, 0.000, 17:00:25.517
59, -43072.93, 97219.40, 89823.73, 125315.97, 144003.39, 128862.72, 122964.38, 145769.75, -19005.35, -67288.70, -73716.81, 6461.08, -71022.66, -82315.75, -60718.55, -77368.30, 0.000, 0.000, 0.000, 17:00:25.517
60, -43072.93, 97219.40, 89823.73, 125315.97, 144003.39, 128862.72, 122964.38, 145769.75, -19019.19, -67307.09, -73726.73, 6449.53, -71034.60, -82349.73, -60744.06, -77392.78, -0.204, 0.924, -0.178, 17:00:25.517
61, -43146.09, 97208.00, 89817.60, 125315.97, 143997.78, 128801.54, 122956.36, 145733.91, -19019.19, -67307.09, -73726.73, 6449.53, -71034.60, -82349.73, -60744.06, -77392.78, 0.000, 0.000, 0.000, 17:00:25.517
62, -43146.09, 97208.00, 89817.60, 125315.97, 143997.78, 128801.54, 122956.36, 145733.91, -19016.66, -67296.48, -73716.84, 6460.73, -71041.15, -82337.90, -60738.70, -77393.47, 0.000, 0.000, 0.000, 17:00:25.517
63, -43098.70, 97239.34, 89840.69, 125346.50, 144003.19, 128865.54, 122970.17, 145790.64, -19016.66, -67296.48, -73716.84, 6460.73, -71041.15, -82337.90, -60738.70, -77393.47, 0.000, 0.000, 0.000, 17:00:25.518
64, -43098.70, 97239.34, 89840.69, 125346.50, 144003.19, 128865.54, 122970.17, 145790.64, -18995.38, -67279.30, -73696.16, 6481.31, -71016.16, -82303.45, -60727.72, -77347.05, 0.000, 0.000, 0.000, 17:00:25.518
65, -43111.66, 97243.90, 89846.86, 125348.87, 143999.59, 128864.04, 122964.19, 145774.31, -18995.38, -67279.30, -73696.16, 6481.31, -71016.16, -82303.45, -60727.72, -77347.05, 0.000, 0.000, 0.000, 17:00:25.518
66, -43111.66, 97243.90, 89846.86, 125348.87, 143999.59, 128864.04, 122964.19, 145774.31, -18996.28, -67291.82, -73704.41, 6471.23, -71024.56, -82329.98, -60749.54, -77377.69, 0.000, 0.000, 0.000, 17:00:25.519
67, -43104.71, 97235.02, 89832.77, 125329.67, 143975.34, 128840.73, 122948.29, 145756.92, -18996.28, -67291.82, -73704.41, 6471.23, -71024.56, -82329.98, -60749.54, -77377.69, 0.000, 0.000, 0.000, 17:00:25.520
68, -43104.71, 97235.02, 89832.77, 125329.67, 143975.34, 128840.73, 122948.29, 145756.92, -18988.72, -67283.51, -73697.45, 6478.43, -71021.80, -82333.81, -60744.28, -77349.66, 0.000, 0.000, 0.000, 17:00:25.521
69, -43066.29, 97252.02, 89847.69, 125349.12, 143990.94, 128880.53, 122958.28, 145777.84, -18988.72, -67283.51, -73697.45, 6478.43, -71021.80, -82333.81, -60744.28, -77349.66, 0.000, 0.000, 0.000, 17:00:25.521
70, -43066.29, 97252.02, 89847.69, 125349.12, 143990.94, 128880.53, 122958.28, 145777.84, -18996.99, -67289.92, -73701.08, 6472.48, -71026.95, -82327.26, -60752.42, -77352.63, -0.198, 0.930, -0.176, 17:00:25.521
71, -43118.88, 97239.83, 89832.48, 125328.93, 143975.36, 128827.98, 122946.91, 145720.77, -18996.99, -67289.92, -73701.08, 6472.48, -71026.95, -82327.26, -60752.42, -77352.63, 0.000, 0.000, 0.000, 17:00:25.521
72, -43118.88, 97239.83, 89832.48, 125328.93, 143975.36, 128827.98, 122946.91, 145720.77, -19002.94, -67292.05, -73699.87, 6472.53, -71030.40, -82318.90, -60750.39, -77373.29, 0.000, 0.000, 0.000, 17:00:25.521
73, -43080.86, 97237.26, 89829.13, 125326.38, 143988.22, 128876.98, 122958.13, 145733.53, -19002.94, -67292.05, -73699.87, 6472.53, -71030.40, -82318.90, -60750.39, -77373.29, 0.000, 0.000, 0.000, 17:00:25.521
74, -43080.86, 97237.26, 89829.13, 125326.38, 143988.22, 128876.98, 122958.13, 145733.53, -19011.28, -67307.11, -73712.59, 6456.77, -71037.95, -82344.00, -60747.86, -77347.96, 0.000, 0.000, 0.000, 17:00:25.522
75, -43121.95, 97218.57, 89818.94, 125304.68, 143992.69, 128847.70, 122958.44, 145703.66, -19011.28, -67307.11, -73712.59, 6456.77, -71037.95, -82344.00, -60747.86, -77347.96, 0.000, 0.000, 0.000, 17:00:25.522
76, -43121.95, 97218.57, 89818.94, 125304.68, 143992.69, 128847.70, 122958.44, 145703.66, -19023.21, -67329.06, -73733.17, 6430.78, -71052.28, -82374.20, -60757.43, -77386.97, 0.000, 0.000, 0.000, 17:00:25.522
77, -43139.40, 97215.47, 89817.51, 125297.91, 144002.16, 128854.13, 122969.37, 145680.06, -19023.21, -67329.06, -73733.17, 6430.78, -71052.28, -82374.20, -60757.43, -77386.97, 0.000, 0.000, 0.000, 17:00:25.522
78, -43139.40, 97215.47, 89817.51, 125297.91, 144002.16, 128854.13, 122969.37, 145680.06, -19014.99, -67314.94, -73723.54, 6441.88, -71039.70, -82351.27, -60736.30, -77350.09, 0.000, 0.000, 0.000, 17:00:25.522
79, -43123.24, 97226.69, 89824.20, 125305.95, 144017.47, 128894.15, 122981.22, 145695.58, -19014.99, -67314.94, -73723.54, 6441.88, -71039.70, -82351.27, -60736.30, -77350.09, -0.200, 0.924, -0.182, 17:00:25.522
80, -43123.24, 97226.69, 89824.20, 125305.95, 144017.47, 128894.15, 122981.22, 145695.58, -19016.69, -67320.57, -73726.76, 6435.94, -71035.49, -82359.70, -60734.05, -77366.23, 0.000, 0.000, 0.000, 17:00:25.523
81, -43179.68, 97218.88, 89811.43, 125286.77, 144002.36, 128833.28, 122977.73, 145674.03, -19016.69, -67320.57, -73726.76, 6435.94, -71035.49, -82359.70, -60734.05, -77366.23, 0.000, 0.000, 0.000, 17:00:25.523
82, -43179.68, 97218.88, 89811.43, 125286.77, 144002.36, 128833.28, 122977.73, 145674.03, -19023.59, -67317.53, -73730.91, 6436.88, -71040.68, -82368.45, -60730.56, -77381.18, 0.000, 0.000, 0.000, 17:00:25.523
83, -43133.16, 97234.45, 89821.71, 125318.88, 144012.19, 128895.71, 122985.91, 145710.91, -19023.59, -67317.53, -73730.91, 6436.88, -71040.68, -82368.45, -60730.56, -77381.18, 0.000, 0.000, 0.000, 17:00:25.524
84, -43133.16, 97234.45, 89821.71, 125318.88, 144012.19, 128895.71, 122985.91, 145710.91, -19002.07, -67282.75, -73710.58, 6467.68, -71025.41, -82327.44, -60719.92, -77338.06, 0.000, 0.000, 0.000, 17:00:25.524
85, -43139.91, 97235.98, 89819.41, 125325.22, 144009.27, 128891.45, 122971.56, 145705.30, -19002.07, -67282.75, -73710.58, 6467.68, -71025.41, -82327.44, -60719.92, -77338.06, 0.000, 0.000, 0.000, 17:00:25.524
86, -43139.91, 97235.98, 89819.41, 125325.22, 144009.27, 128891.45, 122971.56, 145705.30, -19022.05, -67302.48, -73737.13, 6443.83, -71054.34, -82334.08, -60748.62, -77362.54, 0.000, 0.000, 0.000, 17:00:25.524
87, -43162.43, 97216.41, 89805.15, 125315.85, 143995.36, 128883.75, 122953.61, 145674.03, -19022.05, -67302.48, -73737.13, 6443.83, -71054.34, -82334.08, -60748.62, -77362.54, 0.000, 0.000, 0.000, 17:00:25.524
88, -43162.43, 97216.41, 89805.15, 125315.85, 143995.36, 128883.75, 122953.61, 145674.03, -19005.71, -67280.70, -73716.07, 6464.37, -71025.62, -82332.29, -60732.59, -77336.67, 0.000, 0.000, 0.000, 17:00:25.525
89, -43140.12, 97241.20, 89830.98, 125338.59, 144021.45, 128938.20, 122979.67, 145674.77, -19005.71, -67280.70, -73716.07, 6464.37, -71025.62, -82332.29, -60732.59, -77336.67, -0.198, 0.924, -0.180, 17:00:25.525
90, -43140.12, 97241.20, 89830.98, 125338.59, 144021.45, 128938.20, 122979.67, 145674.77, -19010.87, -67282.55, -73721.86, 6462.60, -71039.25, -82326.37, -60733.51, -77312.40, 0.000, 0.000, 0.000, 17:00:25.525
91, -43217.01, 97222.98, 89818.58, 125324.62, 144001.83, 128892.76, 122958.51, 145649.53, -19010.87, -67282.55, -73721.86, 6462.60, -71039.25, -82326.37, -60733.51, -77312.40, 0.000, 0.000, 0.000, 17:00:25.525
92, -43217.01, 97222.98, 89818.58, 125324.62, 144001.83, 128892.76, 122958.51, 145649.53, -19010.25, -67268.84, -73713.39, 6471.10, -71021.88, -82350.41, -60734.00, -77317.90, 0.000, 0.000, 0.000, 17:00:25.525
93, -43214.05, 97243.18, 89838.84, 125347.28, 144015.02, 128947.19, 122975.67, 145675.48, -19010.25, -67268.84, -73713.39, 6471.10, -71021.88, -82350.41, -60734.00, -77317.90, 0.000, 0.000, 0.000, 17:00:25.525
94, -43214.05, 97243.18, 89838.84, 125347.28, 144015.02, 128947.19, 122975.67, 145675.48, -18993.97, -67248.82, -73697.97, 6486.70, -71014.98, -82312.58, -60721.84, -77278.77, 0.000, 0.000, 0.000, 17:00:25.526
95, -43243.65, 97246.38, 89833.76, 125340.42, 144015.91, 128922.16, 122969.55, 145668.27, -18993.97, -67248.82, -73697.97, 6486.70, -71014.98, -82312.58, -60721.84, -77278.77, 0.000, 0.000, 0.000, 17:00:25.526
96, -43243.65, 97246.38, 89833.76, 125340.42, 144015.91, 128922.16, 122969.55, 145668.27, -19012.66, -67279.44, -73714.38, 6466.36, -71028.25, -82337.61, -60744.24, -77325.01, 0.000, 0.000, 0.000, 17:00:25.526
97, -43256.23, 97221.26, 89815.25, 125321.38, 143997.23, 128905.45, 122950.46, 145648.03, -19012.66, -67279.44, -73714.38, 6466.36, -71028.25, -82337.61, -60744.24, -77325.01, 0.000, 0.000, 0.000, 17:00:25.526
98, -43256.23, 97221.26, 89815.25, 125321.38, 143997.23, 128905.45, 122950.46, 145648.03, -19003.88, -67258.74, -73704.30, 6476.28, -71023.07, -82337.74, -60729.42, -77280.35, 0.000, 0.000, 0.000, 17:00:25.527
99, -43206.41, 97267.52, 89855.51, 125357.20, 144042.77, 128958.45, 122997.24, 145673.36, -19003.88, -67258.74, -73704.30, 6476.28, -71023.07, -82337.74, -60729.42, -77280.35, -0.194, 0.922, -0.188, 17:00:25.527
100, -43206.41, 97267.52, 89855.51, 125357.20, 144042.77, 128958.45, 122997.24, 145673.36, -18981.19, -67225.10, -73678.21, 6505.56, -71001.95, -82298.98, -60696.38, -77263.01, 0.000, 0.000, 0.000, 17:00:25.527
101, -43248.70, 97251.19, 89836.76, 125341.60, 144028.47, 128939.43, 122993.38, 145621.39, -18981.19, -67225.10, -73678.21, 6505.56, -71001.95, -82298.98, -60696.38, -77263.01, 0.000, 0.000, 0.000, 17:00:25.527
102, -43248.70, 97251.19, 89836.76, 125341.60, 144028.47, 128939.43, 122993.38, 145621.39, -19012.17, -67259.41, -73709.37, 6478.61, -71030.35, -82336.16, -60719.68, -77273.40, 0.000, 0.000, 0.000, 17:00:25.527
103, -43231.82, 97240.63, 89826.49, 125331.77, 144018.92, 128973.00, 122989.93, 145601.98, -19012.17, -67259.41, -73709.37, 6478.61, -71030.35, -82336.16, -60719.68, -77273.40, 0.000, 0.000, 0.000, 17:00:25.528
104, -43231.82, 97240.63, 89826.49, 125331.77, 144018.92, 128973.00, 122989.93, 145601.98, -19008.79, -67263.62, -73710.26, 6473.00, -71028.56, -82313.65, -60717.08, -77250.63, 0.000, 0.000, 0.000, 17:00:25.528
105, -43252.43, 97231.27, 89819.01, 125312.50, 144011.06, 128939.43, 122977.30, 145555.25, -19008.79, -67263.62, -73710.26, 6473.00, -71028.56, -82313.65, -60717.08, -77250.63, 0.000, 0.000, 0.000, 17:00:25.528
106, -43252.43, 97231.27, 89819.01, 125312.50, 144011.06, 128939.43, 122977.30, 145555.25, -19026.14, -67283.66, -73724.41, 6454.13, -71045.29, -82368.30, -60736.82, -77306.21, 0.000, 0.000, 0.000, 17:00:25.528
107, -43248.34, 97234.11, 89821.24, 125314.29, 143996.30, 128919.13, 122982.02, 145534.44, -19026.14, -67283.66, -73724.41, 6454.13, -71045.29, -82368.30, -60736.82, -77306.21, 0.000, 0.000, 0.000, 17:00:25.528
108, -43248.34, 97234.11, 89821.24, 125314.29, 143996.30, 128919.13, 122982.02, 145534.44, -19004.59, -67259.66, -73699.82, 6474.32, -71025.39, -82332.16, -60720.86, -77279.68, 0.000, 0.000, 0.000, 17:00:25.528
109, -43211.82, 97249.58, 89838.88, 125331.50, 144017.42, 128960.40, 122986.80, 145539.56, -19004.59, -67259.66, -73699.82, 6474.32, -71025.39, -82332.16, -60720.86, -77279.68, -0.200, 0.934, -0.190, 17:00:25.528
110, -43211.82, 97249.58, 89838.88, 125331.50, 144017.42, 128960.40, 122986.80, 145539.56, -18995.94, -67259.08, -73698.44, 6474.88, -71025.08, -82332.36, -60726.74, -77282.47, 0.000, 0.000, 0.000, 17:00:25.529
111, -43249.62, 97256.62, 89839.97, 125333.42, 144025.52, 128929.40, 122991.90, 145501.22, -18995.94, -67259.08, -73698.44, 6474.88, -71025.08, -82332.36, -60726.74, -77282.47, 0.000, 0.000, 0.000, 17:00:25.529
112, -43249.62, 97256.62, 89839.97, 125333.42, 144025.52, 128929.40, 122991.90, 145501.22, -18995.85, -67250.65, -73694.39, 6482.88, -71012.67, -82331.71, -60721.46, -77300.04, 0.000, 0.000, 0.000, 17:00:25.529
113, -43225.01, 97248.41, 89828.33, 125328.91, 144014.98, 128962.92, 122977.15, 145496.17, -18995.85, -67250.65, -73694.39, 6482.88, -71012.67, -82331.71, -60721.46, -77300.04, 0.000, 0.000, 0.000, 17:00:25.529
114, -43225.01, 97248.41, 89828.33, 125328.91, 144014.98, 128962.92, 122977.15, 145496.17, -19014.83, -67267.82, -73719.18, 6460.46, -71041.95, -82360.81, -60741.38, -77272.77, 0.000, 0.000, 0.000, 17:00:25.529
115, -43250.27, 97242.34, 89819.43, 125321.96, 144002.50, 128936.23, 122958.26, 145466.02, -19014.83, -67267.82, -73719.18, 6460.46, -71041.95, -82360.81, -60741.38, -77272.77, 0.000, 0.000, 0.000, 17:00:25.529
116, -43250.27, 97242.34, 89819.43, 125321.96, 144002.50, 128936.23, 122958.26, 145466.02, -19006.40, -67258.70, -73706.02, 6476.31, -71032.95, -82331.69, -60738.14, -77295.48, 0.000, 0.000, 0.000, 17:00:25.530
117, -43240.63, 97254.88, 89833.38, 125341.45, 144004.14, 128953.60, 122970.48, 145459.66, -19006.40, -67258.70, -73706.02, 6476.31, -71032.95, -82331.69, -60738.14, -77295.48, 0.000, 0.000, 0.000, 17:00:25.530
118, -43240.63, 97254.88, 89833.38, 125341.45, 144004.14, 128953.60, 122970.48, 145459.66, -19006.96, -67261.54, -73705.27, 6482.59, -71030.89, -82336.98, -60719.38, -77237.21, 0.000, 0.000, 0.000, 17:00:25.530
119, -43204.85, 97255.74, 89830.41, 125339.57, 143993.52, 128993.61, 122968.61, 145487.08, -19006.96, -67261.54, -73705.27, 6482.59, -71030.89, -82336.98, -60719.38, -77237.21, -0.196, 0.932, -0.184, 17:00:25.530
120, -43204.85, 97255.74, 89830.41, 125339.57, 143993.52, 128993.61, 122968.61, 145487.08, -19002.29, -67258.95, -73701.30, 6483.50, -71028.43, -82344.36, -60715.81, -77226.28, 0.000, 0.000, 0.000, 17:00:25.530
121, -43235.71, 97281.61, 89858.41, 125368.70, 144028.58, 128984.56, 123008.02, 145482.22, -19002.29, -67258.95, -73701.30, 6483.50, -71028.43, -82344.36, -60715.81, -77226.28, 0.000, 0.000, 0.000, 17:00:25.530
122, -43235.71, 97281.61, 89858.41, 125368.70, 144028.58, 128984.56, 123008.02, 145482.22, -18985.06, -67241.82, -73684.38, 6499.28, -71019.76, -82303.28, -60692.52, -77211.30, 0.000, 0.000, 0.000, 17:00:25.531
123, -43217.36, 97266.98, 89848.53, 125356.83, 144031.89, 129039.99, 123010.54, 145509.67, -18985.06, -67241.82, -73684.38, 6499.28, -71019.76, -82303.28, -60692.52, -77211.30, 0.000, 0.000, 0.000, 17:00:25.531
124, -43217.36, 97266.98, 89848.53, 125356.83, 144031.89, 129039.99, 123010.54, 145509.67, -19003.36, -67269.88, -73709.21, 6471.39, -71017.44, -82340.49, -60707.94, -77174.98, 0.000, 0.000, 0.000, 17:00:25.531
125, -43258.04, 97247.45, 89833.83, 125330.05, 144026.09, 129006.09, 122994.09, 145487.97, -19003.36, -67269.88, -73709.21, 6471.39, -71017.44, -82340.49, -60707.94, -77174.98, 0.000, 0.000, 0.000, 17:00:25.531
126, -43258.04, 97247.45, 89833.83, 125330.05, 144026.09, 129006.09, 122994.09, 145487.97, -19011.81, -67283.71, -73717.05, 6459.94, -71030.02, -82340.31, -60719.85, -77220.60, 0.000, 0.000, 0.000, 17:00:25.531
127, -43280.57, 97238.35, 89826.52, 125315.50, 144030.05, 128981.19, 122992.80, 145439.20, -19011.81, -67283.71, -73717.05, 6459.94, -71030.02, -82340.31, -60719.85, -77220.60, 0.000, 0.000, 0.000, 17:00:25.531
128, -43280.57, 97238.35, 89826.52, 125315.50, 144030.05, 128981.19, 122992.80, 145439.20, -19012.88, -67276.24, -73716.05, 6469.15, -71023.49, -82342.05, -60699.16, -77211.08, 0.000, 0.000, 0.000, 17:00:25.532
129, -43239.65, 97260.77, 89846.90, 125339.37, 144055.33, 129034.00, 123022.39, 145462.17, -19012.88, -67276.24, -73716.05, 6469.15, -71023.49, -82342.05, -60699.16, -77211.08, -0.198, 0.922, -0.184, 17:00:25.532
130, -43239.65, 97260.77, 89846.90, 125339.37, 144055.33, 129034.00, 123022.39, 145462.17, -19004.12, -67258.34, -73707.04, 6483.55, -71022.71, -82329.45, -60686.13, -77220.67, 0.000, 0.000, 0.000, 17:00:25.532
131, -43278.27, 97263.12, 89842.66, 125341.23, 144042.69, 129009.17, 123016.87, 145425.25, -19004.12, -67258.34, -73707.04, 6483.55, -71022.71, -82329.45, -60686.13, -77220.67, 0.000, 0.000, 0.000, 17:00:25.532
132, -43278.27, 97263.12, 89842.66, 125341.23, 144042.69, 129009.17, 123016.87, 145425.25, -19007.16, -67254.14, -73700.49, 6492.67, -71021.33, -82335.84, -60686.82, -77237.44, 0.000, 0.000, 0.000, 17:00:25.532
133, -43249.75, 97261.22, 89838.14, 125337.23, 144025.05, 129071.06, 123005.84, 145444.78, -19007.16, -67254.14, -73700.49, 6492.67, -71021.33, -82335.84, -60686.82, -77237.44, 0.000, 0.000, 0.000, 17:00:25.988
134, -43249.75, 97261.22, 89838.14, 125337.23, 144025.05, 129071.06, 123005.84, 145444.78, -19010.16, -67264.64, -73706.80, 6485.45, -71020.36, -82345.77, -60698.69, -77218.95, 0.000, 0.000, 0.000, 17:00:25.988
135, -43274.16, 97272.24, 89848.78, 125350.84, 144029.45, 129052.24, 122998.09, 145432.47, -19010.16, -67264.64, -73706.80, 6485.45, -71020.36, -82345.77, -60698.69, -77218.95, 0.000, 0.000, 0.000, 17:00:25.988
136, -43274.16, 97272.24, 89848.78, 125350.84, 144029.45, 129052.24, 122998.09, 145432.47, -18995.72, -67240.48, -73686.68, 6506.37, -71015.52, -82308.40, -60700.41, -77240.83, 0.000, 0.000, 0.000, 17:00:25.988
137, -43286.83, 97275.15, 89853.74, 125364.85, 144026.61, 129079.82, 123000.23, 145419.27, -18995.72, -67240.48, -73686.68, 6506.37, -71015.52, -82308.40, -60700.41, -77240.83, 0.000, 0.000, 0.000, 17:00:25.989
138, -43286.83, 97275.15, 89853.74, 125364.85, 144026.61, 129079.82, 123000.23, 145419.27, -19002.71, -67247.95, -73698.55, 6498.57, -71029.98, -82297.91, -60703.29, -77200.55, -0.202, 0.920, -0.192, 17:00:25.989
139, -43277.13, 97249.69, 89822.67, 125333.27, 144002.22, 129100.48, 122973.70, 145424.16, -19002.71, -67247.95, -73698.55, 6498.57, -71029.98, -82297.91, -60703.29, -77200.55, 0.000, 0.000, 0.000, 17:00:25.989
140, -43277.13, 97249.69, 89822.67, 125333.27, 144002.22, 129100.48, 122973.70, 145424.16, -19016.62, -67269.74, -73719.54, 6476.13, -71034.49, -82342.23, -60725.93, -77210.99, 0.000, 0.000, 0.000, 17:00:25.989
141, -43304.27, 97263.84, 89839.91, 125344.16, 144031.00, 129067.35, 122993.13, 145414.34, -19016.62, -67269.74, -73719.54, 6476.13, -71034.49, -82342.23, -60725.93, -77210.99, 0.000, 0.000, 0.000, 17:00:25.989
142, -43304.27, 97263.84, 89839.91, 125344.16, 144031.00, 129067.35, 122993.13, 145414.34, -18994.82, -67247.52, -73692.42, 6507.26, -71008.12, -82310.84, -60695.51, -77187.79, 0.000, 0.000, 0.000, 17:00:25.990
143, -43263.70, 97269.73, 89843.64, 125355.20, 144031.53, 129126.76, 122998.59, 145442.30, -18994.82, -67247.52, -73692.42, 6507.26, -71008.12, -82310.84, -60695.51, -77187.79, 0.000, 0.000, 0.000, 17:00:25.990
144, -43263.70, 97269.73, 89843.64, 125355.20, 144031.53, 129126.76, 122998.59, 145442.30, -19010.13, -67269.18, -73709.66, 6488.47, -71027.92, -82322.50, -60707.13, -77170.27, 0.000, 0.000, 0.000, 17:00:25.990
145, -43317.79, 97245.09, 89829.96, 125335.01, 144022.23, 129089.19, 122989.60, 145448.39, -19010.13, -67269.18, -73709.66, 6488.47, -71027.92, -82322.50, -60707.13, -77170.27, 0.000, 0.000, 0.000, 17:00:25.990
146, -43317.79, 97245.09, 89829.96, 125335.01, 144022.23, 129089.19, 122989.60, 145448.39, -19013.94, -67274.70, -73711.09, 6485.54, -71023.13, -82332.83, -60710.44, -77194.16, 0.000, 0.000, 0.000, 17:00:25.991
147, -43337.30, 97250.54, 89833.52, 125339.86, 144028.78, 129102.89, 122996.28, 145473.73, -19013.94, -67274.70, -73711.09, 6485.54, -71023.13, -82332.83, -60710.44, -77194.16, 0.000, 0.000, 0.000, 17:00:25.991
148, -43337.30, 97250.54, 89833.52, 125339.86, 144028.78, 129102.89, 122996.28, 145473.73, -19011.99, -67278.91, -73712.20, 6485.11, -71032.92, -82326.75, -60705.46, -77164.50, -0.200, 0.928, -0.184, 17:00:25.991
149, -43318.66, 97260.57, 89836.59, 125338.14, 144035.80, 129139.99, 123015.84, 145517.47, -19011.99, -67278.91, -73712.20, 6485.11, -71032.92, -82326.75, -60705.46, -77164.50, 0.000, 0.000, 0.000, 17:00:25.991
150, -43318.66, 97260.57, 89836.59, 125338.14, 144035.80, 129139.99, 123015.84, 145517.47, -18980.52, -67265.90, -73695.04, 6499.35, -71005.92, -82337.21, -60688.58, -77161.88, 0.000, 0.000, 0.000, 17:00:25.991
151, -43347.68, 97282.68, 89858.77, 125355.89, 144063.17, 129109.98, 123038.62, 145475.30, -18980.52, -67265.90, -73695.04, 6499.35, -71005.92, -82337.21, -60688.58, -77161.88, 0.000, 0.000, 0.000, 17:00:25.991
152, -43347.68, 97282.68, 89858.77, 125355.89, 144063.17, 129109.98, 123038.62, 145475.30, -18963.71, -67246.14, -73684.60, 6514.64, -70999.40, -82313.31, -60682.19, -77187.01, 0.000, 0.000, 0.000, 17:00:25.992
153, -43305.50, 97271.86, 89843.03, 125344.91, 144039.27, 129147.57, 123020.47, 145473.28, -18963.71, -67246.14, -73684.60, 6514.64, -70999.40, -82313.31, -60682.19, -77187.01, 0.000, 0.000, 0.000, 17:00:25.992
154, -43305.50, 97271.86, 89843.03, 125344.91, 144039.27, 129147.57, 123020.47, 145473.28, -18983.63, -67285.55, -73713.39, 6488.26, -71029.37, -82333.25, -60702.48, -77168.44, 0.000, 0.000, 0.000, 17:00:25.992
155, -43354.20, 97240.81, 89822.54, 125315.56, 144021.11, 129089.05, 122996.20, 145471.88, -18983.63, -67285.55, -73713.39, 6488.26, -71029.37, -82333.25, -60702.48, -77168.44, 0.000, 0.000, 0.000, 17:00:25.992
156, -43354.20, 97240.81, 89822.54, 125315.56, 144021.11, 129089.05, 122996.20, 145471.88, -18986.58, -67295.96, -73720.43, 6478.63, -71033.80, -82367.47, -60723.81, -77240.23, 0.000, 0.000, 0.000, 17:00:25.992
157, -43368.98, 97244.03, 89839.01, 125335.41, 144024.22, 129101.93, 123003.01, 145515.38, -18986.58, -67295.96, -73720.43, 6478.63, -71033.80, -82367.47, -60723.81, -77240.23, 0.000, 0.000, 0.000, 17:00:25.993
158, -43368.98, 97244.03, 89839.01, 125335.41, 144024.22, 129101.93, 123003.01, 145515.38, -18965.88, -67266.92, -73694.62, 6508.20, -71011.89, -82312.27, -60698.86, -77194.74, -0.196, 0.930, -0.178, 17:00:25.993
159, -43305.07, 97263.19, 89857.54, 125366.10, 144042.34, 129169.38, 123021.12, 145611.23, -18965.88, -67266.92, -73694.62, 6508.20, -71011.89, -82312.27, -60698.86, -77194.74, 0.000, 0.000, 0.000, 17:00:25.993
160, -43305.07, 97263.19, 89857.54, 125366.10, 144042.34, 129169.38, 123021.12, 145611.23, -18964.27, -67272.58, -73700.13, 6504.02, -71013.26, -82304.87, -60696.83, -77184.98, 0.000, 0.000, 0.000, 17:00:25.993
161, -43347.27, 97229.44, 89832.80, 125340.02, 144032.72, 129123.63, 123004.30, 145586.08, -18964.27, -67272.58, -73700.13, 6504.02, -71013.26, -82304.87, -60696.83, -77184.98, 0.000, 0.000, 0.000, 17:00:25.993
162, -43347.27, 97229.44, 89832.80, 125340.02, 144032.72, 129123.63, 123004.30, 145586.08, -18971.38, -67286.35, -73716.54, 6489.16, -71019.72, -82321.43, -60704.25, -77202.86, 0.000, 0.000, 0.000, 17:00:25.993
163, -43324.32, 97223.96, 89829.47, 125340.82, 144038.25, 129162.97, 123015.86, 145602.16, -18971.38, -67286.35, -73716.54, 6489.16, -71019.72, -82321.43, -60704.25, -77202.86, 0.000, 0.000, 0.000, 17:00:25.994
164, -43324.32, 97223.96, 89829.47, 125340.82, 144038.25, 129162.97, 123015.86, 145602.16, -18981.55, -67291.40, -73728.27, 6477.74, -71033.53, -82355.88, -60714.45, -77200.66, 0.000, 0.000, 0.000, 17:00:25.994
165, -43345.89, 97211.00, 89823.14, 125330.98, 144017.83, 129128.86, 123004.26, 145596.98, -18981.55, -67291.40, -73728.27, 6477.74, -71033.53, -82355.88, -60714.45, -77200.66, 0.000, 0.000, 0.000, 17:00:25.994
166, -43345.89, 97211.00, 89823.14, 125330.98, 144017.83, 129128.86, 123004.26, 145596.98, -18973.03, -67274.62, -73718.24, 6489.99, -71030.38, -82311.88, -60716.25, -77226.57, 0.000, 0.000, 0.000, 17:00:25.994
167, -43344.39, 97217.19, 89835.99, 125350.70, 144022.25, 129148.87, 123009.96, 145606.48, -18973.03, -67274.62, -73718.24, 6489.99, -71030.38, -82311.88, -60716.25, -77226.57, 0.000, 0.000, 0.000, 17:00:25.995
168, -43344.39, 97217.19, 89835.99, 125350.70, 144022.25, 129148.87, 123009.96, 145606.48, -18966.86, -67265.59, -73703.96, 6505.50, -71021.59, -82306.48, -60704.56, -77181.20, -0.200, 0.928, -0.182, 17:00:25.995
169, -43303.48, 97230.17, 89852.94, 125362.86, 144033.25, 129202.17, 123022.77, 145682.34, -18966.86, -67265.59, -73703.96, 6505.50, -71021.59, -82306.48, -60704.56, -77181.20, 0.000, 0.000, 0.000, 17:00:25.995
170, -43303.48, 97230.17, 89852.94, 125362.86, 144033.25, 129202.17, 123022.77, 145682.34, -18959.51, -67267.28, -73692.09, 6507.06, -71010.69, -82305.89, -60697.84, -77162.66, 0.000, 0.000, 0.000, 17:00:25.995
171, -43341.82, 97223.40, 89844.73, 125352.73, 144029.50, 129181.30, 123019.26, 145698.36, -18959.51, -67267.28, -73692.09, 6507.06, -71010.69, -82305.89, -60697.84, -77162.66, 0.000, 0.000, 0.000, 17:00:25.996
172, -43341.82, 97223.40, 89844.73, 125352.73, 144029.50, 129181.30, 123019.26, 145698.36, -18982.91, -67288.54, -73711.91, 6485.58, -71027.83, -82317.49, -60712.97, -77180.68, 0.000, 0.000, 0.000, 17:00:25.996
173, -43337.62, 97205.68, 89821.71, 125332.13, 144034.70, 129218.25, 123010.81, 145769.06, -18982.91, -67288.54, -73711.91, 6485.58, -71027.83, -82317.49, -60712.97, -77180.68, 0.000, 0.000, 0.000, 17:00:25.996
174, -43337.62, 97205.68, 89821.71, 125332.13, 144034.70, 129218.25, 123010.81, 145769.06, -19000.79, -67311.54, -73733.55, 6459.48, -71037.66, -82348.79, -60715.09, -77161.95, 0.000, 0.000, 0.000, 17:00:25.996
175, -43376.46, 97199.35, 89812.44, 125317.42, 144048.34, 129175.42, 123019.02, 145730.50, -19000.79, -67311.54, -73733.55, 6459.48, -71037.66, -82348.79, -60715.09, -77161.95, 0.000, 0.000, 0.000, 17:00:25.997
176, -43376.46, 97199.35, 89812.44, 125317.42, 144048.34, 129175.42, 123019.02, 145730.50, -18995.99, -67303.72, -73723.34, 6463.01, -71020.45, -82350.04, -60710.31, -77205.80, 0.000, 0.000, 0.000, 17:00:25.997
177, -43370.83, 97216.31, 89833.22, 125334.09, 144067.14, 129171.62, 123030.99, 145678.61, -18995.99, -67303.72, -73723.34, 6463.01, -71020.45, -82350.04, -60710.31, -77205.80, 0.000, 0.000, 0.000, 17:00:25.997
178, -43370.83, 97216.31, 89833.22, 125334.09, 144067.14, 129171.62, 123030.99, 145678.61, -18990.22, -67298.75, -73711.09, 6472.33, -71020.12, -82362.87, -60695.94, -77167.90, -0.196, 0.926, -0.176, 17:00:25.997
179, -43340.61, 97220.12, 89835.70, 125337.54, 144043.58, 129187.31, 123016.94, 145685.63, -18990.22, -67298.75, -73711.09, 6472.33, -71020.12, -82362.87, -60695.94, -77167.90, 0.000, 0.000, 0.000, 17:00:25.998
180, -43340.61, 97220.12, 89835.70, 125337.54, 144043.58, 129187.31, 123016.94, 145685.63, -18983.47, -67284.80, -73694.15, 6487.88, -71019.78, -82350.75, -60696.65, -77170.60, 0.000, 0.000, 0.000, 17:00:25.998
181, -43389.25, 97228.70, 89849.52, 125356.47, 144038.38, 129141.54, 123011.75, 145616.30, -18983.47, -67284.80, -73694.15, 6487.88, -71019.78, -82350.75, -60696.65, -77170.60, 0.000, 0.000, 0.000, 17:00:25.998
182, -43389.25, 97228.70, 89849.52, 125356.47, 144038.38, 129141.54, 123011.75, 145616.30, -18991.58, -67279.53, -73690.63, 6492.31, -71026.51, -82317.29, -60703.47, -77194.90, 0.000, 0.000, 0.000, 17:00:25.999
183, -43345.95, 97232.95, 89854.08, 125365.68, 144032.69, 129200.50, 123009.65, 145616.42, -18991.58, -67279.53, -73690.63, 6492.31, -71026.51, -82317.29, -60703.47, -77194.90, 0.000, 0.000, 0.000, 17:00:25.999
184, -43345.95, 97232.95, 89854.08, 125365.68, 144032.69, 129200.50, 123009.65, 145616.42, -18973.57, -67268.66, -73678.27, 6503.49, -71002.23, -82319.23, -60684.43, -77143.09, 0.000, 0.000, 0.000, 17:00:25.999
185, -43352.23, 97227.23, 89849.90, 125358.70, 144036.94, 129193.88, 123008.69, 145610.03, -18973.57, -67268.66, -73678.27, 6503.49, -71002.23, -82319.23, -60684.43, -77143.09, 0.000, 0.000, 0.000, 17:00:25.999
186, -43352.23, 97227.23, 89849.90, 125358.70, 144036.94, 129193.88, 123008.69, 145610.03, -18996.86, -67287.80, -73700.80, 6480.37, -71018.02, -82321.30, -60707.40, -77184.98, 0.000, 0.000, 0.000, 17:00:26.000
187, -43352.97, 97225.52, 89847.15, 125359.66, 144037.77, 129191.83, 123013.18, 145617.50, -18996.86, -67287.80, -73700.80, 6480.37, -71018.02, -82321.30, -60707.40, -77184.98, -0.204, 0.928, -0.170, 17:00:26.000
188, -43352.97, 97225.52, 89847.15, 125359.66, 144037.77, 129191.83, 123013.18, 145617.50, -18988.79, -67271.38, -73685.14, 6496.71, -71005.74, -82315.55, -60687.58, -77143.78, 0.000, 0.000, 0.000, 17:00:26.000
189, -43313.70, 97241.30, 89859.59, 125371.98, 144046.06, 129231.01, 123031.87, 145687.84, -18988.79, -67271.38, -73685.14, 6496.71, -71005.74, -82315.55, -60687.58, -77143.78, 0.000, 0.000, 0.000, 17:00:26.000
190, -43313.70, 97241.30, 89859.59, 125371.98, 144046.06, 129231.01, 123031.87, 145687.84, -18986.22, -67272.16, -73684.09, 6495.48, -71012.27, -82339.38, -60694.53, -77150.40, 0.000, 0.000, 0.000, 17:00:26.001
191, -43369.20, 97218.17, 89841.25, 125352.63, 144027.02, 129178.57, 123010.52, 145657.66, -18986.22, -67272.16, -73684.09, 6495.48, -71012.27, -82339.38, -60694.53, -77150.40, 0.000, 0.000, 0.000, 17:00:26.001
192, -43369.20, 97218.17, 89841.25, 125352.63, 144027.02, 129178.57, 123010.52, 145657.66, -19009.98, -67286.52, -73705.88, 6476.93, -71038.76, -82351.36, -60718.96, -77160.12, 0.000, 0.000, 0.000, 17:00:26.001
193, -43339.14, 97218.69, 89843.02, 125364.07, 144029.41, 129215.90, 123009.11, 145623.53, -19009.98, -67286.52, -73705.88, 6476.93, -71038.76, -82351.36, -60718.96, -77160.12, 0.000, 0.000, 0.000, 17:00:26.001
194, -43339.14, 97218.69, 89843.02, 125364.07, 144029.41, 129215.90, 123009.11, 145623.53, -18984.23, -67255.80, -73682.50, 6501.45, -71006.77, -82284.97, -60698.98, -77133.43, 0.000, 0.000, 0.000, 17:00:26.001
195, -43341.95, 97223.96, 89846.84, 125364.27, 144045.70, 129206.04, 123019.59, 145593.98, -18984.23, -67255.80, -73682.50, 6501.45, -71006.77, -82284.97, -60698.98, -77133.43, 0.000, 0.000, 0.000, 17:00:26.002
196, -43341.95, 97223.96, 89846.84, 125364.27, 144045.70, 129206.04, 123019.59, 145593.98, -19005.17, -67273.30, -73704.38, 6479.35, -71020.85, -82315.05, -60705.55, -77147.02, 0.000, 0.000, 0.000, 17:00:26.002
197, -43334.38, 97218.73, 89837.31, 125360.83, 144054.00, 129202.87, 123030.93, 145652.61, -19005.17, -67273.30, -73704.38, 6479.35, -71020.85, -82315.05, -60705.55, -77147.02, -0.196, 0.922, -0.170, 17:00:26.002
198, -43334.38, 97218.73, 89837.31, 125360.83, 144054.00, 129202.87, 123030.93, 145652.61, -19002.09, -67273.74, -73706.71, 6479.12, -71020.56, -82317.98, -60692.74, -77095.92, 0.000, 0.000, 0.000, 17:00:26.003
199, -43326.80, 97200.07, 89822.63, 125347.75, 144056.20, 129222.20, 123028.22, 145705.05, -19002.09, -67273.74, -73706.71, 6479.12, -71020.56, -82317.98, -60692.74, -77095.92, 0.000, 0.000, 0.000, 17:00:26.003
200, -43326.80, 97200.07, 89822.63, 125347.75, 144056.20, 129222.20, 123028.22, 145705.05, -19002.09, -67282.86, -73706.87, 6472.35, -71014.06, -82349.26, -60703.71, -77123.75, 0.000, 0.000, 0.000, 17:00:26.004
201, -43377.76, 97210.23, 89835.28, 125348.49, 144064.61, 129175.48, 123036.05, 145681.52, -19002.09, -67282.86, -73706.87, 6472.35, -71014.06, -82349.26, -60703.71, -77123.75, 0.000, 0.000, 0.000, 17:00:26.004
202, -43377.76, 97210.23, 89835.28, 125348.49, 144064.61, 129175.48, 123036.05, 145681.52, -19006.49, -67283.15, -73705.50, 6471.52, -71014.04, -82359.91, -60700.00, -77148.49, 0.000, 0.000, 0.000, 17:00:26.004
203, -43355.32, 97208.05, 89831.79, 125350.91, 144062.17, 129209.38, 123025.96, 145696.72, -19006.49, -67283.15, -73705.50, 6471.52, -71014.04, -82359.91, -60700.00, -77148.49, 0.000, 0.000, 0.000, 17:00:26.005
204, -43355.32, 97208.05, 89831.79, 125350.91, 144062.17, 129209.38, 123025.96, 145696.72, -19011.25, -67274.16, -73711.29, 6467.86, -71023.56, -82315.68, -60706.11, -77117.47, 0.000, 0.000, 0.000, 17:00:26.005
205, -43365.38, 97207.38, 89819.81, 125335.03, 144035.28, 129178.82, 123011.19, 145706.55, -19011.25, -67274.16, -73711.29, 6467.86, -71023.56, -82315.68, -60706.11, -77117.47, 0.000, 0.000, 0.000, 17:00:26.005
206, -43365.38, 97207.38, 89819.81, 125335.03, 144035.28, 129178.82, 123011.19, 145706.55, -18998.07, -67269.61, -73696.94, 6481.36, -71010.48, -82336.63, -60712.77, -77129.59, 0.000, 0.000, 0.000, 17:00:26.006
207, -43365.94, 97232.21, 89840.13, 125360.13, 144037.66, 129192.32, 123017.98, 145697.36, -18998.07, -67269.61, -73696.94, 6481.36, -71010.48, -82336.63, -60712.77, -77129.59, -0.198, 0.922, -0.178, 17:00:26.006
208, -43365.94, 97232.21, 89840.13, 125360.13, 144037.66, 129192.32, 123017.98, 145697.36, -18995.16, -67267.88, -73697.86, 6479.97, -71017.44, -82332.31, -60714.31, -77102.32, 0.000, 0.000, 0.000, 17:00:26.006
209, -43334.24, 97213.30, 89829.04, 125343.95, 144018.97, 129223.66, 123003.30, 145714.38, -18995.16, -67267.88, -73697.86, 6479.97, -71017.44, -82332.31, -60714.31, -77102.32, 0.000, 0.000, 0.000, 17:00:26.006
210, -43334.24, 97213.30, 89829.04, 125343.95, 144018.97, 129223.66, 123003.30, 145714.38, -19008.28, -67280.65, -73708.34, 6466.78, -71025.23, -82389.47, -60727.68, -77093.17, 0.000, 0.000, 0.000, 17:00:26.006
211, -43376.62, 97203.87, 89823.73, 125338.52, 144012.33, 129165.85, 122997.73, 145676.30, -19008.28, -67280.65, -73708.34, 6466.78, -71025.23, -82389.47, -60727.68, -77093.17, 0.000, 0.000, 0.000, 17:00:26.007
212, -43376.62, 97203.87, 89823.73, 125338.52, 144012.33, 129165.85, 122997.73, 145676.30, -19014.54, -67273.52, -73706.08, 6473.98, -71032.79, -82318.70, -60725.89, -77110.63, 0.000, 0.000, 0.000, 17:00:26.007
213, -43330.20, 97212.92, 89829.40, 125354.84, 144027.94, 129215.61, 123012.98, 145723.05, -19014.54, -67273.52, -73706.08, 6473.98, -71032.79, -82318.70, -60725.89, -77110.63, 0.000, 0.000, 0.000, 17:00:26.007
214, -43330.20, 97212.92, 89829.40, 125354.84, 144027.94, 129215.61, 123012.98, 145723.05, -18995.21, -67261.11, -73692.67, 6486.70, -71013.48, -82314.37, -60708.95, -77077.30, 0.000, 0.000, 0.000, 17:00:26.007
215, -43357.27, 97223.55, 89830.49, 125357.19, 144033.58, 129193.81, 123028.16, 145764.03, -18995.21, -67261.11, -73692.67, 6486.70, -71013.48, -82314.37, -60708.95, -77077.30, 0.000, 0.000, 0.000, 17:00:26.007
216, -43357.27, 97223.55, 89830.49, 125357.19, 144033.58, 129193.81, 123028.16, 145764.03, -18993.73, -67259.86, -73694.73, 6487.37, -71011.58, -82318.52, -60707.13, -77104.51, 0.000, 0.000, 0.000, 17:00:26.008
217, -43355.30, 97241.88, 89853.83, 125379.54, 144048.36, 129214.60, 123049.50, 145820.34, -18993.73, -67259.86, -73694.73, 6487.37, -71011.58, -82318.52, -60707.13, -77104.51, -0.200, 0.922, -0.182, 17:00:26.008
218, -43355.30, 97241.88, 89853.83, 125379.54, 144048.36, 129214.60, 123049.50, 145820.34, -18973.75, -67248.84, -73680.29, 6501.90, -71002.44, -82326.08, -60682.12, -77063.38, 0.000, 0.000, 0.000, 17:00:26.008
219, -43326.89, 97210.62, 89829.11, 125345.43, 144027.48, 129252.09, 123032.06, 145883.27, -18973.75, -67248.84, -73680.29, 6501.90, -71002.44, -82326.08, -60682.12, -77063.38, 0.000, 0.000, 0.000, 17:00:26.008
220, -43326.89, 97210.62, 89829.11, 125345.43, 144027.48, 129252.09, 123032.06, 145883.27, -19000.79, -67293.68, -73722.47, 6455.41, -71041.73, -82361.57, -60717.02, -77082.24, 0.000, 0.000, 0.000, 17:00:26.008
