%OpenBCI Raw EEG Data
%
%Sample Rate = 250.0 Hz
%First Column = SampleIndex
%Last Column = Timestamp 
%Other Columns = EEG data in microvolts followed by Accel Data (in G) interleaved with Aux Data
0, 0.00, 0.00, 0.00, 0.00, 0.00, 0.00, 0.00, 0.00, -19948.04, -21322.40, 67697.09, -22667.98, 30482.32, -21332.37, 73108.27, 7036.57, 0.116, 0.860, -0.392, 14:52:19.501
1, -66379.16, 6576.80, 80077.16, 84985.58, 3387.79, -18916.91, -19322.19, 81871.60, -19948.04, -21322.40, 67697.09, -22667.98, 30482.32, -21332.37, 73108.27, 7036.57, 0.000, 0.000, 0.000, 14:52:19.982
2, -66379.16, 6576.80, 80077.16, 84985.58, 3387.79, -18916.91, -19322.19, 81871.60, -44768.93, -41205.35, 130421.38, -40609.54, 60424.27, -49326.43, 135361.33, 9755.42, 0.000, 0.000, 0.000, 14:52:19.982
3, -132864.33, 13085.74, 160152.41, 169980.19, 6774.30, -37832.02, -38640.20, 163754.08, -44768.93, -41205.35, 130421.38, -40609.54, 60424.27, -49326.43, 135361.33, 9755.42, 0.000, 0.000, 0.000, 14:52:19.983
4, -132864.33, 13085.74, 160152.41, 169980.19, 6774.30, -37832.02, -38640.20, 163754.08, -44782.05, -41200.84, 130431.86, -40608.13, 60454.94, -49306.20, 135347.63, 9744.31, 0.000, 0.000, 0.000, 14:52:19.983
5, -133084.47, 12939.63, 160165.02, 169926.41, 6771.48, -37832.41, -38626.72, 163752.92, -44782.05, -41200.84, 130431.86, -40608.13, 60454.94, -49306.20, 135347.63, 9744.31, 0.000, 0.000, 0.000, 14:52:19.984
6, -133084.47, 12939.63, 160165.02, 169926.41, 6771.48, -37832.41, -38626.72, 163752.92, -44740.77, -41183.45, 130420.26, -40589.40, 60443.99, -49310.79, 135359.09, 9749.67, 0.000, 0.000, 0.000, 14:52:19.984
7, -132841.13, 13156.91, 160141.95, 169995.66, 6762.99, -37841.93, -38640.60, 163750.89, -44740.77, -41183.45, 130420.26, -40589.40, 60443.99, -49310.79, 135359.09, 9749.67, 0.000, 0.000, 0.000, 14:52:19.984
8, -132841.13, 13156.91, 160141.95, 169995.66, 6762.99, -37841.93, -38640.60, 163750.89, -44789.14, -41195.58, 130415.25, -40613.70, 60441.15, -49312.77, 135347.77, 9781.10, 0.016, 0.876, -0.384, 14:52:19.985
9, -133103.41, 12973.85, 160161.89, 169980.73, 6750.23, -37821.77, -38637.74, 163743.73, -44789.14, -41195.58, 130415.25, -40613.70, 60441.15, -49312.77, 135347.77, 9781.10, 0.000, 0.000, 0.000, 14:52:19.985
10, -133103.41, 12973.85, 160161.89, 169980.73, 6750.23, -37821.77, -38637.74, 163743.73, -44747.57, -41170.57, 130437.11, -40594.88, 60454.83, -49295.81, 135347.03, 9749.67, 0.000, 0.000, 0.000, 14:52:19.986
11, -133054.20, 13034.44, 160175.45, 169956.13, 6756.15, -37832.14, -38645.67, 163733.83, -44747.57, -41170.57, 130437.11, -40594.88, 60454.83, -49295.81, 135347.03, 9749.67, 0.000, 0.000, 0.000, 14:52:19.986
12, -133054.20, 13034.44, 160175.45, 169956.13, 6756.15, -37832.14, -38645.67, 163733.83, -44738.09, -41161.23, 130438.18, -40584.33, 60447.12, -49299.77, 135358.50, 9762.24, 0.000, 0.000, 0.000, 14:52:19.986
13, -133067.91, 13049.26, 160176.42, 169987.69, 6739.79, -37799.05, -38645.43, 163752.34, -44738.09, -41161.23, 130438.18, -40584.33, 60447.12, -49299.77, 135358.50, 9762.24, 0.000, 0.000, 0.000, 14:52:19.987
14, -133067.91, 13049.26, 160176.42, 169987.69, 6739.79, -37799.05, -38645.43, 163752.34, -44763.26, -41166.12, 130435.45, -40596.96, 60429.14, -49290.38, 135351.47, 9789.82, 0.000, 0.000, 0.000, 14:52:19.987
15, -133246.88, 12942.80, 160170.11, 169975.36, 6730.62, -37827.75, -38654.95, 163742.17, -44763.26, -41166.12, 130435.45, -40596.96, 60429.14, -49290.38, 135351.47, 9789.82, 0.000, 0.000, 0.000, 14:52:19.988
16, -133246.88, 12942.80, 160170.11, 169975.36, 6730.62, -37827.75, -38654.95, 163742.17, -44722.24, -41167.55, 130434.30, -40591.68, 60425.55, -49300.91, 135350.72, 9772.88, 0.000, 0.000, 0.000, 14:52:19.989
17, -133027.94, 13140.84, 160169.84, 170019.91, 6742.09, -37826.93, -38654.79, 163744.61, -44722.24, -41167.55, 130434.30, -40591.68, 60425.55, -49300.91, 135350.72, 9772.88, 0.000, 0.000, 0.000, 14:52:19.989
18, -133027.94, 13140.84, 160169.84, 170019.91, 6742.09, -37826.93, -38654.79, 163744.61, -44758.29, -41171.02, 130432.28, -40607.55, 60425.05, -49300.73, 135357.80, 9803.39, 0.014, 0.868, -0.378, 14:52:19.990
19, -133289.86, 12960.86, 160174.55, 169999.00, 6730.27, -37814.99, -38650.39, 163747.08, -44758.29, -41171.02, 130432.28, -40607.55, 60425.05, -49300.73, 135357.80, 9803.39, 0.000, 0.000, 0.000, 14:52:19.990
20, -133289.86, 12960.86, 160174.55, 169999.00, 6730.27, -37814.99, -38650.39, 163747.08, -44739.56, -41162.93, 130435.77, -40599.89, 60431.65, -49295.18, 135350.11, 9775.22, 0.000, 0.000, 0.000, 14:52:19.990
21, -133215.75, 13049.33, 160161.31, 169999.11, 6742.27, -37832.23, -38650.43, 163746.34, -44739.56, -41162.93, 130435.77, -40599.89, 60431.65, -49295.18, 135350.11, 9775.22, 0.000, 0.000, 0.000, 14:52:19.991
22, -133215.75, 13049.33, 160161.31, 169999.11, 6742.27, -37832.23, -38650.43, 163746.34, -44739.07, -41181.48, 130419.59, -40616.45, 60421.93, -49321.78, 135353.38, 9785.86, 0.000, 0.000, 0.000, 14:52:19.991
23, -133228.80, 13060.06, 160157.86, 170016.42, 6731.25, -37833.54, -38649.85, 163742.80, -44739.07, -41181.48, 130419.59, -40616.45, 60421.93, -49321.78, 135353.38, 9785.86, 0.000, 0.000, 0.000, 14:52:19.992
24, -133228.80, 13060.06, 160157.86, 170016.42, 6731.25, -37833.54, -38649.85, 163742.80, -44766.83, -41175.60, 130433.17, -40620.96, 60447.39, -49302.98, 135343.39, 9764.00, 0.000, 0.000, 0.000, 14:52:19.992
25, -133466.11, 12899.71, 160171.48, 169948.20, 6729.93, -37821.52, -38636.40, 163738.92, -44766.83, -41175.60, 130433.17, -40620.96, 60447.39, -49302.98, 135343.39, 9764.00, 0.000, 0.000, 0.000, 14:52:19.993
26, -133466.11, 12899.71, 160171.48, 169948.20, 6729.93, -37821.52, -38636.40, 163738.92, -44731.38, -41184.43, 130415.80, -40617.28, 60429.77, -49327.13, 135350.84, 9760.16, 0.000, 0.000, 0.000, 14:52:19.993
27, -133221.91, 13123.27, 160148.95, 170012.55, 6735.85, -37842.62, -38652.11, 163731.02, -44731.38, -41184.43, 130415.80, -40617.28, 60429.77, -49327.13, 135350.84, 9760.16, 0.012, 0.862, -0.378, 14:52:19.993
28, -133221.91, 13123.27, 160148.95, 170012.55, 6735.85, -37842.62, -38652.11, 163731.02, -44771.21, -41190.82, 130412.19, -40635.02, 60422.30, -49317.04, 135346.52, 9786.55, 0.000, 0.000, 0.000, 14:52:19.994
29, -133466.73, 12958.00, 160147.52, 170007.00, 6727.14, -37835.04, -38647.39, 163722.56, -44771.21, -41190.82, 130412.19, -40635.02, 60422.30, -49317.04, 135346.52, 9786.55, 0.000, 0.000, 0.000, 14:52:19.994
30, -133466.73, 12958.00, 160147.52, 170007.00, 6727.14, -37835.04, -38647.39, 163722.56, -44751.25, -41181.81, 130420.41, -40625.55, 60430.80, -49315.50, 135325.75, 9756.85, 0.000, 0.000, 0.000, 14:52:19.994
31, -133406.56, 13030.75, 160149.50, 169985.41, 6736.61, -37828.40, -38646.19, 163712.06, -44751.25, -41181.81, 130420.41, -40625.55, 60430.80, -49315.50, 135325.75, 9756.85, 0.000, 0.000, 0.000, 14:52:19.995
32, -133406.56, 13030.75, 160149.50, 169985.41, 6736.61, -37828.40, -38646.19, 163712.06, -44741.87, -41185.28, 130416.28, -40620.85, 60431.67, -49323.66, 135337.02, 9763.76, 0.000, 0.000, 0.000, 14:52:19.995
33, -133414.41, 13043.65, 160158.42, 169995.42, 6737.20, -37820.36, -38642.88, 163726.44, -44741.87, -41185.28, 130416.28, -40620.85, 60431.67, -49323.66, 135337.02, 9763.76, 0.000, 0.000, 0.000, 14:52:19.996
34, -133414.41, 13043.65, 160158.42, 169995.42, 6737.20, -37820.36, -38642.88, 163726.44, -44757.22, -41169.01, 130430.25, -40623.18, 60448.43, -49305.71, 135339.39, 9773.28, 0.000, 0.000, 0.000, 14:52:19.997
35, -133607.48, 12918.88, 160162.20, 169959.02, 6746.67, -37807.86, -38645.85, 163730.45, -44757.22, -41169.01, 130430.25, -40623.18, 60448.43, -49305.71, 135339.39, 9773.28, 0.000, 0.000, 0.000, 14:52:19.997
36, -133607.48, 12918.88, 160162.20, 169959.02, 6746.67, -37807.86, -38645.85, 163730.45, -44724.45, -41165.74, 130422.98, -40613.07, 60439.61, -49314.92, 135335.16, 9768.32, 0.000, 0.000, 0.000, 14:52:19.998
37, -133384.86, 13116.90, 160159.25, 169992.78, 6739.54, -37807.73, -38653.79, 163731.63, -44724.45, -41165.74, 130422.98, -40613.07, 60439.61, -49314.92, 135335.16, 9768.32, 0.008, 0.866, -0.378, 14:52:19.998
38, -133384.86, 13116.90, 160159.25, 169992.78, 6739.54, -37807.73, -38653.79, 163731.63, -44753.20, -41165.63, 130437.22, -40623.13, 60443.09, -49298.92, 135333.91, 9786.40, 0.000, 0.000, 0.000, 14:52:19.999
39, -133641.30, 12931.00, 160172.23, 169963.58, 6735.81, -37804.46, -38641.67, 163741.63, -44753.20, -41165.63, 130437.22, -40623.13, 60443.09, -49298.92, 135333.91, 9786.40, 0.000, 0.000, 0.000, 14:52:19.999
40, -133641.30, 12931.00, 160172.23, 169963.58, 6735.81, -37804.46, -38641.67, 163741.63, -44732.97, -41171.91, 130434.27, -40621.41, 60439.45, -49314.81, 135334.72, 9780.05, 0.000, 0.000, 0.000, 14:52:20.000
41, -133547.27, 13031.13, 160163.81, 169970.06, 6736.21, -37804.89, -38651.69, 163726.17, -44732.97, -41171.91, 130434.27, -40621.41, 60439.45, -49314.81, 135334.72, 9780.05, 0.000, 0.000, 0.000, 14:52:20.000
42, -133547.27, 13031.13, 160163.81, 169970.06, 6736.21, -37804.89, -38651.69, 163726.17, -44728.79, -41180.25, 130430.76, -40627.25, 60430.87, -49326.54, 135346.30, 9783.36, 0.000, 0.000, 0.000, 14:52:20.001
43, -133545.14, 13048.63, 160166.81, 169984.16, 6735.27, -37803.86, -38643.95, 163730.03, -44728.79, -41180.25, 130430.76, -40627.25, 60430.87, -49326.54, 135346.30, 9783.36, 0.000, 0.000, 0.000, 14:52:20.001
44, -133545.14, 13048.63, 160166.81, 169984.16, 6735.27, -37803.86, -38643.95, 163730.03, -44763.59, -41188.00, 130425.64, -40638.96, 60420.79, -49341.72, 135344.14, 9785.03, 0.000, 0.000, 0.000, 14:52:20.002
45, -133720.89, 12935.80, 160156.34, 169962.91, 6729.15, -37826.84, -38644.78, 163714.47, -44763.59, -41188.00, 130425.64, -40638.96, 60420.79, -49341.72, 135344.14, 9785.03, 0.000, 0.000, 0.000, 14:52:20.002
46, -133720.89, 12935.80, 160156.34, 169962.91, 6729.15, -37826.84, -38644.78, 163714.47, -44742.27, -41198.89, 130411.49, -40641.46, 60397.50, -49337.45, 135335.94, 9770.60, 0.000, 0.000, 0.000, 14:52:20.002
47, -133482.83, 13141.84, 160146.94, 170004.55, 6724.90, -37835.76, -38651.89, 163701.31, -44742.27, -41198.89, 130411.49, -40641.46, 60397.50, -49337.45, 135335.94, 9770.60, 0.006, 0.864, -0.372, 14:52:20.003
48, -133482.83, 13141.84, 160146.94, 170004.55, 6724.90, -37835.76, -38651.89, 163701.31, -44780.94, -41200.54, 130415.79, -40653.93, 60403.87, -49335.98, 135332.91, 9777.41, 0.000, 0.000, 0.000, 14:52:20.003
49, -133749.66, 12941.73, 160158.17, 169961.67, 6711.92, -37814.48, -38650.59, 163694.52, -44780.94, -41200.54, 130415.79, -40653.93, 60403.87, -49335.98, 135332.91, 9777.41, 0.000, 0.000, 0.000, 14:52:20.004
50, -133749.66, 12941.73, 160158.17, 169961.67, 6711.92, -37814.48, -38650.59, 163694.52, -44745.29, -41180.18, 130430.98, -40638.67, 60417.48, -49325.98, 135336.77, 9740.04, 0.000, 0.000, 0.000, 14:52:20.004
51, -133674.05, 13027.29, 160159.72, 169956.83, 6717.93, -37815.29, -38659.04, 163691.50, -44745.29, -41180.18, 130430.98, -40638.67, 60417.48, -49325.98, 135336.77, 9740.04, 0.000, 0.000, 0.000, 14:52:20.005
52, -133674.05, 13027.29, 160159.72, 169956.83, 6717.93, -37815.29, -38659.04, 163691.50, -44741.26, -41188.45, 130422.34, -40642.45, 60408.47, -49342.95, 135349.36, 9766.75, 0.000, 0.000, 0.000, 14:52:20.005
53, -133635.55, 13079.28, 160158.33, 169999.05, 6704.94, -37834.53, -38655.04, 163693.78, -44741.26, -41188.45, 130422.34, -40642.45, 60408.47, -49342.95, 135349.36, 9766.75, 0.000, 0.000, 0.000, 14:52:20.006
54, -133635.55, 13079.28, 160158.33, 169999.05, 6704.94, -37834.53, -38655.04, 163693.78, -44762.59, -41187.98, 130436.38, -40649.55, 60417.25, -49343.64, 135334.78, 9757.05, 0.000, 0.000, 0.000, 14:52:20.006
55, -133837.66, 12945.10, 160164.80, 169953.30, 6701.19, -37819.22, -38657.59, 163689.23, -44762.59, -41187.98, 130436.38, -40649.55, 60417.25, -49343.64, 135334.78, 9757.05, 0.000, 0.000, 0.000, 14:52:20.007
56, -133837.66, 12945.10, 160164.80, 169953.30, 6701.19, -37819.22, -38657.59, 163689.23, -44731.20, -41185.25, 130430.34, -40634.57, 60419.71, -49326.43, 135333.69, 9750.48, 0.000, 0.000, 0.000, 14:52:20.007
57, -133609.94, 13149.60, 160158.69, 169990.98, 6709.01, -37817.18, -38668.20, 163690.00, -44731.20, -41185.25, 130430.34, -40634.57, 60419.71, -49326.43, 135333.69, 9750.48, 0.010, 0.858, -0.372, 14:52:20.008
58, -133609.94, 13149.60, 160158.69, 169990.98, 6709.01, -37817.18, -38668.20, 163690.00, -44770.57, -41180.18, 130441.55, -40640.12, 60422.44, -49318.79, 135333.91, 9770.37, 0.000, 0.000, 0.000, 14:52:20.008
59, -133882.11, 12953.66, 160173.27, 169949.36, 6710.55, -37786.83, -38654.32, 163705.11, -44770.57, -41180.18, 130441.55, -40640.12, 60422.44, -49318.79, 135333.91, 9770.37, 0.000, 0.000, 0.000, 14:52:20.008
60, -133882.11, 12953.66, 160173.27, 169949.36, 6710.55, -37786.83, -38654.32, 163705.11, -44740.97, -41178.77, 130447.93, -40630.53, 60422.17, -49312.46, 135329.75, 9748.09, 0.000, 0.000, 0.000, 14:52:20.009
61, -133824.89, 13023.80, 160164.09, 169931.41, 6719.87, -37806.52, -38663.49, 163703.48, -44740.97, -41178.77, 130447.93, -40630.53, 60422.17, -49312.46, 135329.75, 9748.09, 0.000, 0.000, 0.000, 14:52:20.009
62, -133824.89, 13023.80, 160164.09, 169931.41, 6719.87, -37806.52, -38663.49, 163703.48, -44751.07, -41189.88, 130431.66, -40634.78, 60404.92, -49333.41, 135340.84, 9779.04, 0.000, 0.000, 0.000, 14:52:20.010
63, -133792.20, 13070.27, 160165.00, 169975.25, 6706.98, -37803.66, -38662.68, 163712.67, -44751.07, -41189.88, 130431.66, -40634.78, 60404.92, -49333.41, 135340.84, 9779.04, 0.000, 0.000, 0.000, 14:52:20.010
64, -133792.20, 13070.27, 160165.00, 169975.25, 6706.98, -37803.66, -38662.68, 163712.67, -44771.59, -41187.89, 130445.49, -40638.71, 60402.50, -49329.27, 135334.06, 9777.79, 0.000, 0.000, 0.000, 14:52:20.010
65, -133979.92, 12947.07, 160162.42, 169951.11, 6695.69, -37807.77, -38660.83, 163709.30, -44771.59, -41187.89, 130445.49, -40638.71, 60402.50, -49329.27, 135334.06, 9777.79, 0.000, 0.000, 0.000, 14:52:20.011
66, -133979.92, 12947.07, 160162.42, 169951.11, 6695.69, -37807.77, -38660.83, 163709.30, -44744.21, -41177.03, 130431.16, -40638.84, 60382.54, -49333.65, 135330.36, 9765.01, 0.000, 0.000, 0.000, 14:52:20.011
67, -133771.56, 13131.67, 160165.80, 169977.45, 6692.47, -37827.53, -38661.12, 163701.31, -44744.21, -41177.03, 130431.16, -40638.84, 60382.54, -49333.65, 135330.36, 9765.01, 0.012, 0.866, -0.380, 14:52:20.011
68, -133771.56, 13131.67, 160165.80, 169977.45, 6692.47, -37827.53, -38661.12, 163701.31, -44773.49, -41182.73, 130439.88, -40642.80, 60392.46, -49339.64, 135339.05, 9767.73, 0.000, 0.000, 0.000, 14:52:20.011
69, -134019.94, 12957.51, 160161.38, 169962.34, 6693.52, -37822.17, -38650.41, 163716.75, -44773.49, -41182.73, 130439.88, -40642.80, 60392.46, -49339.64, 135339.05, 9767.73, 0.000, 0.000, 0.000, 14:52:20.012
70, -134019.94, 12957.51, 160161.38, 169962.34, 6693.52, -37822.17, -38650.41, 163716.75, -44770.99, -41181.61, 130428.28, -40650.09, 60378.21, -49335.37, 135324.98, 9748.94, 0.000, 0.000, 0.000, 14:52:20.012
71, -133956.50, 13034.67, 160155.97, 169953.55, 6695.98, -37827.18, -38662.10, 163695.39, -44770.99, -41181.61, 130428.28, -40650.09, 60378.21, -49335.37, 135324.98, 9748.94, 0.000, 0.000, 0.000, 14:52:20.013
72, -133956.50, 13034.67, 160155.97, 169953.55, 6695.98, -37827.18, -38662.10, 163695.39, -44758.81, -41188.56, 130425.30, -40649.93, 60371.34, -49346.32, 135336.72, 9755.42, 0.000, 0.000, 0.000, 14:52:20.013
73, -133933.77, 13069.51, 160154.09, 169978.80, 6681.25, -37823.49, -38665.52, 163695.28, -44758.81, -41188.56, 130425.30, -40649.93, 60371.34, -49346.32, 135336.72, 9755.42, 0.000, 0.000, 0.000, 14:52:20.014
74, -133933.77, 13069.51, 160154.09, 169978.80, 6681.25, -37823.49, -38665.52, 163695.28, -44778.93, -41172.23, 130438.36, -40648.34, 60386.66, -49325.78, 135324.72, 9746.86, 0.000, 0.000, 0.000, 14:52:20.014
75, -134149.47, 12919.91, 160160.44, 169933.63, 6664.93, -37801.27, -38654.77, 163697.36, -44778.93, -41172.23, 130438.36, -40648.34, 60386.66, -49325.78, 135324.72, 9746.86, 0.000, 0.000, 0.000, 14:52:20.014
76, -134149.47, 12919.91, 160160.44, 169933.63, 6664.93, -37801.27, -38654.77, 163697.36, -44749.44, -41174.35, 130426.65, -40634.96, 60368.48, -49333.70, 135321.81, 9750.14, 0.000, 0.000, 0.000, 14:52:20.015
77, -133902.14, 13142.42, 160140.25, 169992.63, 6660.08, -37817.56, -38669.28, 163697.16, -44749.44, -41174.35, 130426.65, -40634.96, 60368.48, -49333.70, 135321.81, 9750.14, 0.014, 0.864, -0.382, 14:52:20.015
78, -133902.14, 13142.42, 160140.25, 169992.63, 6660.08, -37817.56, -38669.28, 163697.16, -44788.27, -41185.99, 130423.85, -40653.33, 60377.22, -49341.50, 135313.88, 9789.75, 0.000, 0.000, 0.000, 14:52:20.015
79, -134125.42, 12994.05, 160153.33, 169995.56, 6659.37, -37788.53, -38663.42, 163707.09, -44788.27, -41185.99, 130423.85, -40653.33, 60377.22, -49341.50, 135313.88, 9789.75, 0.000, 0.000, 0.000, 14:52:20.016
80, -134125.42, 12994.05, 160153.33, 169995.56, 6659.37, -37788.53, -38663.42, 163707.09, -44756.93, -41164.89, 130440.30, -40636.77, 60393.34, -49328.53, 135309.36, 9770.64, 0.000, 0.000, 0.000, 14:52:20.016
81, -134087.00, 13048.03, 160162.22, 169969.16, 6671.46, -37802.54, -38661.83, 163697.20, -44756.93, -41164.89, 130440.30, -40636.77, 60393.34, -49328.53, 135309.36, 9770.64, 0.000, 0.000, 0.000, 14:52:20.016
82, -134087.00, 13048.03, 160162.22, 169969.16, 6671.46, -37802.54, -38661.83, 163697.20, -44761.04, -41168.54, 130428.08, -40640.45, 60391.48, -49326.07, 135321.61, 9779.71, 0.000, 0.000, 0.000, 14:52:20.017
83, -134082.20, 13075.77, 160155.78, 169996.34, 6671.53, -37793.63, -38660.18, 163707.09, -44761.04, -41168.54, 130428.08, -40640.45, 60391.48, -49326.07, 135321.61, 9779.71, 0.000, 0.000, 0.000, 14:52:20.017
84, -134082.20, 13075.77, 160155.78, 169996.34, 6671.53, -37793.63, -38660.18, 163707.09, -44786.41, -41170.37, 130437.58, -40646.63, 60399.55, -49315.03, 135315.06, 9788.79, 0.000, 0.000, 0.000, 14:52:20.017
85, -134319.56, 12921.83, 160165.98, 169952.95, 6682.12, -37788.89, -38655.42, 163707.86, -44786.41, -41170.37, 130437.58, -40646.63, 60399.55, -49315.03, 135315.06, 9788.79, 0.000, 0.000, 0.000, 14:52:20.017
86, -134319.56, 12921.83, 160165.98, 169952.95, 6682.12, -37788.89, -38655.42, 163707.86, -44751.75, -41170.64, 130434.90, -40640.23, 60389.72, -49324.53, 135321.30, 9771.22, 0.000, 0.000, 0.000, 14:52:20.018
87, -134158.92, 13085.36, 160159.25, 169968.94, 6696.60, -37802.88, -38657.36, 163700.45, -44751.75, -41170.64, 130434.90, -40640.23, 60389.72, -49324.53, 135321.30, 9771.22, 0.012, 0.866, -0.382, 14:52:20.018
88, -134158.92, 13085.36, 160159.25, 169968.94, 6696.60, -37802.88, -38657.36, 163700.45, -44787.80, -41188.99, 130430.59, -40661.96, 60375.28, -49334.12, 135330.23, 9796.25, 0.000, 0.000, 0.000, 14:52:20.018
89, -134395.83, 12924.16, 160157.00, 169964.47, 6694.84, -37811.48, -38662.04, 163701.16, -44787.80, -41188.99, 130430.59, -40661.96, 60375.28, -49334.12, 135330.23, 9796.25, 0.000, 0.000, 0.000, 14:52:20.018
90, -134395.83, 12924.16, 160157.00, 169964.47, 6694.84, -37811.48, -38662.04, 163701.16, -44770.16, -41183.78, 130434.63, -40659.90, 60387.41, -49339.89, 135326.27, 9767.87, 0.000, 0.000, 0.000, 14:52:20.019
91, -134322.84, 13005.81, 160154.48, 169959.91, 6700.45, -37827.09, -38661.54, 163685.89, -44770.16, -41183.78, 130434.63, -40659.90, 60387.41, -49339.89, 135326.27, 9767.87, 0.000, 0.000, 0.000, 14:52:20.019
92, -134322.84, 13005.81, 160154.48, 169959.91, 6700.45, -37827.09, -38661.54, 163685.89, -44773.89, -41200.39, 130422.98, -40663.32, 60364.68, -49368.92, 135336.30, 9782.62, 0.000, 0.000, 0.000, 14:52:20.019
93, -134268.67, 13066.85, 160146.89, 170004.53, 6683.69, -37831.87, -38668.02, 163678.73, -44773.89, -41200.39, 130422.98, -40663.32, 60364.68, -49368.92, 135336.30, 9782.62, 0.000, 0.000, 0.000, 14:52:20.019
94, -134268.67, 13066.85, 160146.89, 170004.53, 6683.69, -37831.87, -38668.02, 163678.73, -44795.40, -41194.51, 130437.09, -40665.55, 60372.53, -49347.26, 135322.55, 9761.59, 0.000, 0.000, 0.000, 14:52:20.019
95, -134468.66, 12929.17, 160157.27, 169960.22, 6679.04, -37826.68, -38662.77, 163671.69, -44795.40, -41194.51, 130437.09, -40665.55, 60372.53, -49347.26, 135322.55, 9761.59, 0.000, 0.000, 0.000, 14:52:20.020
96, -134468.66, 12929.17, 160157.27, 169960.22, 6679.04, -37826.68, -38662.77, 163671.69, -44756.95, -41184.77, 130435.21, -40651.45, 60377.29, -49348.80, 135327.61, 9746.52, 0.000, 0.000, 0.000, 14:52:20.020
97, -134227.05, 13140.28, 160152.61, 169996.55, 6671.01, -37820.96, -38666.32, 163669.72, -44756.95, -41184.77, 130435.21, -40651.45, 60377.29, -49348.80, 135327.61, 9746.52, 0.012, 0.868, -0.384, 14:52:20.020
98, -134227.05, 13140.28, 160152.61, 169996.55, 6671.01, -37820.96, -38666.32, 163669.72, -44794.70, -41179.69, 130441.36, -40654.25, 60368.15, -49335.02, 135328.81, 9769.14, 0.000, 0.000, 0.000, 14:52:20.021
99, -134456.91, 12971.59, 160168.17, 169974.33, 6657.22, -37820.71, -38652.16, 163684.34, -44794.70, -41179.69, 130441.36, -40654.25, 60368.15, -49335.02, 135328.81, 9769.14, 0.000, 0.000, 0.000, 14:52:20.021
100, -134456.91, 12971.59, 160168.17, 169974.33, 6657.22, -37820.71, -38652.16, 163684.34, -44776.64, -41172.43, 130443.30, -40641.64, 60365.22, -49329.49, 135322.64, 9755.55, 0.000, 0.000, 0.000, 14:52:20.022
101, -134381.52, 13053.22, 160159.41, 169970.45, 6664.71, -37812.02, -38653.50, 163689.58, -44776.64, -41172.43, 130443.30, -40641.64, 60365.22, -49329.49, 135322.64, 9755.55, 0.000, 0.000, 0.000, 14:52:20.022
102, -134381.52, 13053.22, 160159.41, 169970.45, 6664.71, -37812.02, -38653.50, 163689.58, -44781.23, -41180.03, 130426.94, -40645.89, 60352.32, -49341.34, 135325.14, 9782.08, 0.000, 0.000, 0.000, 14:52:20.022
103, -134313.53, 13122.91, 160145.73, 170016.81, 6651.41, -37803.53, -38659.42, 163702.19, -44781.23, -41180.03, 130426.94, -40645.89, 60352.32, -49341.34, 135325.14, 9782.08, 0.000, 0.000, 0.000, 14:52:20.023
104, -134313.53, 13122.91, 160145.73, 170016.81, 6651.41, -37803.53, -38659.42, 163702.19, -44808.18, -41183.33, 130431.12, -40658.40, 60351.61, -49336.78, 135315.00, 9805.55, 0.000, 0.000, 0.000, 14:52:20.023
105, -134476.41, 13005.92, 160151.86, 170002.88, 6645.89, -37801.89, -38656.89, 163701.36, -44808.18, -41183.33, 130431.12, -40658.40, 60351.61, -49336.78, 135315.00, 9805.55, 0.000, 0.000, 0.000, 14:52:20.023
106, -134476.41, 13005.92, 160151.86, 170002.88, 6645.89, -37801.89, -38656.89, 163701.36, -44781.43, -41180.99, 130425.24, -40650.09, 60343.76, -49334.30, 135326.00, 9800.17, 0.000, 0.000, 0.000, 14:52:20.024
107, -134220.30, 13214.22, 160154.94, 170044.22, 6649.64, -37802.16, -38659.87, 163700.34, -44781.43, -41180.99, 130425.24, -40650.09, 60343.76, -49334.30, 135326.00, 9800.17, 0.018, 0.874, -0.382, 14:52:20.024
108, -134220.30, 13214.22, 160154.94, 170044.22, 6649.64, -37802.16, -38659.87, 163700.34, -44811.27, -41194.69, 130431.37, -40665.96, 60346.13, -49344.63, 135334.56, 9815.08, 0.000, 0.000, 0.000, 14:52:20.024
109, -134415.31, 13060.88, 160159.70, 170042.25, 6636.84, -37805.47, -38657.86, 163701.11, -44811.27, -41194.69, 130431.37, -40665.96, 60346.13, -49344.63, 135334.56, 9815.08, 0.000, 0.000, 0.000, 14:52:20.025
110, -134415.31, 13060.88, 160159.70, 170042.25, 6636.84, -37805.47, -38657.86, 163701.11, -44798.28, -41183.38, 130433.65, -40661.35, 60340.86, -49343.78, 135331.09, 9789.75, 0.000, 0.000, 0.000, 14:52:20.025
111, -134315.92, 13141.69, 160153.55, 170040.16, 6633.04, -37807.73, -38666.91, 163684.17, -44798.28, -41183.38, 130433.65, -40661.35, 60340.86, -49343.78, 135331.09, 9789.75, 0.000, 0.000, 0.000, 14:52:20.026
112, -134315.92, 13141.69, 160153.55, 170040.16, 6633.04, -37807.73, -38666.91, 163684.17, -44801.66, -41208.14, 130422.23, -40670.34, 60333.93, -49360.20, 135340.48, 9784.07, 0.000, 0.000, 0.000, 14:52:20.026
113, -134243.95, 13191.95, 160154.89, 170068.61, 6630.29, -37825.74, -38664.76, 163684.95, -44801.66, -41208.14, 130422.23, -40670.34, 60333.93, -49360.20, 135340.48, 9784.07, 0.000, 0.000, 0.000, 14:52:20.026
114, -134243.95, 13191.95, 160154.89, 170068.61, 6630.29, -37825.74, -38664.76, 163684.95, -44819.20, -41175.18, 130438.34, -40665.36, 60352.64, -49340.94, 135337.94, 9773.17, 0.000, 0.000, 0.000, 14:52:20.027
115, -134408.30, 13057.08, 160160.84, 170036.70, 6636.46, -37836.59, -38657.90, 163684.08, -44819.20, -41175.18, 130438.34, -40665.36, 60352.64, -49340.94, 135337.94, 9773.17, 0.000, 0.000, 0.000, 14:52:20.027
116, -134408.30, 13057.08, 160160.84, 170036.70, 6636.46, -37836.59, -38657.90, 163684.08, -44790.17, -41179.33, 130433.63, -40655.50, 60334.31, -49346.91, 135337.97, 9751.84, 0.022, 0.868, -0.380, 14:52:20.028
117, -134151.19, 13248.93, 160163.44, 170057.39, 6631.65, -37828.76, -38661.57, 163674.78, -44790.17, -41179.33, 130433.63, -40655.50, 60334.31, -49346.91, 135337.97, 9751.84, 0.000, 0.000, 0.000, 14:52:20.028
118, -134151.19, 13248.93, 160163.44, 170057.39, 6631.65, -37828.76, -38661.57, 163674.78, -44816.81, -41173.50, 130447.55, -40654.54, 60335.40, -49335.68, 135342.77, 9770.30, 0.000, 0.000, 0.000, 14:52:20.028
119, -134338.55, 13087.35, 160173.98, 170038.83, 6620.81, -37818.79, -38656.91, 163680.97, -44816.81, -41173.50, 130447.55, -40654.54, 60335.40, -49335.68, 135342.77, 9770.30, 0.000, 0.000, 0.000, 14:52:20.029
120, -134338.55, 13087.35, 160173.98, 170038.83, 6620.81, -37818.79, -38656.91, 163680.97, -44799.38, -41163.84, 130451.86, -40643.58, 60331.27, -49331.39, 135331.30, 9754.77, 0.000, 0.000, 0.000, 14:52:20.029
121, -134205.53, 13189.58, 160160.14, 170050.77, 6618.24, -37836.34, -38674.80, 163668.05, -44799.38, -41163.84, 130451.86, -40643.58, 60331.27, -49331.39, 135331.30, 9754.77, 0.000, 0.000, 0.000, 14:52:20.462
122, -134205.53, 13189.58, 160160.14, 170050.77, 6618.24, -37836.34, -38674.80, 163668.05, -44804.50, -41186.15, 130429.51, -40661.51, 60305.38, -49362.48, 135327.20, 9781.66, 0.000, 0.000, 0.000, 14:52:20.463
123, -134083.66, 13269.92, 160157.59, 170098.89, 6604.92, -37838.84, -38689.30, 163662.94, -44804.50, -41186.15, 130429.51, -40661.51, 60305.38, -49362.48, 135327.20, 9781.66, 0.000, 0.000, 0.000, 14:52:20.463
124, -134083.66, 13269.92, 160157.59, 170098.89, 6604.92, -37838.84, -38689.30, 163662.94, -44826.31, -41170.10, 130444.15, -40665.09, 60326.77, -49335.57, 135316.89, 9777.79, 0.000, 0.000, 0.000, 14:52:20.464
125, -134229.31, 13136.54, 160164.81, 170062.34, 6602.01, -37817.61, -38684.92, 163663.92, -44826.31, -41170.10, 130444.15, -40665.09, 60326.77, -49335.57, 135316.89, 9777.79, 0.000, 0.000, 0.000, 14:52:20.464
126, -134229.31, 13136.54, 160164.81, 170062.34, 6602.01, -37817.61, -38684.92, 163663.92, -44790.66, -41172.71, 130436.57, -40657.13, 60334.29, -49354.77, 135319.27, 9762.44, 0.016, 0.868, -0.378, 14:52:20.464
127, -133933.69, 13347.68, 160155.61, 170095.94, 6612.00, -37832.92, -38686.04, 163661.69, -44790.66, -41172.71, 130436.57, -40657.13, 60334.29, -49354.77, 135319.27, 9762.44, 0.000, 0.000, 0.000, 14:52:20.465
128, -133933.69, 13347.68, 160155.61, 170095.94, 6612.00, -37832.92, -38686.04, 163661.69, -44831.68, -41179.82, 130433.55, -40673.69, 60329.61, -49346.21, 135318.44, 9785.12, 0.000, 0.000, 0.000, 14:52:20.465
129, -134082.61, 13200.65, 160156.95, 170078.80, 6618.69, -37829.19, -38672.47, 163671.36, -44831.68, -41179.82, 130433.55, -40673.69, 60329.61, -49346.21, 135318.44, 9785.12, 0.000, 0.000, 0.000, 14:52:20.465
130, -134082.61, 13200.65, 160156.95, 170078.80, 6618.69, -37829.19, -38672.47, 163671.36, -44811.00, -41176.14, 130440.33, -40667.43, 60339.65, -49342.93, 135321.80, 9766.06, 0.000, 0.000, 0.000, 14:52:20.466
131, -133935.69, 13287.08, 160156.14, 170062.95, 6627.76, -37818.34, -38669.72, 163671.67, -44811.00, -41176.14, 130440.33, -40667.43, 60339.65, -49342.93, 135321.80, 9766.06, 0.000, 0.000, 0.000, 14:52:20.466
132, -133935.69, 13287.08, 160156.14, 170062.95, 6627.76, -37818.34, -38669.72, 163671.67, -44809.50, -41191.02, 130420.44, -40680.06, 60318.66, -49354.41, 135335.98, 9786.53, 0.000, 0.000, 0.000, 14:52:20.466
133, -133765.83, 13382.53, 160154.13, 170109.75, 6623.38, -37842.53, -38678.57, 163671.05, -44809.50, -41191.02, 130420.44, -40680.06, 60318.66, -49354.41, 135335.98, 9786.53, 0.000, 0.000, 0.000, 14:52:20.467
134, -133765.83, 13382.53, 160154.13, 170109.75, 6623.38, -37842.53, -38678.57, 163671.05, -44838.36, -41186.78, 130432.39, -40687.62, 60343.05, -49363.63, 135335.97, 9783.07, 0.000, 0.000, 0.000, 14:52:20.467
135, -133846.98, 13274.41, 160168.45, 170083.14, 6624.88, -37828.96, -38673.79, 163668.20, -44838.36, -41186.78, 130432.39, -40687.62, 60343.05, -49363.63, 135335.97, 9783.07, 0.000, 0.000, 0.000, 14:52:20.467
136, -133846.98, 13274.41, 160168.45, 170083.14, 6624.88, -37828.96, -38673.79, 163668.20, -44793.57, -41163.98, 130432.98, -40667.25, 60332.52, -49361.66, 135350.89, 9777.08, 0.010, 0.868, -0.370, 14:52:20.468
137, -133465.13, 13518.49, 160163.63, 170123.14, 6627.69, -37853.19, -38673.90, 163663.42, -44793.57, -41163.98, 130432.98, -40667.25, 60332.52, -49361.66, 135350.89, 9777.08, 0.000, 0.000, 0.000, 14:52:20.468
138, -133465.13, 13518.49, 160163.63, 170123.14, 6627.69, -37853.19, -38673.90, 163663.42, -44826.04, -41188.81, 130427.81, -40692.38, 60328.18, -49376.12, 135350.42, 9789.06, 0.000, 0.000, 0.000, 14:52:20.468
139, -133482.11, 13422.58, 160151.45, 170118.86, 6609.77, -37853.53, -38669.90, 163664.67, -44826.04, -41188.81, 130427.81, -40692.38, 60328.18, -49376.12, 135350.42, 9789.06, 0.000, 0.000, 0.000, 14:52:20.469
140, -133482.11, 13422.58, 160151.45, 170118.86, 6609.77, -37853.53, -38669.90, 163664.67, -44814.33, -41192.21, 130413.26, -40706.28, 60305.74, -49361.57, 135336.64, 9777.75, 0.000, 0.000, 0.000, 14:52:20.469
141, -133152.80, 13592.61, 160140.94, 170132.89, 6602.30, -37859.36, -38675.36, 163649.59, -44814.33, -41192.21, 130413.26, -40706.28, 60305.74, -49361.57, 135336.64, 9777.75, 0.000, 0.000, 0.000, 14:52:20.469
142, -133152.80, 13592.61, 160140.94, 170132.89, 6602.30, -37859.36, -38675.36, 163649.59, -44809.59, -41183.58, 130407.31, -40703.75, 60292.15, -49366.60, 135344.09, 9792.41, 0.000, 0.000, 0.000, 14:52:20.470
143, -132811.25, 13748.51, 160137.61, 170182.88, 6582.01, -37856.72, -38682.69, 163651.55, -44809.59, -41183.58, 130407.31, -40703.75, 60292.15, -49366.60, 135344.09, 9792.41, 0.000, 0.000, 0.000, 14:52:20.470
144, -132811.25, 13748.51, 160137.61, 170182.88, 6582.01, -37856.72, -38682.69, 163651.55, -44841.40, -41188.88, 130415.52, -40714.68, 60297.70, -49359.63, 135333.39, 9793.30, 0.000, 0.000, 0.000, 14:52:20.470
145, -132756.81, 13668.56, 160136.72, 170149.05, 6568.46, -37844.63, -38683.63, 163641.03, -44841.40, -41188.88, 130415.52, -40714.68, 60297.70, -49359.63, 135333.39, 9793.30, 0.000, 0.000, 0.000, 14:52:20.471
146, -132756.81, 13668.56, 160136.72, 170149.05, 6568.46, -37844.63, -38683.63, 163641.03, -44817.82, -41194.96, 130398.38, -40714.08, 60263.30, -49378.24, 135323.48, 9781.84, 0.012, 0.860, -0.376, 14:52:20.471
147, -132272.28, 13935.31, 160120.53, 170196.75, 6558.83, -37851.09, -38696.68, 163642.39, -44817.82, -41194.96, 130398.38, -40714.08, 60263.30, -49378.24, 135323.48, 9781.84, 0.000, 0.000, 0.000, 14:52:20.472
148, -132272.28, 13935.31, 160120.53, 170196.75, 6558.83, -37851.09, -38696.68, 163642.39, -44860.22, -41194.42, 130398.15, -40735.67, 60250.00, -49375.18, 135316.20, 9807.16, 0.000, 0.000, 0.000, 14:52:20.472
149, -132293.80, 13799.56, 160141.61, 170173.30, 6547.59, -37853.28, -38691.16, 163639.86, -44860.22, -41194.42, 130398.15, -40735.67, 60250.00, -49375.18, 135316.20, 9807.16, 0.000, 0.000, 0.000, 14:52:20.472
150, -132293.80, 13799.56, 160141.61, 170173.30, 6547.59, -37853.28, -38691.16, 163639.86, -44834.67, -41173.57, 130415.80, -40717.97, 60271.77, -49337.88, 135316.11, 9776.38, 0.000, 0.000, 0.000, 14:52:20.473
151, -132051.11, 13889.69, 160140.92, 170163.67, 6563.52, -37849.46, -38691.54, 163645.67, -44834.67, -41173.57, 130415.80, -40717.97, 60271.77, -49337.88, 135316.11, 9776.38, 0.000, 0.000, 0.000, 14:52:20.473
152, -132051.11, 13889.69, 160140.92, 170163.67, 6563.52, -37849.46, -38691.54, 163645.67, -44843.43, -41200.72, 130394.89, -40732.84, 60255.76, -49354.75, 135329.80, 9806.98, 0.000, 0.000, 0.000, 14:52:20.474
153, -131800.25, 13982.42, 160143.30, 170206.09, 6570.03, -37835.11, -38694.13, 163655.63, -44843.43, -41200.72, 130394.89, -40732.84, 60255.76, -49354.75, 135329.80, 9806.98, 0.000, 0.000, 0.000, 14:52:20.474
154, -131800.25, 13982.42, 160143.30, 170206.09, 6570.03, -37835.11, -38694.13, 163655.63, -44866.45, -41191.45, 130411.78, -40739.99, 60264.12, -49349.50, 135326.31, 9805.96, 0.000, 0.000, 0.000, 14:52:20.474
155, -131818.53, 13865.68, 160142.70, 170175.63, 6586.68, -37838.69, -38692.50, 163658.06, -44866.45, -41191.45, 130411.78, -40739.99, 60264.12, -49349.50, 135326.31, 9805.96, 0.000, 0.000, 0.000, 14:52:20.474
156, -131818.53, 13865.68, 160142.70, 170175.63, 6586.68, -37838.69, -38692.50, 163658.06, -44838.11, -41191.49, 130399.60, -40735.49, 60245.97, -49377.26, 135328.45, 9796.52, 0.008, 0.868, -0.374, 14:52:20.475
157, -131391.97, 14101.36, 160133.72, 170221.22, 6607.22, -37862.13, -38701.04, 163662.03, -44838.11, -41191.49, 130399.60, -40735.49, 60245.97, -49377.26, 135328.45, 9796.52, 0.000, 0.000, 0.000, 14:52:20.475
158, -131391.97, 14101.36, 160133.72, 170221.22, 6607.22, -37862.13, -38701.04, 163662.03, -44881.12, -41216.62, 130391.24, -40763.28, 60229.34, -49383.61, 135325.61, 9818.70, 0.000, 0.000, 0.000, 14:52:20.476
159, -131389.63, 13996.46, 160133.39, 170244.47, 6621.17, -37842.60, -38693.10, 163692.38, -44881.12, -41216.62, 130391.24, -40763.28, 60229.34, -49383.61, 135325.61, 9818.70, 0.000, 0.000, 0.000, 14:52:20.476
160, -131389.63, 13996.46, 160133.39, 170244.47, 6621.17, -37842.60, -38693.10, 163692.38, -44856.24, -41189.61, 130409.91, -40748.01, 60234.64, -49344.94, 135318.48, 9795.52, 0.000, 0.000, 0.000, 14:52:20.476
161, -131172.86, 14064.92, 160137.77, 170228.69, 6656.64, -37853.68, -38685.95, 163697.28, -44856.24, -41189.61, 130409.91, -40748.01, 60234.64, -49344.94, 135318.48, 9795.52, 0.000, 0.000, 0.000, 14:52:20.477
162, -131172.86, 14064.92, 160137.77, 170228.69, 6656.64, -37853.68, -38685.95, 163697.28, -44851.41, -41191.22, 130398.53, -40739.79, 60228.38, -49361.59, 135325.19, 9799.25, 0.000, 0.000, 0.000, 14:52:20.477
163, -130957.41, 14138.60, 160131.92, 170277.22, 6665.16, -37845.70, -38682.87, 163715.91, -44851.41, -41191.22, 130398.53, -40739.79, 60228.38, -49361.59, 135325.19, 9799.25, 0.000, 0.000, 0.000, 14:52:20.477
164, -130957.41, 14138.60, 160131.92, 170277.22, 6665.16, -37845.70, -38682.87, 163715.91, -44865.98, -41180.43, 130413.55, -40734.87, 60235.00, -49354.19, 135311.22, 9809.06, 0.000, 0.000, 0.000, 14:52:20.477
165, -131047.27, 13985.29, 160141.33, 170250.44, 6682.57, -37839.82, -38673.03, 163716.02, -44865.98, -41180.43, 130413.55, -40734.87, 60235.00, -49354.19, 135311.22, 9809.06, 0.000, 0.000, 0.000, 14:52:20.478
166, -131047.27, 13985.29, 160141.33, 170250.44, 6682.57, -37839.82, -38673.03, 163716.02, -44830.58, -41189.35, 130404.14, -40723.40, 60239.27, -49369.73, 135309.08, 9793.17, 0.008, 0.868, -0.370, 14:52:20.478
167, -130722.41, 14168.46, 160130.27, 170291.56, 6710.60, -37844.23, -38680.23, 163721.36, -44830.58, -41189.35, 130404.14, -40723.40, 60239.27, -49369.73, 135309.08, 9793.17, 0.000, 0.000, 0.000, 14:52:20.478
168, -130722.41, 14168.46, 160130.27, 170291.56, 6710.60, -37844.23, -38680.23, 163721.36, -44862.09, -41179.58, 130402.82, -40735.94, 60245.13, -49354.97, 135308.16, 9823.01, 0.000, 0.000, 0.000, 14:52:20.479
169, -130884.55, 13971.09, 160149.34, 170270.52, 6719.11, -37825.66, -38663.71, 163730.80, -44862.09, -41179.58, 130402.82, -40735.94, 60245.13, -49354.97, 135308.16, 9823.01, 0.000, 0.000, 0.000, 14:52:20.479
170, -130884.55, 13971.09, 160149.34, 170270.52, 6719.11, -37825.66, -38663.71, 163730.80, -44833.17, -41155.98, 130418.96, -40709.12, 60254.73, -49326.92, 135311.06, 9798.40, 0.000, 0.000, 0.000, 14:52:20.479
171, -130804.70, 13981.62, 160148.77, 170245.55, 6729.57, -37810.12, -38663.78, 163731.06, -44833.17, -41155.98, 130418.96, -40709.12, 60254.73, -49326.92, 135311.06, 9798.40, 0.000, 0.000, 0.000, 14:52:20.480
172, -130804.70, 13981.62, 160148.77, 170245.55, 6729.57, -37810.12, -38663.78, 163731.06, -44830.11, -41161.41, 130405.52, -40706.10, 60251.72, -49333.29, 135320.61, 9816.55, 0.000, 0.000, 0.000, 14:52:20.480
173, -130718.92, 14003.21, 160143.83, 170274.00, 6715.65, -37832.38, -38664.49, 163736.78, -44830.11, -41161.41, 130405.52, -40706.10, 60251.72, -49333.29, 135320.61, 9816.55, 0.000, 0.000, 0.000, 14:52:20.480
174, -130718.92, 14003.21, 160143.83, 170274.00, 6715.65, -37832.38, -38664.49, 163736.78, -44856.93, -41146.18, 130414.84, -40712.27, 60255.96, -49326.16, 135310.13, 9823.66, 0.000, 0.000, 0.000, 14:52:20.481
175, -130943.91, 13786.71, 160156.70, 170214.81, 6713.28, -37814.34, -38661.99, 163736.98, -44856.93, -41146.18, 130414.84, -40712.27, 60255.96, -49326.16, 135310.13, 9823.66, 0.000, 0.000, 0.000, 14:52:20.481
176, -130943.91, 13786.71, 160156.70, 170214.81, 6713.28, -37814.34, -38661.99, 163736.98, -44804.14, -41152.96, 130418.87, -40699.64, 60282.38, -49351.22, 135311.47, 9803.39, 0.012, 0.866, -0.374, 14:52:20.481
177, -130737.56, 13925.18, 160151.39, 170235.22, 6720.28, -37820.96, -38669.75, 163734.45, -44804.14, -41152.96, 130418.87, -40699.64, 60282.38, -49351.22, 135311.47, 9803.39, 0.000, 0.000, 0.000, 14:52:20.481
178, -130737.56, 13925.18, 160151.39, 170235.22, 6720.28, -37820.96, -38669.75, 163734.45, -44842.27, -41149.52, 130411.96, -40711.53, 60285.98, -49330.59, 135307.91, 9831.19, 0.000, 0.000, 0.000, 14:52:20.482
179, -130999.48, 13709.20, 160147.38, 170220.23, 6707.22, -37812.89, -38664.45, 163735.55, -44842.27, -41149.52, 130411.96, -40711.53, 60285.98, -49330.59, 135307.91, 9831.19, 0.000, 0.000, 0.000, 14:52:20.482
180, -130999.48, 13709.20, 160147.38, 170220.23, 6707.22, -37812.89, -38664.45, 163735.55, -44841.22, -41144.06, 130401.81, -40713.01, 60271.16, -49322.36, 135295.70, 9818.76, 0.000, 0.000, 0.000, 14:52:20.482
181, -131003.21, 13725.07, 160128.52, 170223.17, 6711.13, -37828.16, -38673.95, 163725.52, -44841.22, -41144.06, 130401.81, -40713.01, 60271.16, -49322.36, 135295.70, 9818.76, 0.000, 0.000, 0.000, 14:52:20.483
182, -131003.21, 13725.07, 160128.52, 170223.17, 6711.13, -37828.16, -38673.95, 163725.52, -44836.68, -41157.00, 130387.38, -40723.43, 60265.11, -49345.81, 135287.55, 9830.54, 0.000, 0.000, 0.000, 14:52:20.483
183, -131034.66, 13726.16, 160125.45, 170252.42, 6689.68, -37802.03, -38673.10, 163730.52, -44836.68, -41157.00, 130387.38, -40723.43, 60265.11, -49345.81, 135287.55, 9830.54, 0.000, 0.000, 0.000, 14:52:20.483
184, -131034.66, 13726.16, 160125.45, 170252.42, 6689.68, -37802.03, -38673.10, 163730.52, -44864.69, -41148.18, 130403.96, -40723.65, 60272.84, -49337.77, 135275.30, 9826.99, 0.000, 0.000, 0.000, 14:52:20.483
185, -131401.66, 13484.47, 160143.05, 170197.70, 6686.46, -37830.93, -38658.48, 163725.61, -44864.69, -41148.18, 130403.96, -40723.65, 60272.84, -49337.77, 135275.30, 9826.99, 0.000, 0.000, 0.000, 14:52:20.484
186, -131401.66, 13484.47, 160143.05, 170197.70, 6686.46, -37830.93, -38658.48, 163725.61, -44805.90, -41131.84, 130424.95, -40702.12, 60305.00, -49329.89, 135280.83, 9799.25, 0.016, 0.866, -0.376, 14:52:20.484
187, -131369.36, 13588.38, 160153.03, 170219.50, 6696.49, -37819.78, -38660.22, 163735.98, -44805.90, -41131.84, 130424.95, -40702.12, 60305.00, -49329.89, 135280.83, 9799.25, 0.000, 0.000, 0.000, 14:52:20.484
188, -131369.36, 13588.38, 160153.03, 170219.50, 6696.49, -37819.78, -38660.22, 163735.98, -44843.52, -41138.96, 130420.66, -40716.52, 60293.58, -49338.14, 135291.95, 9842.77, 0.000, 0.000, 0.000, 14:52:20.485
189, -131704.08, 13406.15, 160151.61, 170238.25, 6691.80, -37813.23, -38654.84, 163744.31, -44843.52, -41138.96, 130420.66, -40716.52, 60293.58, -49338.14, 135291.95, 9842.77, 0.000, 0.000, 0.000, 14:52:20.485
190, -131704.08, 13406.15, 160151.61, 170238.25, 6691.80, -37813.23, -38654.84, 163744.31, -44831.99, -41136.02, 130422.60, -40710.84, 60290.23, -49336.80, 135287.55, 9838.66, 0.000, 0.000, 0.000, 14:52:20.485
191, -131733.42, 13458.97, 160152.25, 170265.64, 6701.32, -37815.08, -38654.41, 163734.13, -44831.99, -41136.02, 130422.60, -40710.84, 60290.23, -49336.80, 135287.55, 9838.66, 0.000, 0.000, 0.000, 14:52:20.485
192, -131733.42, 13458.97, 160152.25, 170265.64, 6701.32, -37815.08, -38654.41, 163734.13, -44812.21, -41128.46, 130426.05, -40698.79, 60290.48, -49332.00, 135304.61, 9864.45, 0.000, 0.000, 0.000, 14:52:20.485
193, -131746.14, 13513.89, 160170.77, 170315.55, 6703.82, -37792.60, -38648.24, 163743.84, -44812.21, -41128.46, 130426.05, -40698.79, 60290.48, -49332.00, 135304.61, 9864.45, 0.000, 0.000, 0.000, 14:52:20.486
194, -131746.14, 13513.89, 160170.77, 170315.55, 6703.82, -37792.60, -38648.24, 163743.84, -44828.63, -41112.25, 130450.95, -40695.02, 60320.47, -49308.80, 135318.19, 9882.85, 0.000, 0.000, 0.000, 14:52:20.486
195, -132050.23, 13343.12, 160181.00, 170290.06, 6721.71, -37804.11, -38636.33, 163749.83, -44828.63, -41112.25, 130450.95, -40695.02, 60320.47, -49308.80, 135318.19, 9882.85, 0.000, 0.000, 0.000, 14:52:20.486
196, -132050.23, 13343.12, 160181.00, 170290.06, 6721.71, -37804.11, -38636.33, 163749.83, -44805.84, -41131.86, 130433.87, -40700.89, 60306.99, -49329.61, 135323.00, 9877.30, 0.016, 0.868, -0.384, 14:52:20.487
197, -131889.19, 13540.26, 160165.00, 170350.16, 6729.60, -37815.69, -38653.79, 163744.67, -44805.84, -41131.86, 130433.87, -40700.89, 60306.99, -49329.61, 135323.00, 9877.30, 0.000, 0.000, 0.000, 14:52:20.487
198, -131889.19, 13540.26, 160165.00, 170350.16, 6729.60, -37815.69, -38653.79, 163744.67, -44843.57, -41139.41, 130430.05, -40715.00, 60307.48, -49354.66, 135315.94, 9912.13, 0.000, 0.000, 0.000, 14:52:20.487
199, -132175.45, 13393.39, 160170.27, 170373.02, 6725.35, -37797.07, -38648.11, 163756.19, -44843.57, -41139.41, 130430.05, -40715.00, 60307.48, -49354.66, 135315.94, 9912.13, 0.000, 0.000, 0.000, 14:52:20.487
200, -132175.45, 13393.39, 160170.27, 170373.02, 6725.35, -37797.07, -38648.11, 163756.19, -44831.09, -41119.21, 130436.30, -40699.80, 60317.19, -49322.48, 135300.05, 9908.35, 0.000, 0.000, 0.000, 14:52:20.488
201, -132213.48, 13458.43, 160176.84, 170399.50, 6735.90, -37796.84, -38649.72, 163757.02, -44831.09, -41119.21, 130436.30, -40699.80, 60317.19, -49322.48, 135300.05, 9908.35, 0.000, 0.000, 0.000, 14:52:20.488
202, -132213.48, 13458.43, 160176.84, 170399.50, 6735.90, -37796.84, -38649.72, 163757.02, -44807.85, -41119.74, 130435.95, -40691.06, 60323.00, -49323.50, 135311.08, 9932.74, 0.000, 0.000, 0.000, 14:52:20.488
203, -132198.03, 13563.08, 160167.47, 170480.14, 6747.99, -37803.84, -38645.70, 163769.89, -44807.85, -41119.74, 130435.95, -40691.06, 60323.00, -49323.50, 135311.08, 9932.74, 0.000, 0.000, 0.000, 14:52:20.488
204, -132198.03, 13563.08, 160167.47, 170480.14, 6747.99, -37803.84, -38645.70, 163769.89, -44841.91, -41130.14, 130428.93, -40710.62, 60323.13, -49331.64, 135302.45, 9958.66, 0.000, 0.000, 0.000, 14:52:20.489
205, -132460.20, 13443.95, 160158.78, 170488.13, 6742.45, -37793.29, -38649.36, 163763.48, -44841.91, -41130.14, 130428.93, -40710.62, 60323.13, -49331.64, 135302.45, 9958.66, 0.000, 0.000, 0.000, 14:52:20.489
206, -132460.20, 13443.95, 160158.78, 170488.13, 6742.45, -37793.29, -38649.36, 163763.48, -44809.37, -41126.92, 130426.13, -40707.67, 60330.11, -49333.96, 135296.27, 9924.26, 0.008, 0.866, -0.396, 14:52:20.489
207, -132320.84, 13626.43, 160156.03, 170520.63, 6740.37, -37810.61, -38646.16, 163758.75, -44809.37, -41126.92, 130426.13, -40707.67, 60330.11, -49333.96, 135296.27, 9924.26, 0.000, 0.000, 0.000, 14:52:20.489
208, -132320.84, 13626.43, 160156.03, 170520.63, 6740.37, -37810.61, -38646.16, 163758.75, -44834.71, -41123.36, 130418.91, -40715.49, 60323.98, -49332.24, 135311.63, 9950.13, 0.000, 0.000, 0.000, 14:52:20.490
209, -132567.88, 13496.74, 160151.55, 170549.97, 6716.43, -37814.99, -38646.32, 163766.59, -44834.71, -41123.36, 130418.91, -40715.49, 60323.98, -49332.24, 135311.63, 9950.13, 0.000, 0.000, 0.000, 14:52:20.490
210, -132567.88, 13496.74, 160151.55, 170549.97, 6716.43, -37814.99, -38646.32, 163766.59, -44826.71, -41118.51, 130426.36, -40718.11, 60340.66, -49329.11, 135297.25, 9909.82, 0.000, 0.000, 0.000, 14:52:20.490
211, -132637.34, 13489.30, 160162.31, 170496.67, 6724.28, -37810.99, -38643.80, 163739.36, -44826.71, -41118.51, 130426.36, -40718.11, 60340.66, -49329.11, 135297.25, 9909.82, 0.000, 0.000, 0.000, 14:52:20.490
212, -132637.34, 13489.30, 160162.31, 170496.67, 6724.28, -37810.99, -38643.80, 163739.36, -44808.85, -41121.06, 130419.16, -40709.05, 60343.58, -49339.95, 135313.50, 9896.48, 0.000, 0.000, 0.000, 14:52:20.491
213, -132636.77, 13535.48, 160152.20, 170514.23, 6713.75, -37817.23, -38645.27, 163741.09, -44808.85, -41121.06, 130419.16, -40709.05, 60343.58, -49339.95, 135313.50, 9896.48, 0.000, 0.000, 0.000, 14:52:20.491
214, -132636.77, 13535.48, 160152.20, 170514.23, 6713.75, -37817.23, -38645.27, 163741.09, -44838.87, -41125.78, 130424.46, -40721.75, 60348.84, -49318.14, 135301.44, 9887.65, 0.000, 0.000, 0.000, 14:52:20.491
215, -132930.89, 13341.20, 160168.97, 170447.11, 6711.58, -37809.72, -38642.70, 163733.98, -44838.87, -41125.78, 130424.46, -40721.75, 60348.84, -49318.14, 135301.44, 9887.65, 0.002, 0.868, -0.394, 14:52:20.491
216, -132930.89, 13341.20, 160168.97, 170447.11, 6711.58, -37809.72, -38642.70, 163733.98, -44799.40, -41110.02, 130429.02, -40704.20, 60361.80, -49318.07, 135308.11, 9861.57, 0.000, 0.000, 0.000, 14:52:20.492
217, -132789.94, 13492.16, 160162.16, 170446.58, 6706.77, -37805.00, -38652.09, 163731.95, -44799.40, -41110.02, 130429.02, -40704.20, 60361.80, -49318.07, 135308.11, 9861.57, 0.000, 0.000, 0.000, 14:52:20.492
218, -132789.94, 13492.16, 160162.16, 170446.58, 6706.77, -37805.00, -38652.09, 163731.95, -44836.14, -41112.43, 130429.98, -40711.62, 60359.97, -49317.87, 135312.42, 9876.83, 0.000, 0.000, 0.000, 14:52:20.492
219, -133067.53, 13299.29, 160174.73, 170405.73, 6703.76, -37810.30, -38648.78, 163732.00, -44836.14, -41112.43, 130429.98, -40711.62, 60359.97, -49317.87, 135312.42, 9876.83, 0.000, 0.000, 0.000, 14:52:20.493
220, -133067.53, 13299.29, 160174.73, 170405.73, 6703.76, -37810.30, -38648.78, 163732.00, -44817.68, -41110.67, 130440.91, -40707.18, 60361.60, -49312.44, 135305.41, 9850.23, 0.000, 0.000, 0.000, 14:52:20.493
221, -133109.91, 13295.64, 160173.56, 170353.88, 6695.91, -37818.21, -38658.52, 163719.48, -44817.68, -41110.67, 130440.91, -40707.18, 60361.60, -49312.44, 135305.41, 9850.23, 0.000, 0.000, 0.000, 14:52:20.493
222, -133109.91, 13295.64, 160173.56, 170353.88, 6695.91, -37818.21, -38658.52, 163719.48, -44815.04, -41128.66, 130430.47, -40710.66, 60349.93, -49336.63, 135311.25, 9847.33, 0.000, 0.000, 0.000, 14:52:20.494
223, -133087.56, 13335.05, 160167.50, 170361.09, 6686.21, -37820.71, -38663.24, 163721.67, -44815.04, -41128.66, 130430.47, -40710.66, 60349.93, -49336.63, 135311.25, 9847.33, 0.000, 0.000, 0.000, 14:52:20.494
224, -133087.56, 13335.05, 160167.50, 170361.09, 6686.21, -37820.71, -38663.24, 163721.67, -44841.22, -41124.73, 130435.99, -40720.25, 60347.07, -49329.74, 135303.36, 9842.61, 0.000, 0.000, 0.000, 14:52:20.494
225, -133353.81, 13144.34, 160166.97, 170294.22, 6683.48, -37820.38, -38661.79, 163721.05, -44841.22, -41124.73, 130435.99, -40720.25, 60347.07, -49329.74, 135303.36, 9842.61, 0.010, 0.870, -0.386, 14:52:20.495
226, -133353.81, 13144.34, 160166.97, 170294.22, 6683.48, -37820.38, -38661.79, 163721.05, -44807.89, -41129.18, 130435.10, -40709.39, 60339.20, -49319.21, 135305.03, 9806.96, 0.000, 0.000, 0.000, 14:52:20.495
227, -133187.47, 13294.68, 160159.25, 170282.83, 6685.74, -37808.11, -38660.45, 163725.83, -44807.89, -41129.18, 130435.10, -40709.39, 60339.20, -49319.21, 135305.03, 9806.96, 0.000, 0.000, 0.000, 14:52:20.495
228, -133187.47, 13294.68, 160159.25, 170282.83, 6685.74, -37808.11, -38660.45, 163725.83, -44835.54, -41137.27, 130432.75, -40719.36, 60332.16, -49330.68, 135309.39, 9821.29, 0.000, 0.000, 0.000, 14:52:20.496
229, -133433.50, 13111.17, 160158.09, 170242.09, 6677.16, -37799.41, -38648.96, 163737.94, -44835.54, -41137.27, 130432.75, -40719.36, 60332.16, -49330.68, 135309.39, 9821.29, 0.000, 0.000, 0.000, 14:52:20.496
230, -133433.50, 13111.17, 160158.09, 170242.09, 6677.16, -37799.41, -38648.96, 163737.94, -44831.21, -41139.08, 130425.30, -40722.44, 60331.65, -49340.00, 135301.61, 9798.49, 0.000, 0.000, 0.000, 14:52:20.496
231, -133421.16, 13144.77, 160147.58, 170218.66, 6686.79, -37834.42, -38658.35, 163726.88, -44831.21, -41139.08, 130425.30, -40722.44, 60331.65, -49340.00, 135301.61, 9798.49, 0.000, 0.000, 0.000, 14:52:20.497
232, -133421.16, 13144.77, 160147.58, 170218.66, 6686.79, -37834.42, -38658.35, 163726.88, -44821.41, -41152.40, 130416.30, -40723.29, 60335.11, -49350.44, 135308.66, 9797.04, 0.000, 0.000, 0.000, 14:52:20.497
233, -133375.97, 13197.90, 160147.20, 170223.55, 6681.85, -37816.71, -38657.83, 163735.34, -44821.41, -41152.40, 130416.30, -40723.29, 60335.11, -49350.44, 135308.66, 9797.04, 0.000, 0.000, 0.000, 14:52:20.497
234, -133375.97, 13197.90, 160147.20, 170223.55, 6681.85, -37816.71, -38657.83, 163735.34, -44849.04, -41134.23, 130428.21, -40720.29, 60352.21, -49330.66, 135305.08, 9786.93, 0.000, 0.000, 0.000, 14:52:20.497
235, -133633.41, 13005.99, 160151.81, 170148.41, 6683.13, -37815.84, -38646.95, 163736.17, -44849.04, -41134.23, 130428.21, -40720.29, 60352.21, -49330.66, 135305.08, 9786.93, 0.018, 0.866, -0.380, 14:52:20.498
236, -133633.41, 13005.99, 160151.81, 170148.41, 6683.13, -37815.84, -38646.95, 163736.17, -44822.58, -41147.37, 130411.92, -40715.13, 60346.00, -49347.06, 135306.22, 9774.62, 0.000, 0.000, 0.000, 14:52:20.498
237, -133419.28, 13199.46, 160133.75, 170174.44, 6672.08, -37824.34, -38660.29, 163731.34, -44822.58, -41147.37, 130411.92, -40715.13, 60346.00, -49347.06, 135306.22, 9774.62, 0.000, 0.000, 0.000, 14:52:20.498
238, -133419.28, 13199.46, 160133.75, 170174.44, 6672.08, -37824.34, -38660.29, 163731.34, -44861.43, -41157.59, 130408.14, -40730.87, 60348.32, -49343.20, 135299.38, 9789.24, 0.000, 0.000, 0.000, 14:52:20.499
239, -133643.02, 13035.96, 160143.11, 170145.05, 6655.83, -37820.47, -38655.69, 163733.83, -44861.43, -41157.59, 130408.14, -40730.87, 60348.32, -49343.20, 135299.38, 9789.24, 0.000, 0.000, 0.000, 14:52:20.499
240, -133643.02, 13035.96, 160143.11, 170145.05, 6655.83, -37820.47, -38655.69, 163733.83, -44832.88, -41130.32, 130423.88, -40716.96, 60366.29, -49325.18, 135291.06, 9765.03, 0.000, 0.000, 0.000, 14:52:20.499
241, -133659.56, 13041.48, 160148.86, 170086.84, 6671.95, -37800.11, -38652.16, 163723.02, -44832.88, -41130.32, 130423.88, -40716.96, 60366.29, -49325.18, 135291.06, 9765.03, 0.000, 0.000, 0.000, 14:52:20.943
242, -133659.56, 13041.48, 160148.86, 170086.84, 6671.95, -37800.11, -38652.16, 163723.02, -44815.65, -41133.78, 130423.05, -40713.07, 60375.59, -49332.69, 135302.23, 9758.46, 0.000, 0.000, 0.000, 14:52:20.943
243, -133609.94, 13092.69, 160146.72, 170088.81, 6668.37, -37817.90, -38657.34, 163728.05, -44815.65, -41133.78, 130423.05, -40713.07, 60375.59, -49332.69, 135302.23, 9758.46, 0.000, 0.000, 0.000, 14:52:20.944
244, -133609.94, 13092.69, 160146.72, 170088.81, 6668.37, -37817.90, -38657.34, 163728.05, -44860.15, -41146.97, 130415.34, -40732.41, 60367.03, -49334.77, 135294.17, 9774.62, 0.000, 0.000, 0.000, 14:52:20.944
245, -133825.91, 12939.18, 160139.52, 170049.14, 6651.41, -37816.04, -38672.23, 163714.75, -44860.15, -41146.97, 130415.34, -40732.41, 60367.03, -49334.77, 135294.17, 9774.62, 0.020, 0.870, -0.380, 14:52:20.944
246, -133825.91, 12939.18, 160139.52, 170049.14, 6651.41, -37816.04, -38672.23, 163714.75, -44819.98, -41148.31, 130407.67, -40728.61, 60352.28, -49351.82, 135282.97, 9765.43, 0.000, 0.000, 0.000, 14:52:20.944
247, -133597.20, 13143.96, 160130.48, 170087.88, 6650.96, -37823.80, -38684.57, 163709.52, -44819.98, -41148.31, 130407.67, -40728.61, 60352.28, -49351.82, 135282.97, 9765.43, 0.000, 0.000, 0.000, 14:52:20.945
248, -133597.20, 13143.96, 160130.48, 170087.88, 6650.96, -37823.80, -38684.57, 163709.52, -44851.01, -41148.31, 130414.98, -40741.08, 60355.50, -49333.14, 135284.94, 9779.36, 0.000, 0.000, 0.000, 14:52:20.945
249, -133828.45, 12969.38, 160143.56, 170043.45, 6645.51, -37809.34, -38665.14, 163715.86, -44851.01, -41148.31, 130414.98, -40741.08, 60355.50, -49333.14, 135284.94, 9779.36, 0.000, 0.000, 0.000, 14:52:20.945
250, -133828.45, 12969.38, 160143.56, 170043.45, 6645.51, -37809.34, -38665.14, 163715.86, -44840.04, -41149.00, 130412.63, -40741.48, 60356.17, -49341.63, 135286.47, 9767.67, 0.000, 0.000, 0.000, 14:52:20.945
251, -133791.45, 13025.05, 160131.06, 170035.50, 6655.05, -37817.63, -38674.93, 163713.83, -44840.04, -41149.00, 130412.63, -40741.48, 60356.17, -49341.63, 135286.47, 9767.67, 0.000, 0.000, 0.000, 14:52:20.946
252, -133791.45, 13025.05, 160131.06, 170035.50, 6655.05, -37817.63, -38674.93, 163713.83, -44845.87, -41184.21, 130387.35, -40767.17, 60345.39, -49371.45, 135288.02, 9775.92, 0.000, 0.000, 0.000, 14:52:20.946
253, -133699.64, 13120.65, 160120.67, 170065.14, 6653.89, -37826.35, -38679.22, 163710.42, -44845.87, -41184.21, 130387.35, -40767.17, 60345.39, -49371.45, 135288.02, 9775.92, 0.000, 0.000, 0.000, 14:52:20.946
254, -133699.64, 13120.65, 160120.67, 170065.14, 6653.89, -37826.35, -38679.22, 163710.42, -44874.81, -41172.94, 130402.33, -40779.35, 60357.00, -49348.78, 135285.98, 9766.97, 0.000, 0.000, 0.000, 14:52:20.947
255, -133929.33, 12957.24, 160138.98, 170011.44, 6661.02, -37819.11, -38664.09, 163707.34, -44874.81, -41172.94, 130402.33, -40779.35, 60357.00, -49348.78, 135285.98, 9766.97, 0.018, 0.864, -0.382, 14:52:20.947
0, -133929.33, 12957.24, 160138.98, 170011.44, 6661.02, -37819.11, -38664.09, 163707.34, -44839.68, -41166.66, 130403.42, -40759.72, 60347.25, -49349.61, 135297.52, 9747.35, 0.000, 0.000, 0.000, 14:52:20.947
1, -133706.31, 13163.61, 160128.66, 170045.83, 6655.48, -37835.29, -38666.97, 163704.47, -44839.68, -41166.66, 130403.42, -40759.72, 60347.25, -49349.61, 135297.52, 9747.35, 0.000, 0.000, 0.000, 14:52:20.947
2, -133706.31, 13163.61, 160128.66, 170045.83, 6655.48, -37835.29, -38666.97, 163704.47, -44880.04, -41171.13, 130398.58, -40769.36, 60336.12, -49353.30, 135300.20, 9782.08, 0.000, 0.000, 0.000, 14:52:20.948
3, -133871.28, 13054.96, 160130.64, 170061.55, 6633.89, -37833.54, -38659.93, 163713.41, -44880.04, -41171.13, 130398.58, -40769.36, 60336.12, -49353.30, 135300.20, 9782.08, 0.000, 0.000, 0.000, 14:52:20.948
4, -133871.28, 13054.96, 160130.64, 170061.55, 6633.89, -37833.54, -38659.93, 163713.41, -44876.00, -41166.14, 130395.18, -40764.21, 60329.70, -49353.03, 135286.70, 9776.83, 0.000, 0.000, 0.000, 14:52:20.948
5, -133813.81, 13124.54, 160121.75, 170069.05, 6625.15, -37835.76, -38670.33, 163700.73, -44876.00, -41166.14, 130395.18, -40764.21, 60329.70, -49353.03, 135286.70, 9776.83, 0.000, 0.000, 0.000, 14:52:20.948
6, -133813.81, 13124.54, 160121.75, 170069.05, 6625.15, -37835.76, -38670.33, 163700.73, -44869.83, -41167.55, 130393.14, -40759.86, 60333.46, -49359.89, 135287.77, 9785.33, 0.000, 0.000, 0.000, 14:52:20.949
7, -133722.75, 13217.46, 160136.75, 170104.70, 6622.64, -37818.48, -38661.99, 163710.03, -44869.83, -41167.55, 130393.14, -40759.86, 60333.46, -49359.89, 135287.77, 9785.33, 0.000, 0.000, 0.000, 14:52:20.949
8, -133722.75, 13217.46, 160136.75, 170104.70, 6622.64, -37818.48, -38661.99, 163710.03, -44890.26, -41142.43, 130409.46, -40753.69, 60353.51, -49327.86, 135287.95, 9795.61, 0.000, 0.000, 0.000, 14:52:20.949
9, -133920.38, 13077.27, 160142.55, 170078.91, 6624.92, -37815.80, -38659.78, 163711.70, -44890.26, -41142.43, 130409.46, -40753.69, 60353.51, -49327.86, 135287.95, 9795.61, 0.020, 0.868, -0.382, 14:52:20.949
10, -133920.38, 13077.27, 160142.55, 170078.91, 6624.92, -37815.80, -38659.78, 163711.70, -44858.74, -41150.61, 130403.42, -40748.46, 60349.48, -49343.84, 135286.67, 9779.20, 0.000, 0.000, 0.000, 14:52:20.950
11, -133689.16, 13284.45, 160129.97, 170114.66, 6620.18, -37818.23, -38671.33, 163711.91, -44858.74, -41150.61, 130403.42, -40748.46, 60349.48, -49343.84, 135286.67, 9779.20, 0.000, 0.000, 0.000, 14:52:20.950
12, -133689.16, 13284.45, 160129.97, 170114.66, 6620.18, -37818.23, -38671.33, 163711.91, -44895.02, -41162.75, 130395.63, -40762.56, 60337.97, -49345.05, 135286.92, 9815.01, 0.000, 0.000, 0.000, 14:52:20.950
13, -133839.17, 13181.02, 160128.03, 170134.41, 6606.57, -37827.80, -38673.01, 163713.63, -44895.02, -41162.75, 130395.63, -40762.56, 60337.97, -49345.05, 135286.92, 9815.01, 0.000, 0.000, 0.000, 14:52:20.950
14, -133839.17, 13181.02, 160128.03, 170134.41, 6606.57, -37827.80, -38673.01, 163713.63, -44884.02, -41144.13, 130403.78, -40752.82, 60349.48, -49336.82, 135277.80, 9796.46, 0.000, 0.000, 0.000, 14:52:20.951
15, -133820.09, 13207.24, 160140.66, 170103.83, 6614.02, -37815.02, -38675.45, 163707.61, -44884.02, -41144.13, 130403.78, -40752.82, 60349.48, -49336.82, 135277.80, 9796.46, 0.000, 0.000, 0.000, 14:52:20.951
16, -133820.09, 13207.24, 160140.66, 170103.83, 6614.02, -37815.02, -38675.45, 163707.61, -44871.01, -41140.80, 130403.58, -40742.00, 60354.47, -49329.58, 135295.16, 9806.74, 0.000, 0.000, 0.000, 14:52:20.952
17, -133711.69, 13304.79, 160138.70, 170144.67, 6610.89, -37807.17, -38671.64, 163725.14, -44871.01, -41140.80, 130403.58, -40742.00, 60354.47, -49329.58, 135295.16, 9806.74, 0.000, 0.000, 0.000, 14:52:20.952
18, -133711.69, 13304.79, 160138.70, 170144.67, 6610.89, -37807.17, -38671.64, 163725.14, -44896.81, -41145.36, 130415.65, -40751.01, 60364.39, -49328.11, 135295.38, 9819.19, 0.000, 0.000, 0.000, 14:52:20.952
19, -133908.56, 13158.29, 160144.13, 170119.14, 6617.93, -37799.44, -38663.42, 163731.16, -44896.81, -41145.36, 130415.65, -40751.01, 60364.39, -49328.11, 135295.38, 9819.19, 0.022, 0.872, -0.380, 14:52:20.952
20, -133908.56, 13158.29, 160144.13, 170119.14, 6617.93, -37799.44, -38663.42, 163731.16, -44869.76, -41144.78, 130402.02, -40746.56, 60350.73, -49336.09, 135299.22, 9806.16, 0.000, 0.000, 0.000, 14:52:20.953
21, -133662.47, 13361.87, 160133.02, 170159.72, 6628.88, -37821.25, -38665.84, 163721.00, -44869.76, -41144.78, 130402.02, -40746.56, 60350.73, -49336.09, 135299.22, 9806.16, 0.000, 0.000, 0.000, 14:52:20.953
22, -133662.47, 13361.87, 160133.02, 170159.72, 6628.88, -37821.25, -38665.84, 163721.00, -44905.08, -41153.89, 130391.89, -40765.56, 60354.51, -49346.46, 135301.92, 9819.68, 0.000, 0.000, 0.000, 14:52:20.953
23, -133826.13, 13227.45, 160126.42, 170151.78, 6610.22, -37820.43, -38668.85, 163719.97, -44905.08, -41153.89, 130391.89, -40765.56, 60354.51, -49346.46, 135301.92, 9819.68, 0.000, 0.000, 0.000, 14:52:20.953
24, -133826.13, 13227.45, 160126.42, 170151.78, 6610.22, -37820.43, -38668.85, 163719.97, -44894.26, -41151.24, 130397.21, -40766.52, 60361.87, -49347.98, 135289.14, 9784.99, 0.000, 0.000, 0.000, 14:52:20.954
25, -133789.02, 13254.81, 160119.08, 170126.19, 6604.78, -37813.38, -38673.43, 163702.81, -44894.26, -41151.24, 130397.21, -40766.52, 60361.87, -49347.98, 135289.14, 9784.99, 0.000, 0.000, 0.000, 14:52:20.954
26, -133789.02, 13254.81, 160119.08, 170126.19, 6604.78, -37813.38, -38673.43, 163702.81, -44891.87, -41158.16, 130386.69, -40764.60, 60351.52, -49339.64, 135292.28, 9789.50, 0.000, 0.000, 0.000, 14:52:20.954
27, -133684.42, 13340.24, 160114.38, 170154.61, 6586.72, -37829.21, -38678.64, 163701.05, -44891.87, -41158.16, 130386.69, -40764.60, 60351.52, -49339.64, 135292.28, 9789.50, 0.000, 0.000, 0.000, 14:52:20.955
28, -133684.42, 13340.24, 160114.38, 170154.61, 6586.72, -37829.21, -38678.64, 163701.05, -44916.72, -41152.18, 130392.85, -40767.73, 60353.87, -49341.68, 135283.39, 9798.71, 0.000, 0.000, 0.000, 14:52:20.955
29, -133871.88, 13192.18, 160117.14, 170127.28, 6573.25, -37831.87, -38678.06, 163694.05, -44916.72, -41152.18, 130392.85, -40767.73, 60353.87, -49341.68, 135283.39, 9798.71, 0.034, 0.866, -0.384, 14:52:20.956
30, -133871.88, 13192.18, 160117.14, 170127.28, 6573.25, -37831.87, -38678.06, 163694.05, -44885.86, -41146.43, 130388.00, -40754.65, 60351.65, -49342.41, 135277.20, 9785.77, 0.000, 0.000, 0.000, 14:52:20.956
31, -133629.08, 13394.24, 160108.41, 170165.66, 6584.89, -37835.64, -38676.68, 163689.70, -44885.86, -41146.43, 130388.00, -40754.65, 60351.65, -49342.41, 135277.20, 9785.77, 0.000, 0.000, 0.000, 14:52:20.956
32, -133629.08, 13394.24, 160108.41, 170165.66, 6584.89, -37835.64, -38676.68, 163689.70, -44918.27, -41144.38, 130388.94, -40758.02, 60350.33, -49340.58, 135282.47, 9810.90, 0.000, 0.000, 0.000, 14:52:20.957
33, -133795.73, 13255.52, 160125.23, 170162.33, 6576.22, -37827.31, -38668.92, 163695.08, -44918.27, -41144.38, 130388.94, -40758.02, 60350.33, -49340.58, 135282.47, 9810.90, 0.000, 0.000, 0.000, 14:52:20.957
34, -133795.73, 13255.52, 160125.23, 170162.33, 6576.22, -37827.31, -38668.92, 163695.08, -44889.16, -41136.48, 130412.01, -40743.38, 60357.04, -49339.24, 135286.34, 9794.31, 0.000, 0.000, 0.000, 14:52:20.958
35, -133754.52, 13286.73, 160125.34, 170146.72, 6583.77, -37815.91, -38670.86, 163692.53, -44889.16, -41136.48, 130412.01, -40743.38, 60357.04, -49339.24, 135286.34, 9794.31, 0.000, 0.000, 0.000, 14:52:20.958
36, -133754.52, 13286.73, 160125.34, 170146.72, 6583.77, -37815.91, -38670.86, 163692.53, -44884.92, -41149.74, 130398.93, -40751.54, 60342.13, -49344.58, 135288.20, 9807.10, 0.000, 0.000, 0.000, 14:52:20.958
37, -133652.78, 13359.26, 160127.09, 170163.05, 6566.72, -37821.59, -38678.35, 163689.89, -44884.92, -41149.74, 130398.93, -40751.54, 60342.13, -49344.58, 135288.20, 9807.10, 0.000, 0.000, 0.000, 14:52:20.959
38, -133652.78, 13359.26, 160127.09, 170163.05, 6566.72, -37821.59, -38678.35, 163689.89, -44907.76, -41134.52, 130415.23, -40753.46, 60353.64, -49323.91, 135285.14, 9800.46, 0.000, 0.000, 0.000, 14:52:20.959
39, -133843.02, 13192.54, 160130.19, 170120.44, 6566.36, -37818.28, -38672.52, 163693.33, -44907.76, -41134.52, 130415.23, -40753.46, 60353.64, -49323.91, 135285.14, 9800.46, 0.030, 0.866, -0.386, 14:52:20.959
40, -133843.02, 13192.54, 160130.19, 170120.44, 6566.36, -37818.28, -38672.52, 163693.33, -44881.88, -41147.23, 130404.61, -40755.43, 60346.64, -49345.74, 135282.91, 9779.65, 0.000, 0.000, 0.000, 14:52:20.960
41, -133617.20, 13363.82, 160128.72, 170126.78, 6576.93, -37825.63, -38680.56, 163685.28, -44881.88, -41147.23, 130404.61, -40755.43, 60346.64, -49345.74, 135282.91, 9779.65, 0.000, 0.000, 0.000, 14:52:20.960
42, -133617.20, 13363.82, 160128.72, 170126.78, 6576.93, -37825.63, -38680.56, 163685.28, -44911.61, -41145.38, 130410.58, -40763.14, 60362.65, -49336.58, 135291.48, 9782.71, 0.000, 0.000, 0.000, 14:52:20.960
43, -133806.34, 13192.25, 160139.14, 170080.36, 6564.24, -37803.84, -38671.36, 163694.77, -44911.61, -41145.38, 130410.58, -40763.14, 60362.65, -49336.58, 135291.48, 9782.71, 0.000, 0.000, 0.000, 14:52:20.961
44, -133806.34, 13192.25, 160139.14, 170080.36, 6564.24, -37803.84, -38671.36, 163694.77, -44901.77, -41145.29, 130414.00, -40762.09, 60369.15, -49341.27, 135287.80, 9762.71, 0.000, 0.000, 0.000, 14:52:20.961
45, -133774.34, 13207.06, 160122.69, 170045.05, 6570.94, -37815.89, -38672.83, 163688.30, -44901.77, -41145.29, 130414.00, -40762.09, 60369.15, -49341.27, 135287.80, 9762.71, 0.000, 0.000, 0.000, 14:52:20.961
46, -133774.34, 13207.06, 160122.69, 170045.05, 6570.94, -37815.89, -38672.83, 163688.30, -44899.47, -41162.84, 130387.66, -40773.00, 60360.70, -49351.53, 135287.44, 9774.73, 0.000, 0.000, 0.000, 14:52:20.961
47, -133635.70, 13306.73, 160111.73, 170074.64, 6575.75, -37826.50, -38680.07, 163689.84, -44899.47, -41162.84, 130387.66, -40773.00, 60360.70, -49351.53, 135287.44, 9774.73, 0.000, 0.000, 0.000, 14:52:20.962
48, -133635.70, 13306.73, 160111.73, 170074.64, 6575.75, -37826.50, -38680.07, 163689.84, -44920.79, -41154.79, 130402.09, -40776.00, 60379.26, -49339.66, 135279.03, 9770.08, 0.000, 0.000, 0.000, 14:52:20.962
49, -133820.06, 13139.50, 160121.66, 170021.11, 6580.67, -37826.75, -38674.26, 163681.14, -44920.79, -41154.79, 130402.09, -40776.00, 60379.26, -49339.66, 135279.03, 9770.08, 0.026, 0.854, -0.384, 14:52:20.962
50, -133820.06, 13139.50, 160121.66, 170021.11, 6580.67, -37826.75, -38674.26, 163681.14, -44879.80, -41149.20, 130403.63, -40763.19, 60391.04, -49356.67, 135277.02, 9743.10, 0.000, 0.000, 0.000, 14:52:20.963
51, -133578.42, 13313.55, 160117.70, 170021.09, 6583.93, -37818.14, -38675.29, 163671.33, -44879.80, -41149.20, 130403.63, -40763.19, 60391.04, -49356.67, 135277.02, 9743.10, 0.000, 0.000, 0.000, 14:52:20.963
52, -133578.42, 13313.55, 160117.70, 170021.09, 6583.93, -37818.14, -38675.29, 163671.33, -44907.89, -41143.21, 130410.04, -40768.29, 60403.96, -49347.49, 135285.69, 9754.35, 0.000, 0.000, 0.000, 14:52:20.963
53, -133753.91, 13136.86, 160133.84, 169969.31, 6587.84, -37819.51, -38658.82, 163676.08, -44907.89, -41143.21, 130410.04, -40768.29, 60403.96, -49347.49, 135285.69, 9754.35, 0.000, 0.000, 0.000, 14:52:20.964
54, -133753.91, 13136.86, 160133.84, 169969.31, 6587.84, -37819.51, -38658.82, 163676.08, -44904.81, -41144.89, 130407.94, -40774.32, 60417.30, -49346.10, 135277.48, 9714.16, 0.000, 0.000, 0.000, 14:52:20.964
55, -133743.98, 13097.23, 160127.80, 169882.14, 6579.55, -37831.98, -38678.33, 163656.00, -44904.81, -41144.89, 130407.94, -40774.32, 60417.30, -49346.10, 135277.48, 9714.16, 0.000, 0.000, 0.000, 14:52:20.964
56, -133743.98, 13097.23, 160127.80, 169882.14, 6579.55, -37831.98, -38678.33, 163656.00, -44887.84, -41155.68, 130401.15, -40779.68, 60415.51, -49361.84, 135289.77, 9696.75, 0.000, 0.000, 0.000, 14:52:20.964
57, -133634.44, 13136.70, 160136.78, 169863.73, 6582.41, -37839.29, -38677.61, 163667.41, -44887.84, -41155.68, 130401.15, -40779.68, 60415.51, -49361.84, 135289.77, 9696.75, 0.000, 0.000, 0.000, 14:52:20.965
58, -133634.44, 13136.70, 160136.78, 169863.73, 6582.41, -37839.29, -38677.61, 163667.41, -44913.59, -41146.99, 130422.13, -40781.81, 60439.23, -49341.77, 135290.72, 9704.14, 0.022, 0.866, -0.378, 14:52:20.965
59, -133817.67, 12959.43, 160147.94, 169805.44, 6602.84, -37832.76, -38676.41, 163684.92, -44913.59, -41146.99, 130422.13, -40781.81, 60439.23, -49341.77, 135290.72, 9704.14, 0.000, 0.000, 0.000, 14:52:20.965
60, -133817.67, 12959.43, 160147.94, 169805.44, 6602.84, -37832.76, -38676.41, 163684.92, -44887.44, -41152.18, 130415.23, -40773.16, 60449.78, -49354.95, 135294.64, 9700.84, 0.000, 0.000, 0.000, 14:52:20.965
61, -133565.55, 13143.99, 160134.39, 169819.86, 6631.81, -37834.95, -38695.18, 163686.22, -44887.44, -41152.18, 130415.23, -40773.16, 60449.78, -49354.95, 135294.64, 9700.84, 0.000, 0.000, 0.000, 14:52:20.965
62, -133565.55, 13143.99, 160134.39, 169819.86, 6631.81, -37834.95, -38695.18, 163686.22, -44912.05, -41160.96, 130407.59, -40790.64, 60452.62, -49367.31, 135292.06, 9717.02, 0.000, 0.000, 0.000, 14:52:20.966
63, -133728.56, 12985.07, 160147.88, 169786.22, 6656.39, -37840.86, -38678.51, 163703.02, -44912.05, -41160.96, 130407.59, -40790.64, 60452.62, -49367.31, 135292.06, 9717.02, 0.000, 0.000, 0.000, 14:52:20.966
64, -133728.56, 12985.07, 160147.88, 169786.22, 6656.39, -37840.86, -38678.51, 163703.02, -44879.80, -41136.84, 130425.69, -40776.93, 60472.40, -49344.09, 135291.17, 9684.21, 0.000, 0.000, 0.000, 14:52:20.966
65, -133718.41, 12961.91, 160143.77, 169723.45, 6689.05, -37823.22, -38671.27, 163718.70, -44879.80, -41136.84, 130425.69, -40776.93, 60472.40, -49344.09, 135291.17, 9684.21, 0.000, 0.000, 0.000, 14:52:20.966
66, -133718.41, 12961.91, 160143.77, 169723.45, 6689.05, -37823.22, -38671.27, 163718.70, -44869.49, -41146.61, 130409.26, -40781.05, 60462.61, -49359.98, 135287.92, 9668.83, 0.000, 0.000, 0.000, 14:52:20.967
67, -133633.92, 12993.65, 160132.83, 169697.09, 6705.84, -37829.12, -38662.21, 163739.31, -44869.49, -41146.61, 130409.26, -40781.05, 60462.61, -49359.98, 135287.92, 9668.83, 0.000, 0.000, 0.000, 14:52:20.967
68, -133633.92, 12993.65, 160132.83, 169697.09, 6705.84, -37829.12, -38662.21, 163739.31, -44903.34, -41147.79, 130402.89, -40792.13, 60466.88, -49356.36, 135276.17, 9670.75, 0.026, 0.880, -0.372, 14:52:20.967
69, -133826.55, 12817.90, 160116.66, 169656.81, 6709.10, -37834.89, -38655.82, 163750.39, -44903.34, -41147.79, 130402.89, -40792.13, 60466.88, -49356.36, 135276.17, 9670.75, 0.000, 0.000, 0.000, 14:52:20.968
70, -133826.55, 12817.90, 160116.66, 169656.81, 6709.10, -37834.89, -38655.82, 163750.39, -44877.77, -41149.70, 130385.12, -40790.73, 60458.70, -49354.06, 135265.48, 9665.63, 0.000, 0.000, 0.000, 14:52:20.968
71, -133577.19, 13018.06, 160106.72, 169690.91, 6721.21, -37837.12, -38656.13, 163745.67, -44877.77, -41149.70, 130385.12, -40790.73, 60458.70, -49354.06, 135265.48, 9665.63, 0.000, 0.000, 0.000, 14:52:20.968
72, -133577.19, 13018.06, 160106.72, 169690.91, 6721.21, -37837.12, -38656.13, 163745.67, -44894.13, -41152.73, 130383.06, -40797.27, 60458.45, -49355.29, 135265.36, 9704.30, 0.000, 0.000, 0.000, 14:52:20.969
73, -133734.38, 12893.65, 160122.55, 169693.64, 6714.64, -37821.96, -38652.11, 163743.89, -44894.13, -41152.73, 130383.06, -40797.27, 60458.45, -49355.29, 135265.36, 9704.30, 0.000, 0.000, 0.000, 14:52:20.969
74, -133734.38, 12893.65, 160122.55, 169693.64, 6714.64, -37821.96, -38652.11, 163743.89, -44861.87, -41123.45, 130409.69, -40772.33, 60468.98, -49327.50, 135267.55, 9701.68, 0.000, 0.000, 0.000, 14:52:20.969
75, -133700.17, 12931.96, 160130.73, 169690.42, 6705.90, -37800.11, -38642.86, 163746.42, -44861.87, -41123.45, 130409.69, -40772.33, 60468.98, -49327.50, 135267.55, 9701.68, 0.000, 0.000, 0.000, 14:52:20.969
76, -133700.17, 12931.96, 160130.73, 169690.42, 6705.90, -37800.11, -38642.86, 163746.42, -44849.42, -41131.95, 130394.02, -40771.91, 60446.96, -49347.93, 135278.23, 9730.79, 0.000, 0.000, 0.000, 14:52:20.970
77, -133552.25, 13053.31, 160124.86, 169750.94, 6686.55, -37828.00, -38654.61, 163742.06, -44849.42, -41131.95, 130394.02, -40771.91, 60446.96, -49347.93, 135278.23, 9730.79, 0.000, 0.000, 0.000, 14:52:20.970
78, -133552.25, 13053.31, 160124.86, 169750.94, 6686.55, -37828.00, -38654.61, 163742.06, -44869.45, -41126.47, 130403.52, -40781.16, 60449.64, -49351.11, 135270.34, 9746.30, 0.034, 0.884, -0.376, 14:52:20.970
79, -133716.64, 12919.60, 160133.48, 169745.52, 6693.70, -37816.31, -38652.78, 163739.75, -44869.45, -41126.47, 130403.52, -40781.16, 60449.64, -49351.11, 135270.34, 9746.30, 0.000, 0.000, 0.000, 14:52:20.970
80, -133716.64, 12919.60, 160133.48, 169745.52, 6693.70, -37816.31, -38652.78, 163739.75, -44832.82, -41119.30, 130400.97, -40773.61, 60444.79, -49352.83, 135270.41, 9727.41, 0.000, 0.000, 0.000, 14:52:20.971
81, -133467.41, 13116.63, 160135.33, 169770.28, 6706.82, -37822.44, -38654.41, 163729.73, -44832.82, -41119.30, 130400.97, -40773.61, 60444.79, -49352.83, 135270.41, 9727.41, 0.000, 0.000, 0.000, 14:52:20.971
82, -133467.41, 13116.63, 160135.33, 169770.28, 6706.82, -37822.44, -38654.41, 163729.73, -44854.07, -41114.13, 130406.84, -40776.96, 60462.41, -49332.98, 135281.22, 9744.22, 0.000, 0.000, 0.000, 14:52:20.971
83, -133625.55, 12980.46, 160146.44, 169754.25, 6700.94, -37807.91, -38648.69, 163733.08, -44854.07, -41114.13, 130406.84, -40776.96, 60462.41, -49332.98, 135281.22, 9744.22, 0.000, 0.000, 0.000, 14:52:20.971
84, -133625.55, 12980.46, 160146.44, 169754.25, 6700.94, -37807.91, -38648.69, 163733.08, -44845.53, -41113.46, 130404.79, -40777.02, 60474.48, -49338.28, 135280.33, 9729.67, 0.000, 0.000, 0.000, 14:52:20.971
85, -133566.67, 13027.83, 160137.39, 169750.86, 6707.83, -37817.81, -38660.34, 163727.14, -44845.53, -41113.46, 130404.79, -40777.02, 60474.48, -49338.28, 135280.33, 9729.67, 0.000, 0.000, 0.000, 14:52:20.972
86, -133566.67, 13027.83, 160137.39, 169750.86, 6707.83, -37817.81, -38660.34, 163727.14, -44836.59, -41128.91, 130386.69, -40786.72, 60454.89, -49360.52, 135291.08, 9752.31, 0.000, 0.000, 0.000, 14:52:20.972
87, -133372.36, 13188.27, 160124.16, 169829.67, 6709.21, -37824.89, -38666.89, 163731.95, -44836.59, -41128.91, 130386.69, -40786.72, 60454.89, -49360.52, 135291.08, 9752.31, 0.000, 0.000, 0.000, 14:52:20.972
88, -133372.36, 13188.27, 160124.16, 169829.67, 6709.21, -37824.89, -38666.89, 163731.95, -44877.27, -41135.21, 130389.37, -40811.58, 60465.63, -49373.77, 135278.83, 9757.52, 0.020, 0.874, -0.378, 14:52:20.972
89, -133554.75, 13033.61, 160135.94, 169791.80, 6708.72, -37822.23, -38659.00, 163727.55, -44877.27, -41135.21, 130389.37, -40811.58, 60465.63, -49373.77, 135278.83, 9757.52, 0.000, 0.000, 0.000, 14:52:20.972
90, -133554.75, 13033.61, 160135.94, 169791.80, 6708.72, -37822.23, -38659.00, 163727.55, -44834.02, -41115.54, 130392.96, -40792.20, 60478.32, -49367.49, 135289.97, 9739.62, 0.000, 0.000, 0.000, 14:52:20.973
91, -133299.55, 13236.41, 160136.77, 169816.36, 6727.47, -37827.04, -38658.35, 163728.88, -44834.02, -41115.54, 130392.96, -40792.20, 60478.32, -49367.49, 135289.97, 9739.62, 0.000, 0.000, 0.000, 14:52:20.973
92, -133299.55, 13236.41, 160136.77, 169816.36, 6727.47, -37827.04, -38658.35, 163728.88, -44860.38, -41123.09, 130390.75, -40806.55, 60478.19, -49356.25, 135294.50, 9758.12, 0.000, 0.000, 0.000, 14:52:20.973
93, -133439.73, 13117.21, 160140.86, 169808.28, 6738.40, -37810.03, -38644.40, 163740.88, -44860.38, -41123.09, 130390.75, -40806.55, 60478.19, -49356.25, 135294.50, 9758.12, 0.000, 0.000, 0.000, 14:52:20.973
94, -133439.73, 13117.21, 160140.86, 169808.28, 6738.40, -37810.03, -38644.40, 163740.88, -44857.40, -41126.80, 130387.58, -40812.34, 60482.48, -49357.48, 135283.38, 9744.33, 0.000, 0.000, 0.000, 14:52:20.974
95, -133374.22, 13167.32, 160127.72, 169805.86, 6750.96, -37827.46, -38659.82, 163724.63, -44857.40, -41126.80, 130387.58, -40812.34, 60482.48, -49357.48, 135283.38, 9744.33, 0.000, 0.000, 0.000, 14:52:20.974
96, -133374.22, 13167.32, 160127.72, 169805.86, 6750.96, -37827.46, -38659.82, 163724.63, -44850.23, -41151.84, 130366.03, -40828.10, 60474.45, -49385.33, 135279.66, 9758.86, 0.000, 0.000, 0.000, 14:52:20.974
97, -133187.02, 13302.39, 160123.20, 169848.16, 6746.67, -37840.30, -38668.43, 163708.27, -44850.23, -41151.84, 130366.03, -40828.10, 60474.45, -49385.33, 135279.66, 9758.86, 0.000, 0.000, 0.000, 14:52:20.974
98, -133187.02, 13302.39, 160123.20, 169848.16, 6746.67, -37840.30, -38668.43, 163708.27, -44869.70, -41139.75, 130378.37, -40835.65, 60494.52, -49371.96, 135274.03, 9749.00, 0.012, 0.868, -0.372, 14:52:20.974
99, -133347.22, 13157.67, 160136.44, 169810.25, 6748.86, -37836.50, -38654.59, 163704.44, -44869.70, -41139.75, 130378.37, -40835.65, 60494.52, -49371.96, 135274.03, 9749.00, 0.000, 0.000, 0.000, 14:52:20.975
100, -133347.22, 13157.67, 160136.44, 169810.25, 6748.86, -37836.50, -38654.59, 163704.44, -44835.99, -41148.11, 130374.21, -40826.49, 60501.07, -49386.27, 135271.77, 9738.54, 0.000, 0.000, 0.000, 14:52:20.975
101, -133038.16, 13385.72, 160130.06, 169846.78, 6750.07, -37837.90, -38669.95, 163697.80, -44835.99, -41148.11, 130374.21, -40826.49, 60501.07, -49386.27, 135271.77, 9738.54, 0.000, 0.000, 0.000, 14:52:20.975
102, -133038.16, 13385.72, 160130.06, 169846.78, 6750.07, -37837.90, -38669.95, 163697.80, -44865.05, -41153.07, 130372.53, -40834.64, 60488.49, -49383.00, 135269.20, 9758.50, 0.000, 0.000, 0.000, 14:52:20.976
103, -133120.69, 13291.38, 160135.61, 169852.39, 6750.09, -37833.88, -38661.01, 163704.42, -44865.05, -41153.07, 130372.53, -40834.64, 60488.49, -49383.00, 135269.20, 9758.50, 0.000, 0.000, 0.000, 14:52:20.976
104, -133120.69, 13291.38, 160135.61, 169852.39, 6750.09, -37833.88, -38661.01, 163704.42, -44859.08, -41144.38, 130373.14, -40833.08, 60502.57, -49369.48, 135267.25, 9748.56, 0.000, 0.000, 0.000, 14:52:20.976
105, -133026.16, 13333.22, 160142.17, 169832.64, 6755.66, -37837.14, -38662.97, 163691.92, -44859.08, -41144.38, 130373.14, -40833.08, 60502.57, -49369.48, 135267.25, 9748.56, 0.000, 0.000, 0.000, 14:52:21.423
106, -133026.16, 13333.22, 160142.17, 169832.64, 6755.66, -37837.14, -38662.97, 163691.92, -44834.34, -41142.54, 130373.07, -40823.47, 60493.09, -49375.76, 135286.41, 9752.58, 0.000, 0.000, 0.000, 14:52:21.423
107, -132809.70, 13469.83, 160138.69, 169878.75, 6760.37, -37824.05, -38656.87, 163701.83, -44834.34, -41142.54, 130373.07, -40823.47, 60493.09, -49375.76, 135286.41, 9752.58, 0.000, 0.000, 0.000, 14:52:21.423
108, -132809.70, 13469.83, 160138.69, 169878.75, 6760.37, -37824.05, -38656.87, 163701.83, -44879.33, -41155.48, 130371.57, -40836.95, 60483.33, -49373.75, 135283.06, 9766.28, 0.006, 0.856, -0.372, 14:52:21.424
109, -132930.61, 13333.53, 160131.05, 169853.34, 6744.59, -37826.13, -38659.24, 163704.50, -44879.33, -41155.48, 130371.57, -40836.95, 60483.33, -49373.75, 135283.06, 9766.28, 0.000, 0.000, 0.000, 14:52:21.424
110, -132930.61, 13333.53, 160131.05, 169853.34, 6744.59, -37826.13, -38659.24, 163704.50, -44854.41, -41153.23, 130353.88, -40832.66, 60461.00, -49387.30, 135274.70, 9755.98, 0.000, 0.000, 0.000, 14:52:21.424
111, -132622.48, 13546.74, 160125.33, 169886.48, 6740.19, -37846.96, -38664.88, 163700.27, -44854.41, -41153.23, 130353.88, -40832.66, 60461.00, -49387.30, 135274.70, 9755.98, 0.000, 0.000, 0.000, 14:52:21.424
112, -132622.48, 13546.74, 160125.33, 169886.48, 6740.19, -37846.96, -38664.88, 163700.27, -44880.91, -41156.31, 130362.59, -40839.54, 60470.90, -49376.01, 135284.94, 9767.00, 0.000, 0.000, 0.000, 14:52:21.425
113, -132713.45, 13427.43, 160135.92, 169879.22, 6726.89, -37837.77, -38651.13, 163713.25, -44880.91, -41156.31, 130362.59, -40839.54, 60470.90, -49376.01, 135284.94, 9767.00, 0.000, 0.000, 0.000, 14:52:21.425
114, -132713.45, 13427.43, 160135.92, 169879.22, 6726.89, -37837.77, -38651.13, 163713.25, -44869.38, -41145.98, 130362.45, -40833.73, 60463.95, -49373.59, 135290.59, 9771.24, 0.000, 0.000, 0.000, 14:52:21.425
115, -132604.17, 13475.82, 160139.06, 169876.02, 6726.06, -37839.04, -38650.41, 163701.44, -44869.38, -41145.98, 130362.45, -40833.73, 60463.95, -49373.59, 135290.59, 9771.24, 0.000, 0.000, 0.000, 14:52:21.425
116, -132604.17, 13475.82, 160139.06, 169876.02, 6726.06, -37839.04, -38650.41, 163701.44, -44854.36, -41164.56, 130353.11, -40828.21, 60447.25, -49380.43, 135297.50, 9777.82, 0.000, 0.000, 0.000, 14:52:21.425
117, -132358.27, 13621.17, 160122.92, 169928.02, 6706.15, -37842.98, -38657.68, 163704.47, -44854.36, -41164.56, 130353.11, -40828.21, 60447.25, -49380.43, 135297.50, 9777.82, 0.000, 0.000, 0.000, 14:52:21.426
118, -132358.27, 13621.17, 160122.92, 169928.02, 6706.15, -37842.98, -38657.68, 163704.47, -44893.14, -41167.80, 130352.40, -40851.25, 60446.51, -49398.88, 135283.91, 9798.65, 0.004, 0.858, -0.378, 14:52:21.426
119, -132438.03, 13502.06, 160120.25, 169924.42, 6684.31, -37838.20, -38663.20, 163696.61, -44893.14, -41167.80, 130352.40, -40851.25, 60446.51, -49398.88, 135283.91, 9798.65, 0.000, 0.000, 0.000, 14:52:21.426
120, -132438.03, 13502.06, 160120.25, 169924.42, 6684.31, -37838.20, -38663.20, 163696.61, -44859.28, -41164.02, 130350.95, -40836.59, 60439.79, -49394.52, 135272.73, 9783.85, 0.000, 0.000, 0.000, 14:52:21.426
121, -132092.02, 13729.85, 160118.02, 169966.02, 6703.31, -37854.11, -38664.63, 163694.53, -44859.28, -41164.02, 130350.95, -40836.59, 60439.79, -49394.52, 135272.73, 9783.85, 0.000, 0.000, 0.000, 14:52:21.426
122, -132092.02, 13729.85, 160118.02, 169966.02, 6703.31, -37854.11, -38664.63, 163694.53, -44882.84, -41166.17, 130357.65, -40847.30, 60439.32, -49393.38, 135271.08, 9802.76, 0.000, 0.000, 0.000, 14:52:21.427
123, -132174.11, 13609.28, 160133.86, 169954.70, 6699.60, -37826.79, -38654.95, 163698.84, -44882.84, -41166.17, 130357.65, -40847.30, 60439.32, -49393.38, 135271.08, 9802.76, 0.000, 0.000, 0.000, 14:52:21.427
124, -132174.11, 13609.28, 160133.86, 169954.70, 6699.60, -37826.79, -38654.95, 163698.84, -44869.80, -41141.89, 130373.36, -40833.98, 60449.35, -49378.76, 135264.77, 9775.58, 0.000, 0.000, 0.000, 14:52:21.427
125, -132056.63, 13645.54, 160137.44, 169942.94, 6697.86, -37859.05, -38669.03, 163687.30, -44869.80, -41141.89, 130373.36, -40833.98, 60449.35, -49378.76, 135264.77, 9775.58, 0.000, 0.000, 0.000, 14:52:21.427
126, -132056.63, 13645.54, 160137.44, 169942.94, 6697.86, -37859.05, -38669.03, 163687.30, -44851.61, -41153.16, 130368.47, -40835.43, 60440.84, -49383.52, 135282.75, 9793.91, 0.000, 0.000, 0.000, 14:52:21.428
127, -131792.00, 13791.29, 160141.75, 169994.52, 6693.12, -37845.95, -38672.88, 163694.63, -44851.61, -41153.16, 130368.47, -40835.43, 60440.84, -49383.52, 135282.75, 9793.91, 0.000, 0.000, 0.000, 14:52:21.428
128, -131792.00, 13791.29, 160141.75, 169994.52, 6693.12, -37845.95, -38672.88, 163694.63, -44879.98, -41155.24, 130379.11, -40841.17, 60451.79, -49385.29, 135282.28, 9804.46, -0.004, 0.864, -0.372, 14:52:21.428
129, -131864.67, 13652.78, 160148.19, 169960.80, 6690.93, -37838.39, -38665.39, 163685.69, -44879.98, -41155.24, 130379.11, -40841.17, 60451.79, -49385.29, 135282.28, 9804.46, 0.000, 0.000, 0.000, 14:52:21.428
130, -131864.67, 13652.78, 160148.19, 169960.80, 6690.93, -37838.39, -38665.39, 163685.69, -44826.29, -41148.91, 130378.93, -40825.32, 60458.98, -49388.14, 135297.16, 9779.96, 0.000, 0.000, 0.000, 14:52:21.428
131, -131334.11, 13947.24, 160133.39, 170006.38, 6715.87, -37844.34, -38670.35, 163685.97, -44826.29, -41148.91, 130378.93, -40825.32, 60458.98, -49388.14, 135297.16, 9779.96, 0.000, 0.000, 0.000, 14:52:21.429
132, -131334.11, 13947.24, 160133.39, 170006.38, 6715.87, -37844.34, -38670.35, 163685.97, -44861.18, -41162.90, 130354.07, -40846.94, 60429.13, -49400.57, 135302.19, 9813.78, 0.000, 0.000, 0.000, 14:52:21.429
133, -131114.88, 13959.56, 160117.88, 170034.88, 6707.38, -37838.80, -38679.76, 163682.13, -44861.18, -41162.90, 130354.07, -40846.94, 60429.13, -49400.57, 135302.19, 9813.78, 0.000, 0.000, 0.000, 14:52:21.429
134, -131114.88, 13959.56, 160117.88, 170034.88, 6707.38, -37838.80, -38679.76, 163682.13, -44855.75, -41160.71, 130361.02, -40845.73, 60437.46, -49392.39, 135287.08, 9792.01, 0.000, 0.000, 0.000, 14:52:21.429
135, -130795.92, 14058.80, 160117.78, 170033.69, 6716.56, -37851.36, -38676.81, 163676.50, -44855.75, -41160.71, 130361.02, -40845.73, 60437.46, -49392.39, 135287.08, 9792.01, 0.000, 0.000, 0.000, 14:52:21.430
136, -130795.92, 14058.80, 160117.78, 170033.69, 6716.56, -37851.36, -38676.81, 163676.50, -44853.76, -41165.83, 130348.87, -40844.59, 60423.71, -49393.62, 135284.55, 9799.27, 0.000, 0.000, 0.000, 14:52:21.430
137, -130446.34, 14207.30, 160112.38, 170078.13, 6713.48, -37846.69, -38673.41, 163684.61, -44853.76, -41165.83, 130348.87, -40844.59, 60423.71, -49393.62, 135284.55, 9799.27, 0.000, 0.000, 0.000, 14:52:21.430
138, -130446.34, 14207.30, 160112.38, 170078.13, 6713.48, -37846.69, -38673.41, 163684.61, -44885.27, -41156.15, 130361.45, -40847.25, 60426.66, -49389.46, 135277.72, 9800.03, 0.000, 0.860, -0.366, 14:52:21.431
139, -130525.65, 14043.00, 160110.75, 170056.02, 6693.70, -37851.16, -38667.42, 163692.13, -44885.27, -41156.15, 130361.45, -40847.25, 60426.66, -49389.46, 135277.72, 9800.03, 0.000, 0.000, 0.000, 14:52:21.431
140, -130525.65, 14043.00, 160110.75, 170056.02, 6693.70, -37851.16, -38667.42, 163692.13, -44861.27, -41158.64, 130354.38, -40838.85, 60419.33, -49388.28, 135270.88, 9783.16, 0.000, 0.000, 0.000, 14:52:21.431
141, -130208.07, 14229.08, 160102.75, 170104.23, 6683.55, -37855.72, -38678.71, 163689.19, -44861.27, -41158.64, 130354.38, -40838.85, 60419.33, -49388.28, 135270.88, 9783.16, 0.000, 0.000, 0.000, 14:52:21.431
142, -130208.07, 14229.08, 160102.75, 170104.23, 6683.55, -37855.72, -38678.71, 163689.19, -44897.61, -41162.90, 130350.83, -40846.43, 60428.25, -49385.20, 135269.44, 9804.46, 0.000, 0.000, 0.000, 14:52:21.432
143, -130338.85, 14068.57, 160110.28, 170105.73, 6670.70, -37830.37, -38673.77, 163694.73, -44897.61, -41162.90, 130350.83, -40846.43, 60428.25, -49385.20, 135269.44, 9804.46, 0.000, 0.000, 0.000, 14:52:21.432
144, -130338.85, 14068.57, 160110.28, 170105.73, 6670.70, -37830.37, -38673.77, 163694.73, -44887.91, -41148.29, 130364.60, -40834.29, 60447.95, -49377.28, 135259.50, 9786.04, 0.000, 0.000, 0.000, 14:52:21.432
145, -130367.22, 14009.63, 160114.84, 170077.09, 6675.10, -37851.11, -38669.72, 163684.39, -44887.91, -41148.29, 130364.60, -40834.29, 60447.95, -49377.28, 135259.50, 9786.04, 0.000, 0.000, 0.000, 14:52:21.433
146, -130367.22, 14009.63, 160114.84, 170077.09, 6675.10, -37851.11, -38669.72, 163684.39, -44869.96, -41144.73, 130365.00, -40822.89, 60447.00, -49370.87, 135259.97, 9783.74, 0.000, 0.000, 0.000, 14:52:21.433
147, -130295.34, 14043.06, 160122.59, 170096.25, 6668.06, -37834.80, -38667.27, 163691.08, -44869.96, -41144.73, 130365.00, -40822.89, 60447.00, -49370.87, 135259.97, 9783.74, 0.010, 0.862, -0.366, 14:52:21.433
148, -130295.34, 14043.06, 160122.59, 170096.25, 6668.06, -37834.80, -38667.27, 163691.08, -44891.24, -41136.60, 130383.38, -40823.49, 60466.21, -49366.84, 135259.09, 9787.56, 0.000, 0.000, 0.000, 14:52:21.433
149, -130591.16, 13796.43, 160127.58, 170056.61, 6661.62, -37839.71, -38666.48, 163692.92, -44891.24, -41136.60, 130383.38, -40823.49, 60466.21, -49366.84, 135259.09, 9787.56, 0.000, 0.000, 0.000, 14:52:21.434
150, -130591.16, 13796.43, 160127.58, 170056.61, 6661.62, -37839.71, -38666.48, 163692.92, -44866.70, -41149.67, 130369.41, -40830.29, 60458.36, -49384.66, 135254.98, 9784.19, 0.000, 0.000, 0.000, 14:52:21.434
151, -130430.72, 13929.47, 160119.95, 170090.13, 6661.04, -37845.57, -38685.64, 163673.84, -44866.70, -41149.67, 130369.41, -40830.29, 60458.36, -49384.66, 135254.98, 9784.19, 0.000, 0.000, 0.000, 14:52:21.434
152, -130430.72, 13929.47, 160119.95, 170090.13, 6661.04, -37845.57, -38685.64, 163673.84, -44890.41, -41154.75, 130374.44, -40843.03, 60465.29, -49384.25, 135254.67, 9797.08, 0.000, 0.000, 0.000, 14:52:21.434
153, -130672.83, 13749.34, 160129.30, 170083.92, 6663.39, -37833.25, -38682.00, 163682.83, -44890.41, -41154.75, 130374.44, -40843.03, 60465.29, -49384.25, 135254.67, 9797.08, 0.000, 0.000, 0.000, 14:52:21.435
154, -130672.83, 13749.34, 160129.30, 170083.92, 6663.39, -37833.25, -38682.00, 163682.83, -44879.42, -41141.67, 130386.23, -40835.70, 60479.88, -49371.98, 135251.92, 9776.16, 0.000, 0.000, 0.000, 14:52:21.435
155, -130790.52, 13676.05, 160139.31, 170041.20, 6679.15, -37831.93, -38677.08, 163684.56, -44879.42, -41141.67, 130386.23, -40835.70, 60479.88, -49371.98, 135251.92, 9776.16, 0.000, 0.000, 0.000, 14:52:21.435
156, -130790.52, 13676.05, 160139.31, 170041.20, 6679.15, -37831.93, -38677.08, 163684.56, -44858.52, -41134.14, 130381.68, -40821.17, 60489.85, -49372.34, 135268.50, 9773.19, 0.000, 0.000, 0.000, 14:52:21.435
157, -130792.46, 13709.46, 160138.11, 170052.67, 6674.14, -37828.18, -38676.47, 163699.86, -44858.52, -41134.14, 130381.68, -40821.17, 60489.85, -49372.34, 135268.50, 9773.19, 0.010, 0.866, -0.370, 14:52:21.436
158, -130792.46, 13709.46, 160138.11, 170052.67, 6674.14, -37828.18, -38676.47, 163699.86, -44901.68, -41123.83, 130389.74, -40830.24, 60492.36, -49362.75, 135262.67, 9777.35, 0.000, 0.000, 0.000, 14:52:21.436
159, -131173.42, 13449.51, 160144.55, 169982.59, 6668.24, -37816.22, -38668.11, 163697.52, -44901.68, -41123.83, 130389.74, -40830.24, 60492.36, -49362.75, 135262.67, 9777.35, 0.000, 0.000, 0.000, 14:52:21.436
160, -131173.42, 13449.51, 160144.55, 169982.59, 6668.24, -37816.22, -38668.11, 163697.52, -44870.48, -41120.46, 130388.34, -40822.33, 60489.72, -49368.88, 135264.75, 9757.27, 0.000, 0.000, 0.000, 14:52:21.436
161, -131068.75, 13586.13, 160133.61, 170002.17, 6669.13, -37830.46, -38673.97, 163696.91, -44870.48, -41120.46, 130388.34, -40822.33, 60489.72, -49368.88, 135264.75, 9757.27, 0.000, 0.000, 0.000, 14:52:21.437
162, -131068.75, 13586.13, 160133.61, 170002.17, 6669.13, -37830.46, -38673.97, 163696.91, -44895.33, -41126.61, 130386.26, -40831.79, 60474.14, -49366.84, 135263.13, 9790.82, 0.000, 0.000, 0.000, 14:52:21.437
163, -131331.45, 13422.71, 160139.05, 169994.39, 6653.33, -37826.21, -38669.88, 163697.78, -44895.33, -41126.61, 130386.26, -40831.79, 60474.14, -49366.84, 135263.13, 9790.82, 0.000, 0.000, 0.000, 14:52:21.437
164, -131331.45, 13422.71, 160139.05, 169994.39, 6653.33, -37826.21, -38669.88, 163697.78, -44888.65, -41122.76, 130393.01, -40829.82, 60483.59, -49362.82, 135251.31, 9774.28, 0.000, 0.000, 0.000, 14:52:21.437
165, -131451.41, 13385.88, 160134.59, 169970.80, 6654.72, -37826.23, -38672.38, 163688.48, -44888.65, -41122.76, 130393.01, -40829.82, 60483.59, -49362.82, 135251.31, 9774.28, 0.000, 0.000, 0.000, 14:52:21.438
166, -131451.41, 13385.88, 160134.59, 169970.80, 6654.72, -37826.23, -38672.38, 163688.48, -44867.35, -41136.11, 130386.13, -40830.85, 60476.49, -49378.15, 135255.59, 9775.11, 0.000, 0.000, 0.000, 14:52:21.438
167, -131447.05, 13451.28, 160124.09, 169988.44, 6644.17, -37843.87, -38680.25, 163685.86, -44867.35, -41136.11, 130386.13, -40830.85, 60476.49, -49378.15, 135255.59, 9775.11, 0.006, 0.854, -0.376, 14:52:21.438
168, -131447.05, 13451.28, 160124.09, 169988.44, 6644.17, -37843.87, -38680.25, 163685.86, -44907.58, -41129.49, 130395.45, -40841.22, 60460.24, -49367.80, 135236.20, 9774.08, 0.000, 0.000, 0.000, 14:52:21.439
169, -131843.77, 13202.91, 160142.75, 169926.27, 6633.91, -37816.85, -38664.71, 163690.36, -44907.58, -41129.49, 130395.45, -40841.22, 60460.24, -49367.80, 135236.20, 9774.08, 0.000, 0.000, 0.000, 14:52:21.439
170, -131843.77, 13202.91, 160142.75, 169926.27, 6633.91, -37816.85, -38664.71, 163690.36, -44855.48, -41103.98, 130415.56, -40807.89, 60478.66, -49344.60, 135239.92, 9758.44, 0.000, 0.000, 0.000, 14:52:21.439
171, -131819.88, 13309.06, 160139.09, 169924.30, 6636.61, -37823.15, -38670.55, 163691.78, -44855.48, -41103.98, 130415.56, -40807.89, 60478.66, -49344.60, 135239.92, 9758.44, 0.000, 0.000, 0.000, 14:52:21.439
172, -131819.88, 13309.06, 160139.09, 169924.30, 6636.61, -37823.15, -38670.55, 163691.78, -44890.17, -41120.04, 130406.31, -40823.34, 60461.71, -49344.22, 135244.97, 9781.19, 0.000, 0.000, 0.000, 14:52:21.439
173, -132172.66, 13116.43, 160131.20, 169897.41, 6615.15, -37814.05, -38677.43, 163694.81, -44890.17, -41120.04, 130406.31, -40823.34, 60461.71, -49344.22, 135244.97, 9781.19, 0.000, 0.000, 0.000, 14:52:21.440
174, -132172.66, 13116.43, 160131.20, 169897.41, 6615.15, -37814.05, -38677.43, 163694.81, -44887.42, -41109.21, 130413.23, -40816.61, 60461.54, -49335.46, 135237.75, 9772.12, 0.000, 0.000, 0.000, 14:52:21.440
175, -132362.48, 13059.27, 160143.67, 169867.86, 6621.99, -37817.56, -38675.02, 163694.27, -44887.42, -41109.21, 130413.23, -40816.61, 60461.54, -49335.46, 135237.75, 9772.12, 0.000, 0.000, 0.000, 14:52:21.440
176, -132362.48, 13059.27, 160143.67, 169867.86, 6621.99, -37817.56, -38675.02, 163694.27, -44863.88, -41109.84, 130414.00, -40806.15, 60457.82, -49344.85, 135255.19, 9779.83, 0.000, 0.000, 0.000, 14:52:21.440
177, -132394.42, 13127.45, 160133.81, 169897.23, 6608.14, -37815.13, -38679.00, 163701.25, -44863.88, -41109.84, 130414.00, -40806.15, 60457.82, -49344.85, 135255.19, 9779.83, 0.012, 0.862, -0.378, 14:52:21.441
178, -132394.42, 13127.45, 160133.81, 169897.23, 6608.14, -37815.13, -38679.00, 163701.25, -44907.36, -41113.77, 130411.56, -40828.32, 60462.96, -49333.94, 135239.66, 9774.35, 0.000, 0.000, 0.000, 14:52:21.441
179, -132820.91, 12888.60, 160130.95, 169850.70, 6597.85, -37825.25, -38678.66, 163703.91, -44907.36, -41113.77, 130411.56, -40828.32, 60462.96, -49333.94, 135239.66, 9774.35, 0.000, 0.000, 0.000, 14:52:21.441
180, -132820.91, 12888.60, 160130.95, 169850.70, 6597.85, -37825.25, -38678.66, 163703.91, -44888.85, -41115.43, 130395.49, -40820.65, 60456.75, -49355.85, 135241.44, 9773.01, 0.000, 0.000, 0.000, 14:52:21.442
181, -132793.52, 13027.87, 160117.92, 169890.55, 6595.49, -37828.40, -38683.56, 163701.94, -44888.85, -41115.43, 130395.49, -40820.65, 60456.75, -49355.85, 135241.44, 9773.01, 0.000, 0.000, 0.000, 14:52:21.442
182, -132793.52, 13027.87, 160117.92, 169890.55, 6595.49, -37828.40, -38683.56, 163701.94, -44930.00, -41124.55, 130388.45, -40838.65, 60454.25, -49349.30, 135242.59, 9786.29, 0.000, 0.000, 0.000, 14:52:21.442
183, -133180.77, 12838.93, 160124.38, 169874.84, 6588.91, -37810.63, -38664.23, 163716.91, -44930.00, -41124.55, 130388.45, -40838.65, 60454.25, -49349.30, 135242.59, 9786.29, 0.000, 0.000, 0.000, 14:52:21.442
184, -133180.77, 12838.93, 160124.38, 169874.84, 6588.91, -37810.63, -38664.23, 163716.91, -44913.39, -41103.25, 130397.88, -40826.93, 60470.72, -49335.48, 135246.88, 9761.25, 0.000, 0.000, 0.000, 14:52:21.443
185, -133417.47, 12770.71, 160122.66, 169844.84, 6600.96, -37809.14, -38657.54, 163719.28, -44913.39, -41103.25, 130397.88, -40826.93, 60470.72, -49335.48, 135246.88, 9761.25, 0.000, 0.000, 0.000, 14:52:21.443
186, -133417.47, 12770.71, 160122.66, 169844.84, 6600.96, -37809.14, -38657.54, 163719.28, -44903.56, -41121.84, 130375.09, -40838.51, 60462.20, -49343.06, 135259.86, 9761.30, 0.000, 0.000, 0.000, 14:52:21.443
187, -133428.31, 12870.29, 160110.72, 169891.69, 6599.53, -37815.39, -38665.39, 163717.97, -44903.56, -41121.84, 130375.09, -40838.51, 60462.20, -49343.06, 135259.86, 9761.30, 0.028, 0.872, -0.384, 14:52:21.443
188, -133428.31, 12870.29, 160110.72, 169891.69, 6599.53, -37815.39, -38665.39, 163717.97, -44934.40, -41121.89, 130379.91, -40841.53, 60474.48, -49345.27, 135255.78, 9768.70, 0.000, 0.000, 0.000, 14:52:21.444
189, -133750.27, 12694.43, 160117.19, 169861.94, 6588.04, -37833.32, -38667.22, 163706.55, -44934.40, -41121.89, 130379.91, -40841.53, 60474.48, -49345.27, 135255.78, 9768.70, 0.000, 0.000, 0.000, 14:52:21.444
190, -133750.27, 12694.43, 160117.19, 169861.94, 6588.04, -37833.32, -38667.22, 163706.55, -44902.78, -41122.54, 130371.57, -40826.06, 60455.23, -49357.48, 135256.89, 9746.70, 0.000, 0.000, 0.000, 14:52:21.444
191, -133578.33, 12912.16, 160090.00, 169923.88, 6568.77, -37832.96, -38688.32, 163698.42, -44902.78, -41122.54, 130371.57, -40826.06, 60455.23, -49357.48, 135256.89, 9746.70, 0.000, 0.000, 0.000, 14:52:21.444
192, -133578.33, 12912.16, 160090.00, 169923.88, 6568.77, -37832.96, -38688.32, 163698.42, -44941.24, -41125.64, 130361.13, -40843.77, 60433.28, -49366.15, 135240.91, 9770.28, 0.000, 0.000, 0.000, 14:52:21.445
193, -133807.08, 12804.71, 160093.50, 169929.58, 6555.34, -37837.23, -38674.06, 163698.20, -44941.24, -41125.64, 130361.13, -40843.77, 60433.28, -49366.15, 135240.91, 9770.28, 0.000, 0.000, 0.000, 14:52:21.445
194, -133807.08, 12804.71, 160093.50, 169929.58, 6555.34, -37837.23, -38674.06, 163698.20, -44934.83, -41112.14, 130374.84, -40835.96, 60441.57, -49352.14, 135231.27, 9744.89, 0.000, 0.000, 0.000, 14:52:21.445
195, -133930.63, 12782.76, 160102.13, 169901.97, 6559.52, -37833.25, -38669.59, 163688.69, -44934.83, -41112.14, 130374.84, -40835.96, 60441.57, -49352.14, 135231.27, 9744.89, 0.000, 0.000, 0.000, 14:52:21.445
196, -133930.63, 12782.76, 160102.13, 169901.97, 6559.52, -37833.25, -38669.59, 163688.69, -44909.84, -41118.43, 130375.04, -40826.00, 60452.04, -49359.76, 135245.06, 9750.61, 0.000, 0.000, 0.000, 14:52:21.446
197, -133856.48, 12920.07, 160101.53, 169953.73, 6543.94, -37817.12, -38680.54, 163700.44, -44909.84, -41118.43, 130375.04, -40826.00, 60452.04, -49359.76, 135245.06, 9750.61, 0.038, 0.872, -0.380, 14:52:21.446
198, -133856.48, 12920.07, 160101.53, 169953.73, 6543.94, -37817.12, -38680.54, 163700.44, -44956.11, -41112.19, 130379.38, -40835.09, 60420.85, -49340.60, 135239.92, 9772.12, 0.000, 0.000, 0.000, 14:52:21.446
199, -134157.80, 12755.56, 160116.84, 169929.05, 6548.57, -37824.45, -38677.84, 163701.58, -44956.11, -41112.19, 130379.38, -40835.09, 60420.85, -49340.60, 135239.92, 9772.12, 0.000, 0.000, 0.000, 14:52:21.446
200, -134157.80, 12755.56, 160116.84, 169929.05, 6548.57, -37824.45, -38677.84, 163701.58, -44913.73, -41107.18, 130388.41, -40814.44, 60399.66, -49349.59, 135247.83, 9752.67, 0.000, 0.000, 0.000, 14:52:21.447
201, -134010.89, 12943.00, 160109.50, 169949.72, 6548.99, -37814.68, -38680.88, 163700.84, -44913.73, -41107.18, 130388.41, -40814.44, 60399.66, -49349.59, 135247.83, 9752.67, 0.000, 0.000, 0.000, 14:52:21.447
202, -134010.89, 12943.00, 160109.50, 169949.72, 6548.99, -37814.68, -38680.88, 163700.84, -44947.84, -41109.75, 130381.25, -40824.41, 60353.24, -49342.01, 135249.38, 9771.78, 0.000, 0.000, 0.000, 14:52:21.447
203, -134227.77, 12837.77, 160107.50, 169948.11, 6542.20, -37822.68, -38677.32, 163701.98, -44947.84, -41109.75, 130381.25, -40824.41, 60353.24, -49342.01, 135249.38, 9771.78, 0.000, 0.000, 0.000, 14:52:21.448
204, -134227.77, 12837.77, 160107.50, 169948.11, 6542.20, -37822.68, -38677.32, 163701.98, -44950.56, -41114.20, 130383.13, -40832.03, 60339.16, -49354.80, 135244.08, 9760.60, 0.000, 0.000, 0.000, 14:52:21.448
205, -134308.36, 12835.78, 160112.52, 169924.81, 6549.53, -37832.47, -38678.73, 163689.84, -44950.56, -41114.20, 130383.13, -40832.03, 60339.16, -49354.80, 135244.08, 9760.60, 0.000, 0.000, 0.000, 14:52:21.448
206, -134308.36, 12835.78, 160112.52, 169924.81, 6549.53, -37832.47, -38678.73, 163689.84, -44922.67, -41112.97, 130387.31, -40823.09, 60326.26, -49360.00, 135260.17, 9751.44, 0.000, 0.000, 0.000, 14:52:21.448
207, -134232.53, 12959.47, 160114.45, 169953.34, 6547.76, -37830.32, -38676.34, 163693.16, -44922.67, -41112.97, 130387.31, -40823.09, 60326.26, -49360.00, 135260.17, 9751.44, 0.036, 0.872, -0.388, 14:52:21.449
208, -134232.53, 12959.47, 160114.45, 169953.34, 6547.76, -37830.32, -38676.34, 163693.16, -44954.59, -41098.98, 130397.14, -40825.41, 60318.68, -49343.71, 135262.09, 9758.46, 0.000, 0.000, 0.000, 14:52:21.449
209, -134530.34, 12786.02, 160124.14, 169916.03, 6548.35, -37819.80, -38670.50, 163700.66, -44954.59, -41098.98, 130397.14, -40825.41, 60318.68, -49343.71, 135262.09, 9758.46, 0.000, 0.000, 0.000, 14:52:21.449
210, -134530.34, 12786.02, 160124.14, 169916.03, 6548.35, -37819.80, -38670.50, 163700.66, -44921.15, -41098.57, 130392.83, -40816.96, 60319.09, -49358.19, 135262.52, 9746.21, 0.000, 0.000, 0.000, 14:52:21.450
211, -134368.64, 12981.92, 160113.39, 169945.52, 6555.32, -37829.43, -38677.70, 163698.47, -44921.15, -41098.57, 130392.83, -40816.96, 60319.09, -49358.19, 135262.52, 9746.21, 0.000, 0.000, 0.000, 14:52:21.450
212, -134368.64, 12981.92, 160113.39, 169945.52, 6555.32, -37829.43, -38677.70, 163698.47, -44953.43, -41104.61, 130381.88, -40830.87, 60311.51, -49351.78, 135262.11, 9771.47, 0.000, 0.000, 0.000, 14:52:21.450
213, -134560.52, 12891.01, 160118.19, 169955.80, 6553.89, -37817.68, -38665.05, 163702.89, -44953.43, -41104.61, 130381.88, -40830.87, 60311.51, -49351.78, 135262.11, 9771.47, 0.000, 0.000, 0.000, 14:52:21.450
214, -134560.52, 12891.01, 160118.19, 169955.80, 6553.89, -37817.68, -38665.05, 163702.89, -44957.56, -41099.47, 130380.13, -40828.59, 60304.82, -49358.04, 135257.55, 9768.49, 0.000, 0.000, 0.000, 14:52:21.451
215, -134627.02, 12898.12, 160109.78, 169948.36, 6555.83, -37835.82, -38666.84, 163691.44, -44957.56, -41099.47, 130380.13, -40828.59, 60304.82, -49358.04, 135257.55, 9768.49, 0.000, 0.000, 0.000, 14:52:21.451
216, -134627.02, 12898.12, 160109.78, 169948.36, 6555.83, -37835.82, -38666.84, 163691.44, -44943.41, -41113.89, 130369.67, -40836.57, 60305.74, -49375.49, 135255.77, 9763.73, 0.000, 0.000, 0.000, 14:52:21.451
217, -134521.58, 13035.20, 160113.66, 169988.31, 6543.92, -37844.56, -38670.55, 163690.33, -44943.41, -41113.89, 130369.67, -40836.57, 60305.74, -49375.49, 135255.77, 9763.73, 0.024, 0.880, -0.378, 14:52:21.451
218, -134521.58, 13035.20, 160113.66, 169988.31, 6543.92, -37844.56, -38670.55, 163690.33, -44977.07, -41103.76, 130386.51, -40840.55, 60339.16, -49354.19, 135254.98, 9769.43, 0.000, 0.000, 0.000, 14:52:21.452
219, -134797.13, 12871.88, 160121.30, 169960.63, 6542.82, -37843.85, -38666.17, 163696.64, -44977.07, -41103.76, 130386.51, -40840.55, 60339.16, -49354.19, 135254.98, 9769.43, 0.000, 0.000, 0.000, 14:52:21.452
220, -134797.13, 12871.88, 160121.30, 169960.63, 6542.82, -37843.85, -38666.17, 163696.64, -44946.79, -41103.94, 130378.48, -40838.31, 60349.35, -49372.01, 135249.80, 9760.81, 0.000, 0.000, 0.000, 14:52:21.452
221, -134607.81, 13082.88, 160124.06, 170000.61, 6570.43, -37833.59, -38680.48, 163699.55, -44946.79, -41103.94, 130378.48, -40838.31, 60349.35, -49372.01, 135249.80, 9760.81, 0.000, 0.000, 0.000, 14:52:21.452
222, -134607.81, 13082.88, 160124.06, 170000.61, 6570.43, -37833.59, -38680.48, 163699.55, -44967.21, -41106.45, 130383.87, -40843.57, 60377.34, -49368.52, 135250.11, 9778.33, 0.000, 0.000, 0.000, 14:52:21.453
223, -134787.42, 12990.77, 160137.19, 170005.84, 6593.36, -37841.14, -38678.13, 163715.80, -44967.21, -41106.45, 130383.87, -40843.57, 60377.34, -49368.52, 135250.11, 9778.33, 0.000, 0.000, 0.000, 14:52:21.453
224, -134787.42, 12990.77, 160137.19, 170005.84, 6593.36, -37841.14, -38678.13, 163715.80, -44956.89, -41087.18, 130393.77, -40840.14, 60409.63, -49359.82, 135241.73, 9760.56, 0.000, 0.000, 0.000, 14:52:21.453
225, -134862.05, 12979.57, 160142.05, 169972.92, 6629.71, -37846.80, -38679.02, 163717.98, -44956.89, -41087.18, 130393.77, -40840.14, 60409.63, -49359.82, 135241.73, 9760.56, 0.000, 0.000, 0.000, 14:52:21.905
226, -134862.05, 12979.57, 160142.05, 169972.92, 6629.71, -37846.80, -38679.02, 163717.98, -44925.53, -41095.20, 130390.77, -40838.51, 60417.25, -49360.52, 135257.58, 9760.20, 0.000, 0.000, 0.000, 14:52:21.905
227, -134732.42, 13130.75, 160132.66, 170018.41, 6662.12, -37845.39, -38680.43, 163732.80, -44925.53, -41095.20, 130390.77, -40838.51, 60417.25, -49360.52, 135257.58, 9760.20, 0.016, 0.884, -0.382, 14:52:21.905
228, -134732.42, 13130.75, 160132.66, 170018.41, 6662.12, -37845.39, -38680.43, 163732.80, -44958.54, -41102.38, 130392.41, -40857.56, 60441.06, -49367.58, 135251.47, 9771.82, 0.000, 0.000, 0.000, 14:52:21.906
229, -135010.44, 12949.15, 160144.13, 169975.69, 6689.77, -37850.96, -38671.07, 163735.34, -44958.54, -41102.38, 130392.41, -40857.56, 60441.06, -49367.58, 135251.47, 9771.82, 0.000, 0.000, 0.000, 14:52:21.906
230, -135010.44, 12949.15, 160144.13, 169975.69, 6689.77, -37850.96, -38671.07, 163735.34, -44917.68, -41095.78, 130387.55, -40850.52, 60453.13, -49369.23, 135253.28, 9747.57, 0.000, 0.000, 0.000, 14:52:21.907
231, -134823.53, 13138.06, 160133.97, 169997.89, 6727.49, -37853.86, -38668.63, 163735.16, -44917.68, -41095.78, 130387.55, -40850.52, 60453.13, -49369.23, 135253.28, 9747.57, 0.000, 0.000, 0.000, 14:52:21.907
232, -134823.53, 13138.06, 160133.97, 169997.89, 6727.49, -37853.86, -38668.63, 163735.16, -44939.25, -41106.49, 130377.30, -40871.10, 60456.26, -49372.12, 135254.67, 9767.09, 0.000, 0.000, 0.000, 14:52:21.907
233, -135001.63, 13034.58, 160141.23, 169988.05, 6740.28, -37838.06, -38657.92, 163741.25, -44939.25, -41106.49, 130377.30, -40871.10, 60456.26, -49372.12, 135254.67, 9767.09, 0.000, 0.000, 0.000, 14:52:21.908
234, -135001.63, 13034.58, 160141.23, 169988.05, 6740.28, -37838.06, -38657.92, 163741.25, -44930.92, -41093.64, 130378.50, -40868.18, 60470.09, -49362.37, 135253.19, 9752.71, 0.000, 0.000, 0.000, 14:52:21.908
235, -135038.38, 13046.02, 160128.31, 169980.30, 6749.67, -37864.64, -38669.23, 163736.36, -44930.92, -41093.64, 130378.50, -40868.18, 60470.09, -49362.37, 135253.19, 9752.71, 0.000, 0.000, 0.000, 14:52:21.908
236, -135038.38, 13046.02, 160128.31, 169980.30, 6749.67, -37864.64, -38669.23, 163736.36, -44912.88, -41107.18, 130355.52, -40872.67, 60457.02, -49383.20, 135252.64, 9766.01, 0.000, 0.000, 0.000, 14:52:21.908
237, -134895.41, 13196.09, 160124.09, 170024.42, 6733.73, -37856.97, -38664.40, 163726.83, -44912.88, -41107.18, 130355.52, -40872.67, 60457.02, -49383.20, 135252.64, 9766.01, 0.010, 0.882, -0.372, 14:52:21.909
238, -134895.41, 13196.09, 160124.09, 170024.42, 6733.73, -37856.97, -38664.40, 163726.83, -44944.53, -41095.38, 130367.87, -40879.46, 60470.50, -49370.71, 135243.03, 9762.77, 0.000, 0.000, 0.000, 14:52:21.909
239, -135168.17, 13008.94, 160135.31, 169979.44, 6723.09, -37831.40, -38662.57, 163711.23, -44944.53, -41095.38, 130367.87, -40879.46, 60470.50, -49370.71, 135243.03, 9762.77, 0.000, 0.000, 0.000, 14:52:21.909
240, -135168.17, 13008.94, 160135.31, 169979.44, 6723.09, -37831.40, -38662.57, 163711.23, -44895.80, -41087.58, 130363.64, -40863.23, 60466.12, -49366.26, 135245.03, 9748.74, 0.000, 0.000, 0.000, 14:52:21.909
241, -134968.25, 13202.86, 160117.86, 170010.33, 6731.43, -37851.16, -38659.91, 163727.66, -44895.80, -41087.58, 130363.64, -40863.23, 60466.12, -49366.26, 135245.03, 9748.74, 0.000, 0.000, 0.000, 14:52:21.909
242, -134968.25, 13202.86, 160117.86, 170010.33, 6731.43, -37851.16, -38659.91, 163727.66, -44921.42, -41103.20, 130349.63, -40877.32, 60451.86, -49374.89, 135239.83, 9778.17, 0.000, 0.000, 0.000, 14:52:21.910
243, -135112.53, 13112.02, 160114.28, 170009.64, 6709.95, -37849.66, -38670.59, 163728.27, -44921.42, -41103.20, 130349.63, -40877.32, 60451.86, -49374.89, 135239.83, 9778.17, 0.000, 0.000, 0.000, 14:52:21.910
244, -135112.53, 13112.02, 160114.28, 170009.64, 6709.95, -37849.66, -38670.59, 163728.27, -44910.93, -41077.12, 130361.09, -40871.86, 60472.62, -49368.14, 135231.95, 9762.77, 0.000, 0.000, 0.000, 14:52:21.910
245, -135169.47, 13093.41, 160119.20, 169972.66, 6718.17, -37861.04, -38677.14, 163712.31, -44910.93, -41077.12, 130361.09, -40871.86, 60472.62, -49368.14, 135231.95, 9762.77, 0.000, 0.000, 0.000, 14:52:21.910
246, -135169.47, 13093.41, 160119.20, 169972.66, 6718.17, -37861.04, -38677.14, 163712.31, -44886.66, -41090.69, 130352.30, -40869.31, 60459.25, -49384.81, 135233.75, 9756.85, 0.022, 0.858, -0.368, 14:52:21.911
247, -135021.56, 13236.37, 160106.48, 170002.75, 6710.37, -37855.07, -38675.29, 163718.23, -44886.66, -41090.69, 130352.30, -40869.31, 60459.25, -49384.81, 135233.75, 9756.85, 0.000, 0.000, 0.000, 14:52:21.911
248, -135021.56, 13236.37, 160106.48, 170002.75, 6710.37, -37855.07, -38675.29, 163718.23, -44913.35, -41086.64, 130360.29, -40886.43, 60460.28, -49370.73, 135226.08, 9767.58, 0.000, 0.000, 0.000, 14:52:21.911
249, -135272.19, 13061.98, 160108.67, 169969.47, 6704.00, -37852.84, -38671.67, 163714.78, -44913.35, -41086.64, 130360.29, -40886.43, 60460.28, -49370.73, 135226.08, 9767.58, 0.000, 0.000, 0.000, 14:52:21.911
250, -135272.19, 13061.98, 160108.67, 169969.47, 6704.00, -37852.84, -38671.67, 163714.78, -44882.26, -41087.07, 130358.16, -40881.14, 60469.18, -49370.31, 135221.97, 9747.35, 0.000, 0.000, 0.000, 14:52:21.912
251, -135085.47, 13233.48, 160105.89, 169971.88, 6709.88, -37846.09, -38671.00, 163706.89, -44882.26, -41087.07, 130358.16, -40881.14, 60469.18, -49370.31, 135221.97, 9747.35, 0.000, 0.000, 0.000, 14:52:21.912
252, -135085.47, 13233.48, 160105.89, 169971.88, 6709.88, -37846.09, -38671.00, 163706.89, -44893.48, -41082.26, 130359.55, -40880.20, 60466.23, -49371.25, 135228.61, 9759.98, 0.000, 0.000, 0.000, 14:52:21.912
253, -135237.09, 13130.55, 160109.58, 169961.91, 6697.19, -37835.45, -38662.84, 163722.97, -44893.48, -41082.26, 130359.55, -40880.20, 60466.23, -49371.25, 135228.61, 9759.98, 0.000, 0.000, 0.000, 14:52:21.913
254, -135237.09, 13130.55, 160109.58, 169961.91, 6697.19, -37835.45, -38662.84, 163722.97, -44894.37, -41092.25, 130355.52, -40890.04, 60456.32, -49379.65, 135226.38, 9758.46, 0.000, 0.000, 0.000, 14:52:21.913
255, -135256.75, 13142.69, 160098.72, 169964.36, 6705.46, -37849.59, -38666.04, 163721.41, -44894.37, -41092.25, 130355.52, -40890.04, 60456.32, -49379.65, 135226.38, 9758.46, 0.000, 0.000, 0.000, 14:52:21.913
0, -135256.75, 13142.69, 160098.72, 169964.36, 6705.46, -37849.59, -38666.04, 163721.41, -44879.69, -41098.17, 130345.58, -40890.50, 60445.11, -49390.87, 135233.64, 9756.47, 0.022, 0.868, -0.360, 14:52:21.914
1, -135094.83, 13292.65, 160092.22, 170005.06, 6698.10, -37853.06, -38669.95, 163714.81, -44879.69, -41098.17, 130345.58, -40890.50, 60445.11, -49390.87, 135233.64, 9756.47, 0.000, 0.000, 0.000, 14:52:21.914
2, -135094.83, 13292.65, 160092.22, 170005.06, 6698.10, -37853.06, -38669.95, 163714.81, -44926.65, -41101.39, 130350.36, -40906.29, 60446.13, -49374.31, 135233.92, 9757.70, 0.000, 0.000, 0.000, 14:52:21.915
3, -135332.86, 13119.69, 160107.00, 169976.42, 6694.37, -37836.63, -38659.51, 163719.19, -44926.65, -41101.39, 130350.36, -40906.29, 60446.13, -49374.31, 135233.92, 9757.70, 0.000, 0.000, 0.000, 14:52:21.915
4, -135332.86, 13119.69, 160107.00, 169976.42, 6694.37, -37836.63, -38659.51, 163719.19, -44883.31, -41090.17, 130354.56, -40891.80, 60459.93, -49380.01, 135240.41, 9727.61, 0.000, 0.000, 0.000, 14:52:21.915
5, -135128.81, 13299.02, 160100.00, 169994.42, 6693.94, -37858.45, -38664.70, 163715.86, -44883.31, -41090.17, 130354.56, -40891.80, 60459.93, -49380.01, 135240.41, 9727.61, 0.000, 0.000, 0.000, 14:52:21.916
6, -135128.81, 13299.02, 160100.00, 169994.42, 6693.94, -37858.45, -38664.70, 163715.86, -44917.64, -41094.98, 130340.82, -40904.61, 60453.11, -49381.66, 135249.50, 9751.24, 0.000, 0.000, 0.000, 14:52:21.916
7, -135263.81, 13204.14, 160111.17, 169993.75, 6696.60, -37840.41, -38646.72, 163732.67, -44917.64, -41094.98, 130340.82, -40904.61, 60453.11, -49381.66, 135249.50, 9751.24, 0.000, 0.000, 0.000, 14:52:21.916
8, -135263.81, 13204.14, 160111.17, 169993.75, 6696.60, -37840.41, -38646.72, 163732.67, -44908.23, -41080.20, 130362.55, -40890.93, 60480.27, -49364.81, 135253.28, 9743.46, 0.000, 0.000, 0.000, 14:52:21.917
9, -135296.56, 13199.49, 160120.09, 169982.13, 6710.24, -37834.06, -38645.36, 163736.63, -44908.23, -41080.20, 130362.55, -40890.93, 60480.27, -49364.81, 135253.28, 9743.46, 0.000, 0.000, 0.000, 14:52:21.917
10, -135296.56, 13199.49, 160120.09, 169982.13, 6710.24, -37834.06, -38645.36, 163736.63, -44882.48, -41089.90, 130356.15, -40888.76, 60487.51, -49380.97, 135258.11, 9757.92, 0.020, 0.880, -0.350, 14:52:21.917
11, -135140.70, 13340.37, 160126.97, 170007.50, 6711.00, -37845.59, -38647.51, 163727.53, -44882.48, -41089.90, 130356.15, -40888.76, 60487.51, -49380.97, 135258.11, 9757.92, 0.000, 0.000, 0.000, 14:52:21.918
12, -135140.70, 13340.37, 160126.97, 170007.50, 6711.00, -37845.59, -38647.51, 163727.53, -44919.61, -41078.57, 130370.91, -40890.66, 60509.07, -49368.16, 135258.14, 9754.28, 0.000, 0.000, 0.000, 14:52:21.918
13, -135402.22, 13151.52, 160140.94, 169965.05, 6710.93, -37837.28, -38640.60, 163737.72, -44919.61, -41078.57, 130370.91, -40890.66, 60509.07, -49368.16, 135258.14, 9754.28, 0.000, 0.000, 0.000, 14:52:21.918
14, -135402.22, 13151.52, 160140.94, 169965.05, 6710.93, -37837.28, -38640.60, 163737.72, -44888.43, -41092.56, 130360.76, -40889.05, 60512.09, -49388.68, 135261.27, 9744.71, 0.000, 0.000, 0.000, 14:52:21.919
15, -135177.95, 13357.63, 160125.02, 170005.31, 6714.53, -37855.47, -38654.28, 163732.11, -44888.43, -41092.56, 130360.76, -40889.05, 60512.09, -49388.68, 135261.27, 9744.71, 0.000, 0.000, 0.000, 14:52:21.919
16, -135177.95, 13357.63, 160125.02, 170005.31, 6714.53, -37855.47, -38654.28, 163732.11, -44920.79, -41113.82, 130347.21, -40914.06, 60510.15, -49399.07, 135253.73, 9762.53, 0.000, 0.000, 0.000, 14:52:21.919
17, -135317.48, 13269.89, 160137.56, 169999.34, 6710.28, -37860.70, -38644.62, 163724.78, -44920.79, -41113.82, 130347.21, -40914.06, 60510.15, -49399.07, 135253.73, 9762.53, 0.000, 0.000, 0.000, 14:52:21.919
18, -135317.48, 13269.89, 160137.56, 169999.34, 6710.28, -37860.70, -38644.62, 163724.78, -44912.52, -41088.32, 130361.13, -40901.43, 60527.23, -49382.82, 135259.91, 9740.11, 0.000, 0.000, 0.000, 14:52:21.920
19, -135373.31, 13256.66, 160133.14, 169967.16, 6726.31, -37864.17, -38642.36, 163713.48, -44912.52, -41088.32, 130361.13, -40901.43, 60527.23, -49382.82, 135259.91, 9740.11, 0.000, 0.000, 0.000, 14:52:21.920
20, -135373.31, 13256.66, 160133.14, 169967.16, 6726.31, -37864.17, -38642.36, 163713.48, -44895.38, -41102.42, 130340.75, -40914.31, 60513.70, -49402.61, 135260.84, 9737.94, 0.008, 0.874, -0.348, 14:52:21.920
21, -135211.00, 13413.73, 160126.86, 169995.69, 6727.70, -37863.21, -38645.43, 163712.89, -44895.38, -41102.42, 130340.75, -40914.31, 60513.70, -49402.61, 135260.84, 9737.94, 0.000, 0.000, 0.000, 14:52:21.920
22, -135211.00, 13413.73, 160126.86, 169995.69, 6727.70, -37863.21, -38645.43, 163712.89, -44930.78, -41100.95, 130346.00, -40929.17, 60529.44, -49394.43, 135254.73, 9739.88, 0.000, 0.000, 0.000, 14:52:21.921
23, -135465.00, 13240.17, 160135.64, 169959.86, 6730.15, -37848.79, -38633.54, 163722.83, -44930.78, -41100.95, 130346.00, -40929.17, 60529.44, -49394.43, 135254.73, 9739.88, 0.000, 0.000, 0.000, 14:52:21.921
24, -135465.00, 13240.17, 160135.64, 169959.86, 6730.15, -37848.79, -38633.54, 163722.83, -44899.80, -41106.69, 130341.27, -40924.97, 60529.98, -49403.21, 135250.84, 9722.14, 0.000, 0.000, 0.000, 14:52:21.921
25, -135262.88, 13431.61, 160129.88, 169972.16, 6731.52, -37879.34, -38640.75, 163706.77, -44899.80, -41106.69, 130341.27, -40924.97, 60529.98, -49403.21, 135250.84, 9722.14, 0.000, 0.000, 0.000, 14:52:21.922
26, -135262.88, 13431.61, 160129.88, 169972.16, 6731.52, -37879.34, -38640.75, 163706.77, -44919.79, -41108.84, 130337.98, -40932.66, 60524.86, -49405.73, 135248.59, 9738.81, 0.000, 0.000, 0.000, 14:52:21.922
27, -135381.88, 13361.83, 160131.38, 169977.33, 6712.36, -37864.84, -38638.66, 163715.95, -44919.79, -41108.84, 130337.98, -40932.66, 60524.86, -49405.73, 135248.59, 9738.81, 0.000, 0.000, 0.000, 14:52:21.922
28, -135381.88, 13361.83, 160131.38, 169977.33, 6712.36, -37864.84, -38638.66, 163715.95, -44931.41, -41099.69, 130340.86, -40929.08, 60523.38, -49399.39, 135240.45, 9742.30, 0.000, 0.000, 0.000, 14:52:21.923
29, -135421.92, 13354.14, 160129.25, 169956.38, 6708.50, -37886.77, -38650.55, 163693.98, -44931.41, -41099.69, 130340.86, -40929.08, 60523.38, -49399.39, 135240.45, 9742.30, 0.000, 0.000, 0.000, 14:52:21.923
30, -135421.92, 13354.14, 160129.25, 169956.38, 6708.50, -37886.77, -38650.55, 163693.98, -44896.34, -41105.35, 130338.27, -40928.61, 60510.73, -49408.11, 135236.23, 9734.43, 0.000, 0.872, -0.346, 14:52:21.923
31, -135251.39, 13510.04, 160124.78, 169982.69, 6716.50, -37876.41, -38658.75, 163689.33, -44896.34, -41105.35, 130338.27, -40928.61, 60510.73, -49408.11, 135236.23, 9734.43, 0.000, 0.000, 0.000, 14:52:21.924
32, -135251.39, 13510.04, 160124.78, 169982.69, 6716.50, -37876.41, -38658.75, 163689.33, -44927.54, -41089.84, 130356.89, -40930.54, 60512.27, -49381.80, 135230.91, 9745.47, 0.000, 0.000, 0.000, 14:52:21.924
33, -135513.95, 13322.26, 160151.97, 169933.52, 6726.71, -37858.11, -38649.18, 163689.63, -44927.54, -41089.84, 130356.89, -40930.54, 60512.27, -49381.80, 135230.91, 9745.47, 0.000, 0.000, 0.000, 14:52:21.924
34, -135513.95, 13322.26, 160151.97, 169933.52, 6726.71, -37858.11, -38649.18, 163689.63, -44883.60, -41089.46, 130364.66, -40917.86, 60521.86, -49383.68, 135234.31, 9738.10, 0.000, 0.000, 0.000, 14:52:21.925
35, -135309.05, 13515.52, 160148.36, 169955.08, 6732.55, -37860.37, -38662.86, 163689.55, -44883.60, -41089.46, 130364.66, -40917.86, 60521.86, -49383.68, 135234.31, 9738.10, 0.000, 0.000, 0.000, 14:52:21.925
36, -135309.05, 13515.52, 160148.36, 169955.08, 6732.55, -37860.37, -38662.86, 163689.55, -44903.82, -41099.45, 130361.09, -40933.31, 60517.03, -49396.46, 135230.11, 9749.67, 0.000, 0.000, 0.000, 14:52:21.925
37, -135440.72, 13425.37, 160148.70, 169949.94, 6718.69, -37859.16, -38671.54, 163693.84, -44903.82, -41099.45, 130361.09, -40933.31, 60517.03, -49396.46, 135230.11, 9749.67, 0.000, 0.000, 0.000, 14:52:21.925
38, -135440.72, 13425.37, 160148.70, 169949.94, 6718.69, -37859.16, -38671.54, 163693.84, -44906.44, -41099.11, 130368.09, -40932.97, 60511.56, -49387.25, 135221.45, 9736.00, 0.000, 0.000, 0.000, 14:52:21.926
39, -135497.64, 13403.20, 160148.70, 169931.83, 6717.59, -37882.59, -38674.29, 163688.34, -44906.44, -41099.11, 130368.09, -40932.97, 60511.56, -49387.25, 135221.45, 9736.00, 0.000, 0.000, 0.000, 14:52:21.926
40, -135497.64, 13403.20, 160148.70, 169931.83, 6717.59, -37882.59, -38674.29, 163688.34, -44883.33, -41112.12, 130362.27, -40931.70, 60505.01, -49401.69, 135233.72, 9735.86, 0.000, 0.880, -0.340, 14:52:21.926
41, -135312.38, 13567.75, 160145.02, 169977.56, 6733.17, -37884.53, -38670.64, 163689.47, -44883.33, -41112.12, 130362.27, -40931.70, 60505.01, -49401.69, 135233.72, 9735.86, 0.000, 0.000, 0.000, 14:52:21.926
42, -135312.38, 13567.75, 160145.02, 169977.56, 6733.17, -37884.53, -38670.64, 163689.47, -44922.96, -41111.47, 130368.11, -40947.75, 60517.55, -49396.32, 135234.98, 9744.85, 0.000, 0.000, 0.000, 14:52:21.927
43, -135558.92, 13383.20, 160148.75, 169944.95, 6728.79, -37897.70, -38672.50, 163683.70, -44922.96, -41111.47, 130368.11, -40947.75, 60517.55, -49396.32, 135234.98, 9744.85, 0.000, 0.000, 0.000, 14:52:21.927
44, -135558.92, 13383.20, 160148.75, 169944.95, 6728.79, -37897.70, -38672.50, 163683.70, -44896.16, -41114.00, 130356.15, -40948.30, 60512.27, -49411.77, 135230.39, 9722.90, 0.000, 0.000, 0.000, 14:52:21.927
45, -135353.36, 13563.40, 160141.59, 169965.75, 6730.31, -37904.04, -38674.86, 163676.14, -44896.16, -41114.00, 130356.15, -40948.30, 60512.27, -49411.77, 135230.39, 9722.90, 0.000, 0.000, 0.000, 14:52:21.927
46, -135353.36, 13563.40, 160141.59, 169965.75, 6730.31, -37904.04, -38674.86, 163676.14, -44912.48, -41120.70, 130359.93, -40956.66, 60527.76, -49417.94, 135239.58, 9724.30, 0.000, 0.000, 0.000, 14:52:21.928
47, -135499.25, 13451.95, 160143.45, 169945.69, 6723.69, -37890.03, -38659.91, 163690.69, -44912.48, -41120.70, 130359.93, -40956.66, 60527.76, -49417.94, 135239.58, 9724.30, 0.000, 0.000, 0.000, 14:52:21.928
48, -135499.25, 13451.95, 160143.45, 169945.69, 6723.69, -37890.03, -38659.91, 163690.69, -44926.87, -41112.79, 130354.48, -40957.27, 60514.91, -49409.18, 135233.34, 9699.23, 0.000, 0.000, 0.000, 14:52:21.928
49, -135569.67, 13405.93, 160138.22, 169911.25, 6727.79, -37883.21, -38648.71, 163694.47, -44926.87, -41112.79, 130354.48, -40957.27, 60514.91, -49409.18, 135233.34, 9699.23, 0.000, 0.000, 0.000, 14:52:21.928
50, -135569.67, 13405.93, 160138.22, 169911.25, 6727.79, -37883.21, -38648.71, 163694.47, -44908.48, -41131.41, 130334.25, -40959.05, 60512.07, -49431.69, 135247.00, 9720.44, 0.000, 0.876, -0.340, 14:52:21.928
51, -135340.30, 13604.59, 160113.98, 169994.84, 6697.68, -37907.57, -38667.13, 163697.78, -44908.48, -41131.41, 130334.25, -40959.05, 60512.07, -49431.69, 135247.00, 9720.44, 0.000, 0.000, 0.000, 14:52:21.929
52, -135340.30, 13604.59, 160113.98, 169994.84, 6697.68, -37907.57, -38667.13, 163697.78, -44964.91, -41129.82, 130330.98, -40977.07, 60484.96, -49419.37, 135226.19, 9740.15, 0.000, 0.000, 0.000, 14:52:21.929
53, -135600.77, 13400.59, 160128.05, 169952.69, 6677.36, -37881.33, -38654.99, 163695.19, -44964.91, -41129.82, 130330.98, -40977.07, 60484.96, -49419.37, 135226.19, 9740.15, 0.000, 0.000, 0.000, 14:52:21.929
54, -135600.77, 13400.59, 160128.05, 169952.69, 6677.36, -37881.33, -38654.99, 163695.19, -44919.83, -41102.91, 130346.67, -40940.86, 60482.61, -49384.79, 135224.25, 9712.46, 0.000, 0.000, 0.000, 14:52:21.929
55, -135409.30, 13561.74, 160119.08, 169971.13, 6681.56, -37881.87, -38652.94, 163695.50, -44919.83, -41102.91, 130346.67, -40940.86, 60482.61, -49384.79, 135224.25, 9712.46, 0.000, 0.000, 0.000, 14:52:21.930
56, -135409.30, 13561.74, 160119.08, 169971.13, 6681.56, -37881.87, -38652.94, 163695.50, -44944.39, -41115.61, 130335.86, -40953.13, 60455.75, -49406.20, 135218.70, 9741.63, 0.000, 0.000, 0.000, 14:52:21.930
57, -135526.00, 13472.18, 160120.78, 169975.95, 6653.60, -37871.90, -38655.15, 163696.48, -44944.39, -41115.61, 130335.86, -40953.13, 60455.75, -49406.20, 135218.70, 9741.63, 0.000, 0.000, 0.000, 14:52:21.930
58, -135526.00, 13472.18, 160120.78, 169975.95, 6653.60, -37871.90, -38655.15, 163696.48, -44951.39, -41091.94, 130346.05, -40939.83, 60429.05, -49386.85, 135204.16, 9732.93, 0.000, 0.000, 0.000, 14:52:21.930
