%OpenBCI Raw EEG Data
%
%Sample Rate = 250.0 Hz
%First Column = SampleIndex
%Last Column = Timestamp 
%Other Columns = EEG data in microvolts followed by Accel Data (in G) interleaved with Aux Data
12, -37779.23, 70563.90, 46013.72, 104952.75, 153293.00, 100359.58, -36159.89, 19453.50, -10387.73, -69338.66, -45278.00, -5989.51, -82012.17, -82713.59, -70132.80, -72434.38, 0.000, 0.000, 0.000, 15:33:49.419
13, -37282.15, 70547.89, 46002.88, 104911.42, 153280.80, 100414.02, -36032.11, 19615.09, -10387.73, -69338.66, -45278.00, -5989.51, -82012.17, -82713.59, -70132.80, -72434.38, -0.054, 0.950, -0.278, 15:33:49.419
14, -37282.15, 70547.89, 46002.88, 104911.42, 153280.80, 100414.02, -36032.11, 19615.09, -10413.48, -69378.05, -45330.50, -6002.65, -82039.82, -82844.16, -69823.67, -72192.11, 0.000, 0.000, 0.000, 15:33:49.419
15, -37559.31, 70565.33, 46000.47, 104932.95, 153286.05, 100339.30, -35695.13, 19784.15, -10413.48, -69378.05, -45330.50, -6002.65, -82039.82, -82844.16, -69823.67, -72192.11, 0.000, 0.000, 0.000, 15:33:49.419
16, -37559.31, 70565.33, 46000.47, 104932.95, 153286.05, 100339.30, -35695.13, 19784.15, -10560.46, -69354.69, -45367.91, -5976.27, -82081.88, -82791.73, -70201.24, -72493.77, 0.000, 0.000, 0.000, 15:33:49.419
17, -37558.33, 70570.71, 46001.65, 104933.48, 153285.38, 100382.42, -36306.54, 19449.06, -10560.46, -69354.69, -45367.91, -5976.27, -82081.88, -82791.73, -70201.24, -72493.77, 0.000, 0.000, 0.000, 15:33:49.420
18, -37558.33, 70570.71, 46001.65, 104933.48, 153285.38, 100382.42, -36306.54, 19449.06, -10454.13, -69364.75, -45280.59, -6005.80, -82004.95, -82828.55, -69920.68, -72258.02, 0.000, 0.000, 0.000, 15:33:49.420
19, -37224.10, 70555.42, 45991.46, 104911.44, 153278.20, 100386.27, -35614.24, 19877.36, -10454.13, -69364.75, -45280.59, -6005.80, -82004.95, -82828.55, -69920.68, -72258.02, 0.000, 0.000, 0.000, 15:33:49.420
20, -37224.10, 70555.42, 45991.46, 104911.44, 153278.20, 100386.27, -35614.24, 19877.36, -10615.92, -69345.95, -45400.13, -5981.89, -82078.15, -82788.34, -70000.23, -72328.95, 0.000, 0.000, 0.000, 15:33:49.420
21, -37755.92, 70582.63, 46000.69, 104948.25, 153299.44, 100350.21, -36148.56, 19489.13, -10615.92, -69345.95, -45400.13, -5981.89, -82078.15, -82788.34, -70000.23, -72328.95, 0.000, 0.000, 0.000, 15:33:49.420
22, -37755.92, 70582.63, 46000.69, 104948.25, 153299.44, 100350.21, -36148.56, 19489.13, -10571.01, -69351.16, -45314.63, -6003.52, -82071.80, -82730.53, -70140.11, -72432.52, -0.056, 0.938, -0.278, 15:33:49.421
23, -37267.98, 70549.75, 45964.24, 104865.75, 153259.84, 100357.59, -36044.40, 19586.34, -10571.01, -69351.16, -45314.63, -6003.52, -82071.80, -82730.53, -70140.11, -72432.52, 0.000, 0.000, 0.000, 15:33:49.421
24, -37267.98, 70549.75, 45964.24, 104865.75, 153259.84, 100357.59, -36044.40, 19586.34, -10646.78, -69360.03, -45373.17, -6036.67, -82074.30, -82771.21, -69886.86, -72239.72, 0.000, 0.000, 0.000, 15:33:49.421
25, -37569.91, 70571.36, 45973.07, 104925.97, 153258.53, 100327.66, -35735.66, 19669.15, -10646.78, -69360.03, -45373.17, -6036.67, -82074.30, -82771.21, -69886.86, -72239.72, 0.000, 0.000, 0.000, 15:33:49.421
26, -37569.91, 70571.36, 45973.07, 104925.97, 153258.53, 100327.66, -35735.66, 19669.15, -10656.44, -69314.75, -45365.05, -5952.22, -82050.93, -82812.07, -70209.22, -72464.80, 0.000, 0.000, 0.000, 15:33:49.421
27, -37541.14, 70593.76, 46013.70, 104946.47, 153283.91, 100385.16, -36324.91, 19311.24, -10656.44, -69314.75, -45365.05, -5952.22, -82050.93, -82812.07, -70209.22, -72464.80, 0.000, 0.000, 0.000, 15:33:49.422
28, -37541.14, 70593.76, 46013.70, 104946.47, 153283.91, 100385.16, -36324.91, 19311.24, -10570.68, -69340.97, -45272.72, -5986.27, -82043.17, -82754.54, -69969.20, -72259.84, 0.000, 0.000, 0.000, 15:33:49.422
29, -37252.82, 70555.38, 45999.66, 104925.59, 153270.64, 100378.59, -35703.47, 19609.34, -10570.68, -69340.97, -45272.72, -5986.27, -82043.17, -82754.54, -69969.20, -72259.84, 0.000, 0.000, 0.000, 15:33:49.422
30, -37252.82, 70555.38, 45999.66, 104925.59, 153270.64, 100378.59, -35703.47, 19609.34, -10714.04, -69324.11, -45385.62, -5960.23, -82059.29, -82762.63, -70031.57, -72316.32, 0.000, 0.000, 0.000, 15:33:49.422
31, -37770.96, 70572.66, 46022.40, 104954.60, 153291.70, 100325.29, -36222.16, 19181.91, -10714.04, -69324.11, -45385.62, -5960.23, -82059.29, -82762.63, -70031.57, -72316.32, 0.000, 0.000, 0.000, 15:33:49.422
32, -37770.96, 70572.66, 46022.40, 104954.60, 153291.70, 100325.29, -36222.16, 19181.91, -10646.72, -69322.05, -45280.72, -5974.58, -82028.64, -82777.41, -70161.84, -72417.37, -0.058, 0.924, -0.276, 15:33:49.422
33, -37280.90, 70546.55, 46005.32, 104925.30, 153276.97, 100376.77, -36146.73, 19261.41, -10646.72, -69322.05, -45280.72, -5974.58, -82028.64, -82777.41, -70161.84, -72417.37, 0.000, 0.000, 0.000, 15:33:49.423
34, -37280.90, 70546.55, 46005.32, 104925.30, 153276.97, 100376.77, -36146.73, 19261.41, -10649.82, -69334.95, -45315.77, -5985.95, -82033.54, -82782.79, -69862.30, -72186.56, 0.000, 0.000, 0.000, 15:33:49.423
35, -37574.76, 70562.11, 46005.99, 104945.33, 153286.83, 100312.91, -35831.25, 19334.35, -10649.82, -69334.95, -45315.77, -5985.95, -82033.54, -82782.79, -69862.30, -72186.56, 0.000, 0.000, 0.000, 15:33:49.423
36, -37574.76, 70562.11, 46005.99, 104945.33, 153286.83, 100312.91, -35831.25, 19334.35, -10761.60, -69307.98, -45364.70, -5960.74, -82074.89, -82725.77, -70215.70, -72464.98, 0.000, 0.000, 0.000, 15:33:49.423
37, -37580.30, 70565.08, 46002.37, 104920.27, 153283.63, 100329.34, -36450.75, 18937.13, -10761.60, -69307.98, -45364.70, -5960.74, -82074.89, -82725.77, -70215.70, -72464.98, 0.000, 0.000, 0.000, 15:33:49.423
38, -37580.30, 70565.08, 46002.37, 104920.27, 153283.63, 100329.34, -36450.75, 18937.13, -10670.81, -69340.05, -45285.35, -5999.41, -82006.58, -82777.96, -69969.77, -72267.79, 0.000, 0.000, 0.000, 15:33:49.424
39, -37273.72, 70559.09, 45994.28, 104892.02, 153276.03, 100348.91, -35822.38, 19255.69, -10670.81, -69340.05, -45285.35, -5999.41, -82006.58, -82777.96, -69969.77, -72267.79, 0.000, 0.000, 0.000, 15:33:49.424
40, -37273.72, 70559.09, 45994.28, 104892.02, 153276.03, 100348.91, -35822.38, 19255.69, -10815.36, -69307.26, -45398.58, -5983.83, -82066.84, -82765.87, -70027.45, -72320.68, 0.000, 0.000, 0.000, 15:33:49.424
41, -37801.13, 70586.07, 46005.88, 104951.96, 153290.34, 100306.84, -36330.82, 18828.84, -10815.36, -69307.26, -45398.58, -5983.83, -82066.84, -82765.87, -70027.45, -72320.68, 0.000, 0.000, 0.000, 15:33:49.424
42, -37801.13, 70586.07, 46005.88, 104951.96, 153290.34, 100306.84, -36330.82, 18828.84, -10773.23, -69312.58, -45295.05, -5966.84, -82034.25, -82781.56, -70192.21, -72441.38, -0.058, 0.914, -0.278, 15:33:49.424
43, -37313.62, 70556.50, 45983.75, 104907.82, 153264.28, 100357.01, -36276.25, 18833.67, -10773.23, -69312.58, -45295.05, -5966.84, -82034.25, -82781.56, -70192.21, -72441.38, 0.000, 0.000, 0.000, 15:33:49.425
44, -37313.62, 70556.50, 45983.75, 104907.82, 153264.28, 100357.01, -36276.25, 18833.67, -10791.82, -69338.55, -45331.64, -5985.66, -82021.65, -82791.57, -69892.72, -72194.37, 0.000, 0.000, 0.000, 15:33:49.425
45, -37598.98, 70584.70, 45997.65, 104944.81, 153285.53, 100307.77, -35954.64, 18841.51, -10791.82, -69338.55, -45331.64, -5985.66, -82021.65, -82791.57, -69892.72, -72194.37, 0.000, 0.000, 0.000, 15:33:49.425
46, -37598.98, 70584.70, 45997.65, 104944.81, 153285.53, 100307.77, -35954.64, 18841.51, -10892.94, -69305.67, -45361.28, -5936.67, -82040.33, -82729.80, -70274.33, -72502.89, 0.000, 0.000, 0.000, 15:33:49.426
47, -37682.20, 70566.13, 45986.48, 104917.03, 153268.14, 100311.83, -36654.85, 18310.15, -10892.94, -69305.67, -45361.28, -5936.67, -82040.33, -82729.80, -70274.33, -72502.89, 0.000, 0.000, 0.000, 15:33:49.427
48, -37682.20, 70566.13, 45986.48, 104917.03, 153268.14, 100311.83, -36654.85, 18310.15, -10812.90, -69326.28, -45298.49, -5979.29, -82021.96, -82779.64, -70032.77, -72299.66, 0.000, 0.000, 0.000, 15:33:49.427
49, -37320.39, 70550.69, 45981.52, 104909.95, 153259.05, 100322.98, -35999.32, 18613.08, -10812.90, -69326.28, -45298.49, -5979.29, -82021.96, -82779.64, -70032.77, -72299.66, 0.000, 0.000, 0.000, 15:33:49.427
50, -37320.39, 70550.69, 45981.52, 104909.95, 153259.05, 100322.98, -35999.32, 18613.08, -10902.82, -69306.39, -45372.30, -5950.75, -82047.53, -82711.80, -70071.15, -72342.34, 0.000, 0.000, 0.000, 15:33:49.428
51, -37851.67, 70586.67, 46023.09, 104975.41, 153293.31, 100285.95, -36496.44, 18151.54, -10902.82, -69306.39, -45372.30, -5950.75, -82047.53, -82711.80, -70071.15, -72342.34, 0.000, 0.000, 0.000, 15:33:49.428
52, -37851.67, 70586.67, 46023.09, 104975.41, 153293.31, 100285.95, -36496.44, 18151.54, -10818.65, -69291.16, -45259.46, -5925.89, -82003.54, -82814.22, -70212.05, -72436.41, -0.042, 0.928, -0.284, 15:33:49.428
53, -37369.52, 70557.05, 46005.63, 104950.73, 153268.05, 100354.32, -36451.71, 18129.92, -10818.65, -69291.16, -45259.46, -5925.89, -82003.54, -82814.22, -70212.05, -72436.41, 0.000, 0.000, 0.000, 15:33:49.428
54, -37369.52, 70557.05, 46005.63, 104950.73, 153268.05, 100354.32, -36451.71, 18129.92, -10808.70, -69333.84, -45306.38, -5968.90, -82037.45, -82810.22, -69908.21, -72183.08, 0.000, 0.000, 0.000, 15:33:49.428
55, -37633.70, 70572.55, 46008.54, 104965.53, 153278.16, 100284.48, -36099.83, 18176.91, -10808.70, -69333.84, -45306.38, -5968.90, -82037.45, -82810.22, -69908.21, -72183.08, 0.000, 0.000, 0.000, 15:33:49.429
56, -37633.70, 70572.55, 46008.54, 104965.53, 153278.16, 100284.48, -36099.83, 18176.91, -10899.67, -69283.68, -45344.87, -5919.23, -82013.98, -82763.01, -70256.20, -72456.93, 0.000, 0.000, 0.000, 15:33:49.429
57, -37723.71, 70592.57, 46032.57, 104973.22, 153297.09, 100322.92, -36788.38, 17674.60, -10899.67, -69283.68, -45344.87, -5919.23, -82013.98, -82763.01, -70256.20, -72456.93, 0.000, 0.000, 0.000, 15:33:49.429
58, -37723.71, 70592.57, 46032.57, 104973.22, 153297.09, 100322.92, -36788.38, 17674.60, -10774.93, -69311.59, -45264.98, -5967.71, -82004.30, -82766.45, -70019.32, -72266.36, 0.000, 0.000, 0.000, 15:33:49.429
59, -37411.30, 70546.23, 45988.36, 104917.38, 153267.61, 100301.39, -36189.48, 17939.71, -10774.93, -69311.59, -45264.98, -5967.71, -82004.30, -82766.45, -70019.32, -72266.36, 0.000, 0.000, 0.000, 15:33:49.429
60, -37411.30, 70546.23, 45988.36, 104917.38, 153267.61, 100301.39, -36189.48, 17939.71, -10953.72, -69319.44, -45409.55, -5972.61, -82087.41, -82796.52, -70071.09, -72311.87, 0.000, 0.000, 0.000, 15:33:49.430
61, -37925.81, 70575.30, 46005.97, 104967.09, 153283.88, 100263.93, -36655.34, 17518.54, -10953.72, -69319.44, -45409.55, -5972.61, -82087.41, -82796.52, -70071.09, -72311.87, 0.000, 0.000, 0.000, 15:33:49.430
62, -37925.81, 70575.30, 46005.97, 104967.09, 153283.88, 100263.93, -36655.34, 17518.54, -10831.25, -69255.73, -45279.67, -5924.87, -81997.10, -82739.02, -70240.22, -72426.47, -0.036, 0.918, -0.286, 15:33:49.430
63, -37440.89, 70570.16, 46002.55, 104945.82, 153274.25, 100324.46, -36642.33, 17474.84, -10831.25, -69255.73, -45279.67, -5924.87, -81997.10, -82739.02, -70240.22, -72426.47, 0.000, 0.000, 0.000, 15:33:49.430
64, -37440.89, 70570.16, 46002.55, 104945.82, 153274.25, 100324.46, -36642.33, 17474.84, -10838.90, -69295.97, -45315.23, -5960.27, -82021.53, -82774.54, -69947.28, -72183.97, 0.000, 0.000, 0.000, 15:33:49.430
65, -37671.29, 70562.27, 45983.80, 104943.74, 153261.30, 100242.50, -36281.53, 17508.88, -10838.90, -69295.97, -45315.23, -5960.27, -82021.53, -82774.54, -69947.28, -72183.97, 0.000, 0.000, 0.000, 15:33:49.430
66, -37671.29, 70562.27, 45983.80, 104943.74, 153261.30, 100242.50, -36281.53, 17508.88, -10983.92, -69277.15, -45376.18, -5933.54, -82061.39, -82757.66, -70301.91, -72456.22, 0.000, 0.000, 0.000, 15:33:49.431
67, -37702.07, 70569.33, 45991.75, 104947.67, 153263.30, 100262.88, -36925.44, 17005.38, -10983.92, -69277.15, -45376.18, -5933.54, -82061.39, -82757.66, -70301.91, -72456.22, 0.000, 0.000, 0.000, 15:33:49.431
68, -37702.07, 70569.33, 45991.75, 104947.67, 153263.30, 100262.88, -36925.44, 17005.38, -10851.12, -69284.73, -45275.38, -5956.96, -82006.09, -82760.80, -70080.54, -72269.96, 0.000, 0.000, 0.000, 15:33:49.431
69, -37332.89, 70552.52, 45980.02, 104922.70, 153247.06, 100272.02, -36300.06, 17244.75, -10851.12, -69284.73, -45275.38, -5956.96, -82006.09, -82760.80, -70080.54, -72269.96, 0.000, 0.000, 0.000, 15:33:49.431
70, -37332.89, 70552.52, 45980.02, 104922.70, 153247.06, 100272.02, -36300.06, 17244.75, -10984.18, -69280.98, -45392.46, -5942.28, -82059.09, -82767.57, -70109.09, -72297.85, 0.000, 0.000, 0.000, 15:33:49.431
71, -37846.40, 70586.02, 46004.05, 104970.38, 153272.44, 100234.61, -36749.02, 16756.79, -10984.18, -69280.98, -45392.46, -5942.28, -82059.09, -82767.57, -70109.09, -72297.85, -0.028, 0.914, -0.290, 15:33:49.432
72, -37846.40, 70586.02, 46004.05, 104970.38, 153272.44, 100234.61, -36749.02, 16756.79, -10907.70, -69258.15, -45282.78, -5932.89, -82014.41, -82786.12, -70268.85, -72417.48, 0.000, 0.000, 0.000, 15:33:49.432
73, -37314.25, 70573.95, 45992.22, 104932.48, 153252.66, 100294.84, -36690.68, 16674.22, -10907.70, -69258.15, -45282.78, -5932.89, -82014.41, -82786.12, -70268.85, -72417.48, 0.000, 0.000, 0.000, 15:33:49.432
74, -37314.25, 70573.95, 45992.22, 104932.48, 153252.66, 100294.84, -36690.68, 16674.22, -10895.16, -69299.70, -45313.89, -5962.10, -82021.38, -82810.23, -69956.82, -72167.86, 0.000, 0.000, 0.000, 15:33:49.432
75, -37568.79, 70592.93, 45995.60, 104948.43, 153252.63, 100201.64, -36311.17, 16675.03, -10895.16, -69299.70, -45313.89, -5962.10, -82021.38, -82810.23, -69956.82, -72167.86, 0.000, 0.000, 0.000, 15:33:49.432
76, -37568.79, 70592.93, 45995.60, 104948.43, 153252.63, 100201.64, -36311.17, 16675.03, -11004.01, -69251.55, -45362.08, -5925.92, -82056.29, -82751.77, -70320.24, -72468.98, 0.000, 0.000, 0.000, 15:33:49.432
77, -37683.59, 70596.93, 45993.52, 104928.74, 153245.97, 100210.89, -36997.86, 16113.44, -11004.01, -69251.55, -45362.08, -5925.92, -82056.29, -82751.77, -70320.24, -72468.98, 0.000, 0.000, 0.000, 15:33:49.433
78, -37683.59, 70596.93, 45993.52, 104928.74, 153245.97, 100210.89, -36997.86, 16113.44, -10904.70, -69281.91, -45287.11, -5969.37, -82064.07, -82775.52, -70100.23, -72285.56, 0.000, 0.000, 0.000, 15:33:49.433
79, -37354.30, 70596.59, 45996.87, 104931.04, 153244.09, 100259.17, -36390.36, 16353.34, -10904.70, -69281.91, -45287.11, -5969.37, -82064.07, -82775.52, -70100.23, -72285.56, 0.000, 0.000, 0.000, 15:33:49.433
80, -37354.30, 70596.59, 45996.87, 104931.04, 153244.09, 100259.17, -36390.36, 16353.34, -10975.42, -69235.82, -45361.01, -5922.99, -82020.10, -82785.05, -70111.16, -72281.25, 0.000, 0.000, 0.000, 15:33:49.433
81, -37945.64, 70649.70, 46050.20, 104994.55, 153293.95, 100225.91, -36892.38, 15855.95, -10975.42, -69235.82, -45361.01, -5922.99, -82020.10, -82785.05, -70111.16, -72281.25, -0.052, 0.926, -0.302, 15:33:49.433
82, -37945.64, 70649.70, 46050.20, 104994.55, 153293.95, 100225.91, -36892.38, 15855.95, -10904.90, -69237.07, -45258.79, -5923.50, -82013.82, -82775.59, -70264.83, -72405.75, 0.000, 0.000, 0.000, 15:33:49.433
83, -37446.52, 70617.74, 46024.90, 104934.58, 153259.95, 100264.85, -36904.47, 15769.78, -10904.90, -69237.07, -45258.79, -5923.50, -82013.82, -82775.59, -70264.83, -72405.75, 0.000, 0.000, 0.000, 15:33:49.434
84, -37446.52, 70617.74, 46024.90, 104934.58, 153259.95, 100264.85, -36904.47, 15769.78, -10885.30, -69269.66, -45294.51, -5963.80, -82028.24, -82752.81, -69955.15, -72154.22, 0.000, 0.000, 0.000, 15:33:49.434
85, -37662.06, 70608.20, 46006.48, 104920.13, 153240.05, 100172.67, -36531.22, 15810.28, -10885.30, -69269.66, -45294.51, -5963.80, -82028.24, -82752.81, -69955.15, -72154.22, 0.000, 0.000, 0.000, 15:33:49.434
86, -37662.06, 70608.20, 46006.48, 104920.13, 153240.05, 100172.67, -36531.22, 15810.28, -11032.58, -69269.48, -45367.42, -5940.71, -82070.26, -82731.90, -70321.98, -72447.08, 0.000, 0.000, 0.000, 15:33:49.434
87, -37763.47, 70643.40, 46031.16, 104939.20, 153256.19, 100217.20, -37229.45, 15266.89, -11032.58, -69269.48, -45367.42, -5940.71, -82070.26, -82731.90, -70321.98, -72447.08, 0.000, 0.000, 0.000, 15:33:49.434
88, -37763.47, 70643.40, 46031.16, 104939.20, 153256.19, 100217.20, -37229.45, 15266.89, -10834.40, -69237.19, -45248.76, -5943.37, -81997.44, -82819.96, -70090.27, -72249.13, 0.000, 0.000, 0.000, 15:33:49.434
89, -37354.50, 70618.21, 46013.99, 104930.77, 153240.63, 100212.21, -36607.71, 15514.86, -10834.40, -69237.19, -45248.76, -5943.37, -81997.44, -82819.96, -70090.27, -72249.13, 0.000, 0.000, 0.000, 15:33:49.435
90, -37354.50, 70618.21, 46013.99, 104930.77, 153240.63, 100212.21, -36607.71, 15514.86, -10939.64, -69243.29, -45354.53, -5925.92, -82045.36, -82794.10, -70114.89, -72263.21, 0.000, 0.000, 0.000, 15:33:49.435
91, -37889.80, 70653.23, 46034.42, 104968.64, 153261.69, 100167.98, -37059.30, 15024.19, -10939.64, -69243.29, -45354.53, -5925.92, -82045.36, -82794.10, -70114.89, -72263.21, -0.050, 0.922, -0.308, 15:33:49.435
92, -37889.80, 70653.23, 46034.42, 104968.64, 153261.69, 100167.98, -37059.30, 15024.19, -10871.62, -69214.37, -45265.32, -5915.08, -82011.63, -82751.34, -70309.53, -72408.63, 0.000, 0.000, 0.000, 15:33:49.435
93, -37425.34, 70626.84, 46014.71, 104930.93, 153242.03, 100234.95, -37100.59, 14884.52, -10871.62, -69214.37, -45265.32, -5915.08, -82011.63, -82751.34, -70309.53, -72408.63, 0.000, 0.000, 0.000, 15:33:49.435
94, -37425.34, 70626.84, 46014.71, 104930.93, 153242.03, 100234.95, -37100.59, 14884.52, -10821.89, -69249.13, -45297.21, -5946.08, -82018.74, -82781.18, -70005.84, -72156.21, 0.000, 0.000, 0.000, 15:33:49.435
95, -37683.12, 70639.09, 46013.25, 104950.00, 153256.66, 100163.15, -36756.48, 14790.53, -10821.89, -69249.13, -45297.21, -5946.08, -82018.74, -82781.18, -70005.84, -72156.21, 0.000, 0.000, 0.000, 15:33:49.435
96, -37683.12, 70639.09, 46013.25, 104950.00, 153256.66, 100163.15, -36756.48, 14790.53, -10937.47, -69217.31, -45360.79, -5914.56, -82053.81, -82746.65, -70343.35, -72421.35, 0.000, 0.000, 0.000, 15:33:49.436
97, -37775.79, 70658.58, 46024.30, 104954.47, 153264.34, 100203.94, -37435.89, 14117.76, -10937.47, -69217.31, -45360.79, -5914.56, -82053.81, -82746.65, -70343.35, -72421.35, 0.000, 0.000, 0.000, 15:33:49.436
98, -37775.79, 70658.58, 46024.30, 104954.47, 153264.34, 100203.94, -37435.89, 14117.76, -10784.72, -69239.87, -45264.96, -5947.75, -82006.70, -82766.36, -70122.77, -72237.73, 0.000, 0.000, 0.000, 15:33:49.436
99, -37383.78, 70645.10, 46011.45, 104922.08, 153251.31, 100192.72, -36839.38, 14209.07, -10784.72, -69239.87, -45264.96, -5947.75, -82006.70, -82766.36, -70122.77, -72237.73, 0.000, 0.000, 0.000, 15:33:49.436
100, -37383.78, 70645.10, 46011.45, 104922.08, 153251.31, 100192.72, -36839.38, 14209.07, -10892.07, -69224.87, -45368.00, -5923.28, -82043.41, -82760.33, -70117.91, -72247.30, 0.000, 0.000, 0.000, 15:33:49.437
101, -37926.89, 70675.25, 46038.89, 104958.38, 153278.06, 100130.31, -37274.44, 13598.93, -10892.07, -69224.87, -45368.00, -5923.28, -82043.41, -82760.33, -70117.91, -72247.30, -0.062, 0.924, -0.310, 15:33:49.437
102, -37926.89, 70675.25, 46038.89, 104958.38, 153278.06, 100130.31, -37274.44, 13598.93, -10809.53, -69220.60, -45276.56, -5936.80, -82019.84, -82704.67, -70300.08, -72398.82, 0.000, 0.000, 0.000, 15:33:49.437
103, -37432.24, 70655.05, 46029.32, 104928.59, 153260.86, 100175.20, -37290.35, 13368.35, -10809.53, -69220.60, -45276.56, -5936.80, -82019.84, -82704.67, -70300.08, -72398.82, 0.000, 0.000, 0.000, 15:33:49.437
104, -37432.24, 70655.05, 46029.32, 104928.59, 153260.86, 100175.20, -37290.35, 13368.35, -10771.06, -69237.14, -45279.89, -5923.48, -82016.91, -82813.14, -69982.98, -72138.02, 0.000, 0.000, 0.000, 15:33:49.438
105, -37656.72, 70661.82, 46045.08, 104981.85, 153283.11, 100136.35, -36904.88, 13226.55, -10771.06, -69237.14, -45279.89, -5923.48, -82016.91, -82813.14, -69982.98, -72138.02, 0.000, 0.000, 0.000, 15:33:49.438
106, -37656.72, 70661.82, 46045.08, 104981.85, 153283.11, 100136.35, -36904.88, 13226.55, -10905.24, -69213.85, -45339.84, -5892.46, -82063.31, -82766.27, -70320.17, -72418.33, 0.000, 0.000, 0.000, 15:33:49.438
107, -37770.87, 70667.16, 46051.75, 104984.64, 153289.33, 100158.72, -37590.09, 12461.48, -10905.24, -69213.85, -45339.84, -5892.46, -82063.31, -82766.27, -70320.17, -72418.33, 0.000, 0.000, 0.000, 15:33:49.439
108, -37770.87, 70667.16, 46051.75, 104984.64, 153289.33, 100158.72, -37590.09, 12461.48, -10783.42, -69246.10, -45248.02, -5928.98, -82035.73, -82764.22, -70113.02, -72248.62, 0.000, 0.000, 0.000, 15:33:49.439
109, -37375.29, 70643.98, 46032.37, 104942.55, 153270.58, 100152.93, -37000.52, 12479.38, -10783.42, -69246.10, -45248.02, -5928.98, -82035.73, -82764.22, -70113.02, -72248.62, 0.000, 0.000, 0.000, 15:33:49.439
110, -37375.29, 70643.98, 46032.37, 104942.55, 153270.58, 100152.93, -37000.52, 12479.38, -10873.59, -69231.89, -45348.92, -5907.83, -82070.69, -82759.48, -70107.79, -72248.93, 0.000, 0.000, 0.000, 15:33:49.439
111, -37914.46, 70675.23, 46049.87, 104998.97, 153282.16, 100099.36, -37402.60, 11835.79, -10873.59, -69231.89, -45348.92, -5907.83, -82070.69, -82759.48, -70107.79, -72248.93, -0.046, 0.934, -0.306, 15:33:49.440
112, -37914.46, 70675.23, 46049.87, 104998.97, 153282.16, 100099.36, -37402.60, 11835.79, -10825.80, -69203.73, -45269.21, -5900.70, -82074.53, -82727.09, -70325.29, -72415.98, 0.000, 0.000, 0.000, 15:33:49.440
113, -37463.76, 70654.95, 46030.46, 104964.95, 153260.88, 100170.48, -37474.42, 11492.55, -10825.80, -69203.73, -45269.21, -5900.70, -82074.53, -82727.09, -70325.29, -72415.98, 0.000, 0.000, 0.000, 15:33:49.440
114, -37463.76, 70654.95, 46030.46, 104964.95, 153260.88, 100170.48, -37474.42, 11492.55, -10778.21, -69235.22, -45284.41, -5927.79, -82044.78, -82760.52, -70013.02, -72141.10, 0.000, 0.000, 0.000, 15:33:49.440
115, -37682.38, 70667.14, 46044.17, 104983.23, 153283.41, 100110.63, -37093.90, 11279.87, -10778.21, -69235.22, -45284.41, -5927.79, -82044.78, -82760.52, -70013.02, -72141.10, 0.000, 0.000, 0.000, 15:33:49.440
116, -37682.38, 70667.14, 46044.17, 104983.23, 153283.41, 100110.63, -37093.90, 11279.87, -10907.83, -69206.59, -45344.85, -5894.53, -82096.68, -82709.23, -70355.82, -72419.70, 0.000, 0.000, 0.000, 15:33:49.440
117, -37816.09, 70667.72, 46042.94, 104971.74, 153280.45, 100121.08, -37805.05, 10390.25, -10907.83, -69206.59, -45344.85, -5894.53, -82096.68, -82709.23, -70355.82, -72419.70, 0.000, 0.000, 0.000, 15:33:49.441
118, -37816.09, 70667.72, 46042.94, 104971.74, 153280.45, 100121.08, -37805.05, 10390.25, -10748.22, -69220.00, -45245.32, -5932.71, -82050.23, -82699.95, -70144.17, -72248.70, 0.000, 0.000, 0.000, 15:33:49.441
119, -37404.48, 70636.09, 46023.00, 104956.14, 153262.59, 100139.50, -37239.35, 10249.66, -10748.22, -69220.00, -45245.32, -5932.71, -82050.23, -82699.95, -70144.17, -72248.70, 0.000, 0.000, 0.000, 15:33:49.441
120, -37404.48, 70636.09, 46023.00, 104956.14, 153262.59, 100139.50, -37239.35, 10249.66, -10877.83, -69205.73, -45362.59, -5930.92, -82094.71, -82752.73, -70130.65, -72241.26, 0.000, 0.000, 0.000, 15:33:49.441
121, -37946.06, 70659.30, 46039.94, 104995.44, 153285.42, 100084.20, -37652.88, 9439.07, -10877.83, -69205.73, -45362.59, -5930.92, -82094.71, -82752.73, -70130.65, -72241.26, -0.026, 0.922, -0.312, 15:33:49.441
122, -37946.06, 70659.30, 46039.94, 104995.44, 153285.42, 100084.20, -37652.88, 9439.07, -10806.22, -69186.67, -45268.07, -5935.06, -82057.59, -82728.81, -70328.38, -72409.84, 0.000, 0.000, 0.000, 15:33:49.441
123, -37487.09, 70637.32, 46027.79, 104959.38, 153265.58, 100143.14, -37738.01, 8936.72, -10806.22, -69186.67, -45268.07, -5935.06, -82057.59, -82728.81, -70328.38, -72409.84, 0.000, 0.000, 0.000, 15:33:49.442
124, -37487.09, 70637.32, 46027.79, 104959.38, 153265.58, 100143.14, -37738.01, 8936.72, -10777.09, -69217.34, -45285.82, -5986.85, -82057.38, -82734.76, -69992.34, -72149.38, 0.000, 0.000, 0.000, 15:33:49.442
125, -37678.07, 70636.07, 46027.63, 104953.46, 153274.00, 100073.96, -37330.47, 8634.75, -10777.09, -69217.34, -45285.82, -5986.85, -82057.38, -82734.76, -69992.34, -72149.38, 0.000, 0.000, 0.000, 15:33:49.442
126, -37678.07, 70636.07, 46027.63, 104953.46, 153274.00, 100073.96, -37330.47, 8634.75, -10909.75, -69176.10, -45347.75, -5967.58, -82094.98, -82705.14, -70311.84, -72428.14, 0.000, 0.000, 0.000, 15:33:49.443
127, -37836.90, 70657.66, 46045.26, 104987.84, 153289.11, 100116.70, -38038.49, 7720.14, -10909.75, -69176.10, -45347.75, -5967.58, -82094.98, -82705.14, -70311.84, -72428.14, 0.000, 0.000, 0.000, 15:33:49.443
128, -37836.90, 70657.66, 46045.26, 104987.84, 153289.11, 100116.70, -38038.49, 7720.14, -10761.94, -69210.74, -45248.29, -6015.06, -82053.92, -82769.76, -70094.46, -72260.26, 0.000, 0.000, 0.000, 15:33:49.443
129, -37410.80, 70622.88, 46016.41, 104942.33, 153268.36, 100132.48, -37450.64, 7624.85, -10761.94, -69210.74, -45248.29, -6015.06, -82053.92, -82769.76, -70094.46, -72260.26, 0.000, 0.000, 0.000, 15:33:49.443
130, -37410.80, 70622.88, 46016.41, 104942.33, 153268.36, 100132.48, -37450.64, 7624.85, -10892.83, -69212.15, -45373.46, -6024.44, -82106.70, -82726.51, -70076.90, -72262.83, -0.018, 0.924, -0.314, 15:33:49.444
131, -37962.47, 70638.77, 46017.50, 104966.00, 153279.36, 100056.09, -37842.78, 6852.80, -10892.83, -69212.15, -45373.46, -6024.44, -82106.70, -82726.51, -70076.90, -72262.83, 0.000, 0.000, 0.000, 15:33:49.444
132, -37962.47, 70638.77, 46017.50, 104966.00, 153279.36, 100056.09, -37842.78, 6852.80, -10845.96, -69201.40, -45300.70, -6027.80, -82090.31, -82752.66, -70298.58, -72447.90, 0.000, 0.000, 0.000, 15:33:49.899
133, -37527.13, 70614.91, 46002.41, 104923.73, 153256.16, 100134.67, -37955.59, 6354.24, -10845.96, -69201.40, -45300.70, -6027.80, -82090.31, -82752.66, -70298.58, -72447.90, 0.000, 0.000, 0.000, 15:33:49.899
134, -37527.13, 70614.91, 46002.41, 104923.73, 153256.16, 100134.67, -37955.59, 6354.24, -10797.68, -69239.51, -45320.44, -6067.60, -82084.59, -82741.95, -69978.88, -72179.19, 0.000, 0.000, 0.000, 15:33:49.900
135, -37696.08, 70620.96, 46004.98, 104945.26, 153252.63, 100077.43, -37526.75, 6101.71, -10797.68, -69239.51, -45320.44, -6067.60, -82084.59, -82741.95, -69978.88, -72179.19, 0.000, 0.000, 0.000, 15:33:49.900
136, -37696.08, 70620.96, 46004.98, 104945.26, 153252.63, 100077.43, -37526.75, 6101.71, -10914.40, -69174.83, -45370.11, -6018.97, -82108.37, -82669.35, -70327.55, -72451.68, 0.000, 0.000, 0.000, 15:33:49.900
137, -37905.14, 70652.37, 46035.76, 104963.12, 153266.02, 100102.17, -38276.00, 5167.48, -10914.40, -69174.83, -45370.11, -6018.97, -82108.37, -82669.35, -70327.55, -72451.68, 0.000, 0.000, 0.000, 15:33:49.900
138, -37905.14, 70652.37, 46035.76, 104963.12, 153266.02, 100102.17, -38276.00, 5167.48, -10731.07, -69223.87, -45259.78, -6048.94, -82072.56, -82724.27, -70129.06, -72292.89, 0.000, 0.000, 0.000, 15:33:49.900
139, -37483.38, 70620.73, 46016.36, 104905.79, 153248.88, 100103.16, -37722.21, 5057.35, -10731.07, -69223.87, -45259.78, -6048.94, -82072.56, -82724.27, -70129.06, -72292.89, 0.000, 0.000, 0.000, 15:33:49.901
140, -37483.38, 70620.73, 46016.36, 104905.79, 153248.88, 100103.16, -37722.21, 5057.35, -10837.69, -69185.15, -45359.94, -6017.29, -82109.82, -82747.43, -70090.51, -72267.23, -0.020, 0.926, -0.312, 15:33:49.901
141, -38003.86, 70657.44, 46047.52, 105002.34, 153270.02, 100052.75, -38087.30, 4321.42, -10837.69, -69185.15, -45359.94, -6017.29, -82109.82, -82747.43, -70090.51, -72267.23, 0.000, 0.000, 0.000, 15:33:49.901
142, -38003.86, 70657.44, 46047.52, 105002.34, 153270.02, 100052.75, -38087.30, 4321.42, -10776.11, -69171.78, -45269.41, -6003.86, -82096.41, -82718.46, -70304.73, -72432.59, 0.000, 0.000, 0.000, 15:33:49.901
143, -37537.43, 70649.81, 46047.79, 104962.72, 153260.77, 100119.52, -38182.66, 3862.49, -10776.11, -69171.78, -45269.41, -6003.86, -82096.41, -82718.46, -70304.73, -72432.59, 0.000, 0.000, 0.000, 15:33:49.901
144, -37537.43, 70649.81, 46047.79, 104962.72, 153260.77, 100119.52, -38182.66, 3862.49, -10690.82, -69201.22, -45266.44, -6028.67, -82100.99, -82737.52, -69966.68, -72160.57, 0.000, 0.000, 0.000, 15:33:49.901
145, -37679.25, 70650.82, 46051.07, 104971.09, 153268.86, 100058.48, -37735.67, 3639.11, -10690.82, -69201.22, -45266.44, -6028.67, -82100.99, -82737.52, -69966.68, -72160.57, 0.000, 0.000, 0.000, 15:33:49.902
146, -37679.25, 70650.82, 46051.07, 104971.09, 153268.86, 100058.48, -37735.67, 3639.11, -10849.76, -69168.72, -45344.51, -5993.37, -82159.00, -82736.45, -70298.88, -72434.76, 0.000, 0.000, 0.000, 15:33:49.902
147, -37874.40, 70669.09, 46059.32, 104979.86, 153276.66, 100078.79, -38460.38, 2757.91, -10849.76, -69168.72, -45344.51, -5993.37, -82159.00, -82736.45, -70298.88, -72434.76, 0.000, 0.000, 0.000, 15:33:49.902
148, -37874.40, 70669.09, 46059.32, 104979.86, 153276.66, 100078.79, -38460.38, 2757.91, -10674.92, -69209.72, -45243.73, -6040.09, -82151.55, -82736.30, -70116.75, -72285.98, 0.000, 0.000, 0.000, 15:33:49.902
149, -37426.25, 70640.16, 46036.32, 104931.83, 153262.39, 100076.13, -37890.92, 2708.34, -10674.92, -69209.72, -45243.73, -6040.09, -82151.55, -82736.30, -70116.75, -72285.98, 0.000, 0.000, 0.000, 15:33:49.902
150, -37426.25, 70640.16, 46036.32, 104931.83, 153262.39, 100076.13, -37890.92, 2708.34, -10811.49, -69200.95, -45356.83, -6022.90, -82152.11, -82721.84, -70087.36, -72276.42, -0.014, 0.932, -0.312, 15:33:49.902
151, -37995.95, 70672.81, 46055.45, 104979.44, 153297.20, 100023.43, -38279.29, 1973.66, -10811.49, -69200.95, -45356.83, -6022.90, -82152.11, -82721.84, -70087.36, -72276.42, 0.000, 0.000, 0.000, 15:33:49.903
152, -37995.95, 70672.81, 46055.45, 104979.44, 153297.20, 100023.43, -38279.29, 1973.66, -10764.04, -69175.88, -45279.36, -6006.47, -82145.50, -82738.98, -70315.34, -72456.33, 0.000, 0.000, 0.000, 15:33:49.903
153, -37569.86, 70625.84, 46044.93, 104948.52, 153287.77, 100075.44, -38416.57, 1503.47, -10764.04, -69175.88, -45279.36, -6006.47, -82145.50, -82738.98, -70315.34, -72456.33, 0.000, 0.000, 0.000, 15:33:49.903
154, -37569.86, 70625.84, 46044.93, 104948.52, 153287.77, 100075.44, -38416.57, 1503.47, -10697.57, -69212.69, -45280.03, -6033.16, -82135.93, -82747.27, -69974.80, -72180.09, 0.000, 0.000, 0.000, 15:33:49.903
155, -37717.41, 70595.77, 46035.74, 104954.78, 153287.20, 100025.95, -37966.43, 1297.94, -10697.57, -69212.69, -45280.03, -6033.16, -82135.93, -82747.27, -69974.80, -72180.09, 0.000, 0.000, 0.000, 15:33:49.903
156, -37717.41, 70595.77, 46035.74, 104954.78, 153287.20, 100025.95, -37966.43, 1297.94, -10858.66, -69175.72, -45354.17, -5987.70, -82183.77, -82709.97, -70295.23, -72439.01, 0.000, 0.000, 0.000, 15:33:49.903
157, -37905.38, 70606.63, 46057.06, 104989.27, 153287.77, 100090.51, -38675.42, 444.69, -10858.66, -69175.72, -45354.17, -5987.70, -82183.77, -82709.97, -70295.23, -72439.01, 0.000, 0.000, 0.000, 15:33:49.904
158, -37905.38, 70606.63, 46057.06, 104989.27, 153287.77, 100090.51, -38675.42, 444.69, -10708.74, -69179.79, -45247.82, -6019.75, -82139.57, -82743.72, -70112.41, -72280.64, 0.000, 0.000, 0.000, 15:33:49.904
159, -37457.92, 70585.73, 46029.97, 104951.49, 153260.77, 100090.95, -38115.63, 391.67, -10708.74, -69179.79, -45247.82, -6019.75, -82139.57, -82743.72, -70112.41, -72280.64, 0.000, 0.000, 0.000, 15:33:49.904
160, -37457.92, 70585.73, 46029.97, 104951.49, 153260.77, 100090.95, -38115.63, 391.67, -10839.66, -69213.54, -45373.37, -6031.22, -82189.04, -82649.23, -70080.49, -72263.86, -0.016, 0.940, -0.304, 15:33:49.904
161, -37988.24, 70590.54, 46019.40, 104939.52, 153255.22, 99996.90, -38439.07, -277.90, -10839.66, -69213.54, -45373.37, -6031.22, -82189.04, -82649.23, -70080.49, -72263.86, 0.000, 0.000, 0.000, 15:33:49.904
162, -37988.24, 70590.54, 46019.40, 104939.52, 153255.22, 99996.90, -38439.07, -277.90, -10783.78, -69179.12, -45306.34, -6011.64, -82154.13, -82757.27, -70324.66, -72452.33, 0.000, 0.000, 0.000, 15:33:49.904
163, -37556.05, 70585.87, 46033.15, 104970.25, 153256.31, 100072.60, -38568.47, -722.30, -10783.78, -69179.12, -45306.34, -6011.64, -82154.13, -82757.27, -70324.66, -72452.33, 0.000, 0.000, 0.000, 15:33:49.905
164, -37556.05, 70585.87, 46033.15, 104970.25, 153256.31, 100072.60, -38568.47, -722.30, -10708.32, -69207.19, -45298.58, -6030.05, -82128.46, -82774.90, -70007.98, -72183.52, 0.000, 0.000, 0.000, 15:33:49.905
165, -37710.36, 70589.60, 46023.47, 104954.49, 153251.22, 99989.72, -38115.69, -922.43, -10708.32, -69207.19, -45298.58, -6030.05, -82128.46, -82774.90, -70007.98, -72183.52, 0.000, 0.000, 0.000, 15:33:49.905
166, -37710.36, 70589.60, 46023.47, 104954.49, 153251.22, 99989.72, -38115.69, -922.43, -10845.76, -69159.91, -45365.32, -5983.99, -82157.61, -82708.91, -70338.39, -72442.25, 0.000, 0.000, 0.000, 15:33:49.905
167, -37938.00, 70608.16, 46048.91, 104963.21, 153268.98, 100005.84, -38846.26, -1788.79, -10845.76, -69159.91, -45365.32, -5983.99, -82157.61, -82708.91, -70338.39, -72442.25, 0.000, 0.000, 0.000, 15:33:49.905
168, -37938.00, 70608.16, 46048.91, 104963.21, 153268.98, 100005.84, -38846.26, -1788.79, -10680.49, -69177.57, -45259.38, -6007.55, -82107.88, -82732.01, -70163.30, -72297.50, 0.000, 0.000, 0.000, 15:33:49.905
169, -37486.55, 70582.58, 46032.14, 104939.16, 153238.19, 100040.33, -38307.65, -1853.76, -10680.49, -69177.57, -45259.38, -6007.55, -82107.88, -82732.01, -70163.30, -72297.50, 0.000, 0.000, 0.000, 15:33:49.906
170, -37486.55, 70582.58, 46032.14, 104939.16, 153238.19, 100040.33, -38307.65, -1853.76, -10773.56, -69177.28, -45352.58, -5985.69, -82121.34, -82746.40, -70110.06, -72257.60, -0.028, 0.926, -0.306, 15:33:49.906
171, -38028.30, 70611.62, 46060.64, 104980.93, 153276.20, 99983.15, -38639.91, -2538.73, -10773.56, -69177.28, -45352.58, -5985.69, -82121.34, -82746.40, -70110.06, -72257.60, 0.000, 0.000, 0.000, 15:33:49.906
172, -38028.30, 70611.62, 46060.64, 104980.93, 153276.20, 99983.15, -38639.91, -2538.73, -10739.68, -69155.34, -45273.84, -5966.98, -82098.70, -82714.21, -70339.30, -72447.30, 0.000, 0.000, 0.000, 15:33:49.906
173, -37590.22, 70595.75, 46057.76, 104952.23, 153271.38, 100053.42, -38784.72, -2984.63, -10739.68, -69155.34, -45273.84, -5966.98, -82098.70, -82714.21, -70339.30, -72447.30, 0.000, 0.000, 0.000, 15:33:49.906
174, -37590.22, 70595.75, 46057.76, 104952.23, 153271.38, 100053.42, -38784.72, -2984.63, -10680.71, -69203.05, -45280.70, -6006.76, -82085.98, -82756.10, -69974.59, -72165.64, 0.000, 0.000, 0.000, 15:33:49.906
175, -37679.65, 70597.11, 46051.92, 104956.13, 153276.34, 99999.20, -38281.50, -3127.32, -10680.71, -69203.05, -45280.70, -6006.76, -82085.98, -82756.10, -69974.59, -72165.64, 0.000, 0.000, 0.000, 15:33:49.907
176, -37679.65, 70597.11, 46051.92, 104956.13, 153276.34, 99999.20, -38281.50, -3127.32, -10831.83, -69179.23, -45359.58, -5971.20, -82133.92, -82724.20, -70279.45, -72431.32, 0.000, 0.000, 0.000, 15:33:49.907
177, -37889.36, 70627.13, 46072.24, 104983.86, 153293.44, 100037.55, -38984.57, -3948.32, -10831.83, -69179.23, -45359.58, -5971.20, -82133.92, -82724.20, -70279.45, -72431.32, 0.000, 0.000, 0.000, 15:33:49.907
178, -37889.36, 70627.13, 46072.24, 104983.86, 153293.44, 100037.55, -38984.57, -3948.32, -10654.41, -69177.84, -45235.41, -5982.65, -82084.61, -82746.52, -70093.37, -72291.30, 0.000, 0.000, 0.000, 15:33:49.907
179, -37407.95, 70607.59, 46056.21, 104956.01, 153270.84, 100057.16, -38408.30, -3948.84, -10654.41, -69177.84, -45235.41, -5982.65, -82084.61, -82746.52, -70093.37, -72291.30, -0.030, 0.952, -0.294, 15:33:49.907
180, -37407.95, 70607.59, 46056.21, 104956.01, 153270.84, 100057.16, -38408.30, -3948.84, -10773.16, -69195.21, -45352.94, -5996.15, -82135.35, -82720.96, -70019.03, -72236.09, 0.000, 0.000, 0.000, 15:33:49.907
181, -37945.06, 70645.32, 46067.21, 104990.45, 153284.41, 100016.09, -38699.94, -4571.31, -10773.16, -69195.21, -45352.94, -5996.15, -82135.35, -82720.96, -70019.03, -72236.09, 0.000, 0.000, 0.000, 15:33:49.908
182, -37945.06, 70645.32, 46067.21, 104990.45, 153284.41, 100016.09, -38699.94, -4571.31, -10743.21, -69170.69, -45289.19, -5978.71, -82107.90, -82725.88, -70268.48, -72446.67, 0.000, 0.000, 0.000, 15:33:49.908
183, -37557.90, 70640.59, 46064.11, 104978.56, 153274.72, 100094.91, -38880.57, -5024.34, -10743.21, -69170.69, -45289.19, -5978.71, -82107.90, -82725.88, -70268.48, -72446.67, 0.000, 0.000, 0.000, 15:33:49.908
184, -37557.90, 70640.59, 46064.11, 104978.56, 153274.72, 100094.91, -38880.57, -5024.34, -10667.66, -69186.20, -45279.38, -6009.96, -82083.90, -82732.77, -69920.95, -72183.99, 0.000, 0.000, 0.000, 15:33:49.908
185, -37702.92, 70657.66, 46057.09, 104974.05, 153274.44, 100030.63, -38422.58, -5203.02, -10667.66, -69186.20, -45279.38, -6009.96, -82083.90, -82732.77, -69920.95, -72183.99, 0.000, 0.000, 0.000, 15:33:49.908
186, -37702.92, 70657.66, 46057.09, 104974.05, 153274.44, 100030.63, -38422.58, -5203.02, -10818.51, -69176.95, -45353.43, -5969.64, -82129.85, -82748.70, -70226.16, -72439.14, 0.000, 0.000, 0.000, 15:33:49.908
187, -37951.16, 70663.77, 46078.32, 104991.13, 153281.27, 100039.79, -39160.88, -6048.14, -10818.51, -69176.95, -45353.43, -5969.64, -82129.85, -82748.70, -70226.16, -72439.14, 0.000, 0.000, 0.000, 15:33:49.909
188, -37951.16, 70663.77, 46078.32, 104991.13, 153281.27, 100039.79, -39160.88, -6048.14, -10661.27, -69188.03, -45237.67, -5998.56, -82059.46, -82762.65, -70060.63, -72306.52, 0.000, 0.000, 0.000, 15:33:49.909
189, -37450.52, 70633.86, 46056.35, 104955.01, 153256.42, 100041.13, -38603.79, -6060.65, -10661.27, -69188.03, -45237.67, -5998.56, -82059.46, -82762.65, -70060.63, -72306.52, -0.036, 0.942, -0.292, 15:33:49.909
190, -37450.52, 70633.86, 46056.35, 104955.01, 153256.42, 100041.13, -38603.79, -6060.65, -10787.51, -69233.85, -45352.56, -6030.21, -82117.36, -82706.13, -70001.17, -72266.32, 0.000, 0.000, 0.000, 15:33:49.910
191, -37959.18, 70655.49, 46059.28, 104949.05, 153262.27, 99969.38, -38874.67, -6666.21, -10787.51, -69233.85, -45352.56, -6030.21, -82117.36, -82706.13, -70001.17, -72266.32, 0.000, 0.000, 0.000, 15:33:49.910
192, -37959.18, 70655.49, 46059.28, 104949.05, 153262.27, 99969.38, -38874.67, -6666.21, -10749.40, -69137.38, -45274.84, -5962.98, -82092.30, -82708.98, -70276.16, -72484.20, 0.000, 0.000, 0.000, 15:33:49.910
193, -37573.41, 70663.88, 46070.92, 104994.08, 153262.78, 100064.11, -39081.84, -7129.74, -10749.40, -69137.38, -45274.84, -5962.98, -82092.30, -82708.98, -70276.16, -72484.20, 0.000, 0.000, 0.000, 15:33:49.910
194, -37573.41, 70663.88, 46070.92, 104994.08, 153262.78, 100064.11, -39081.84, -7129.74, -10665.25, -69201.27, -45270.17, -6007.43, -82089.55, -82765.35, -69932.91, -72197.65, 0.000, 0.000, 0.000, 15:33:49.911
195, -37656.23, 70659.25, 46060.53, 104982.45, 153265.86, 100025.33, -38575.55, -7245.32, -10665.25, -69201.27, -45270.17, -6007.43, -82089.55, -82765.35, -69932.91, -72197.65, 0.000, 0.000, 0.000, 15:33:49.911
196, -37656.23, 70659.25, 46060.53, 104982.45, 153265.86, 100025.33, -38575.55, -7245.32, -10823.65, -69163.80, -45349.09, -5969.32, -82129.41, -82712.88, -70239.20, -72446.98, 0.000, 0.000, 0.000, 15:33:49.911
197, -37909.32, 70670.65, 46069.69, 104979.59, 153279.00, 100036.50, -39317.05, -8074.12, -10823.65, -69163.80, -45349.09, -5969.32, -82129.41, -82712.88, -70239.20, -72446.98, 0.000, 0.000, 0.000, 15:33:49.911
198, -37909.32, 70670.65, 46069.69, 104979.59, 153279.00, 100036.50, -39317.05, -8074.12, -10656.55, -69195.14, -45248.09, -6018.50, -82099.32, -82687.10, -70086.91, -72326.80, 0.000, 0.000, 0.000, 15:33:49.912
199, -37408.06, 70643.65, 46052.80, 104941.03, 153269.92, 100038.00, -38765.41, -8071.33, -10656.55, -69195.14, -45248.09, -6018.50, -82099.32, -82687.10, -70086.91, -72326.80, -0.040, 0.922, -0.284, 15:33:49.912
200, -37408.06, 70643.65, 46052.80, 104941.03, 153269.92, 100038.00, -38765.41, -8071.33, -10757.16, -69191.63, -45347.87, -5997.46, -82132.80, -82761.73, -70003.13, -72258.43, 0.000, 0.000, 0.000, 15:33:49.912
201, -37945.17, 70680.17, 46074.12, 104996.55, 153303.22, 99994.77, -39045.37, -8680.75, -10757.16, -69191.63, -45347.87, -5997.46, -82132.80, -82761.73, -70003.13, -72258.43, 0.000, 0.000, 0.000, 15:33:49.912
202, -37945.17, 70680.17, 46074.12, 104996.55, 153303.22, 99994.77, -39045.37, -8680.75, -10734.92, -69174.09, -45282.15, -5985.10, -82121.55, -82702.66, -70272.20, -72473.05, 0.000, 0.000, 0.000, 15:33:49.912
203, -37567.76, 70667.95, 46073.65, 104952.48, 153296.75, 100041.04, -39266.76, -9139.23, -10734.92, -69174.09, -45282.15, -5985.10, -82121.55, -82702.66, -70272.20, -72473.05, 0.000, 0.000, 0.000, 15:33:49.912
204, -37567.76, 70667.95, 46073.65, 104952.48, 153296.75, 100041.04, -39266.76, -9139.23, -10638.87, -69203.57, -45263.33, -6015.86, -82111.09, -82764.93, -69922.00, -72192.40, 0.000, 0.000, 0.000, 15:33:49.913
205, -37640.34, 70664.01, 46065.49, 104964.75, 153290.25, 99991.73, -38741.29, -9231.20, -10638.87, -69203.57, -45263.33, -6015.86, -82111.09, -82764.93, -69922.00, -72192.40, 0.000, 0.000, 0.000, 15:33:49.913
206, -37640.34, 70664.01, 46065.49, 104964.75, 153290.25, 99991.73, -38741.29, -9231.20, -10813.26, -69200.35, -45353.79, -5993.11, -82172.61, -82763.77, -70227.79, -72440.03, 0.000, 0.000, 0.000, 15:33:49.913
207, -37894.45, 70678.13, 46076.91, 104971.61, 153294.92, 100002.51, -39456.66, -10024.35, -10813.26, -69200.35, -45353.79, -5993.11, -82172.61, -82763.77, -70227.79, -72440.03, 0.000, 0.000, 0.000, 15:33:49.913
208, -37894.45, 70678.13, 46076.91, 104971.61, 153294.92, 100002.51, -39456.66, -10024.35, -10630.31, -69193.11, -45235.77, -6006.23, -82127.41, -82722.10, -70071.66, -72304.47, 0.000, 0.000, 0.000, 15:33:49.913
209, -37404.01, 70665.77, 46066.56, 104949.30, 153280.19, 100019.90, -38918.86, -10018.97, -10630.31, -69193.11, -45235.77, -6006.23, -82127.41, -82722.10, -70071.66, -72304.47, -0.046, 0.912, -0.288, 15:33:49.913
210, -37404.01, 70665.77, 46066.56, 104949.30, 153280.19, 100019.90, -38918.86, -10018.97, -10752.44, -69192.02, -45334.43, -5983.56, -82168.98, -82756.68, -70000.43, -72247.01, 0.000, 0.000, 0.000, 15:33:49.914
211, -37952.12, 70699.59, 46089.96, 105007.40, 153299.81, 99973.27, -39189.20, -10617.64, -10752.44, -69192.02, -45334.43, -5983.56, -82168.98, -82756.68, -70000.43, -72247.01, 0.000, 0.000, 0.000, 15:33:49.914
212, -37952.12, 70699.59, 46089.96, 105007.40, 153299.81, 99973.27, -39189.20, -10617.64, -10699.76, -69162.71, -45249.52, -5946.77, -82114.49, -82724.98, -70267.63, -72450.09, 0.000, 0.000, 0.000, 15:33:49.914
213, -37544.43, 70703.23, 46101.39, 104985.63, 153290.41, 100040.10, -39377.85, -11033.09, -10699.76, -69162.71, -45249.52, -5946.77, -82114.49, -82724.98, -70267.63, -72450.09, 0.000, 0.000, 0.000, 15:33:49.914
214, -37544.43, 70703.23, 46101.39, 104985.63, 153290.41, 100040.10, -39377.85, -11033.09, -10613.95, -69195.73, -45233.96, -5981.19, -82107.12, -82711.80, -69915.30, -72158.02, 0.000, 0.000, 0.000, 15:33:49.914
215, -37595.12, 70693.40, 46089.81, 104993.12, 153285.89, 99988.02, -38821.87, -11090.42, -10613.95, -69195.73, -45233.96, -5981.19, -82107.12, -82711.80, -69915.30, -72158.02, 0.000, 0.000, 0.000, 15:33:49.914
216, -37595.12, 70693.40, 46089.81, 104993.12, 153285.89, 99988.02, -38821.87, -11090.42, -10781.92, -69162.87, -45318.03, -5934.50, -82146.63, -82747.27, -70232.94, -72412.99, 0.000, 0.000, 0.000, 15:33:49.915
217, -37874.27, 70708.29, 46091.24, 104996.80, 153290.25, 100016.72, -39558.21, -11899.20, -10781.92, -69162.87, -45318.03, -5934.50, -82146.63, -82747.27, -70232.94, -72412.99, 0.000, 0.000, 0.000, 15:33:49.915
218, -37874.27, 70708.29, 46091.24, 104996.80, 153290.25, 100016.72, -39558.21, -11899.20, -10640.44, -69178.63, -45217.62, -5972.23, -82116.22, -82745.10, -70108.01, -72302.21, 0.000, 0.000, 0.000, 15:33:49.915
219, -37373.12, 70686.59, 46077.05, 104981.54, 153276.39, 100037.24, -39026.10, -11884.11, -10640.44, -69178.63, -45217.62, -5972.23, -82116.22, -82745.10, -70108.01, -72302.21, -0.032, 0.916, -0.288, 15:33:49.915
220, -37373.12, 70686.59, 46077.05, 104981.54, 153276.39, 100037.24, -39026.10, -11884.11, -10729.40, -69197.73, -45314.25, -5957.52, -82149.05, -82760.98, -70019.72, -72229.30, 0.000, 0.000, 0.000, 15:33:49.915
221, -37913.63, 70694.70, 46071.91, 104995.73, 153283.45, 99956.48, -39271.48, -12454.57, -10729.40, -69197.73, -45314.25, -5957.52, -82149.05, -82760.98, -70019.72, -72229.30, 0.000, 0.000, 0.000, 15:33:49.915
222, -37913.63, 70694.70, 46071.91, 104995.73, 153283.45, 99956.48, -39271.48, -12454.57, -10700.90, -69171.70, -45259.29, -5943.04, -82134.63, -82720.00, -70319.28, -72469.27, 0.000, 0.000, 0.000, 15:33:49.916
223, -37542.95, 70691.59, 46081.92, 104978.70, 153283.05, 100041.82, -39509.50, -12897.36, -10700.90, -69171.70, -45259.29, -5943.04, -82134.63, -82720.00, -70319.28, -72469.27, 0.000, 0.000, 0.000, 15:33:49.916
224, -37542.95, 70691.59, 46081.92, 104978.70, 153283.05, 100041.82, -39509.50, -12897.36, -10603.04, -69200.57, -45236.62, -5972.34, -82110.94, -82777.13, -69959.52, -72162.52, 0.000, 0.000, 0.000, 15:33:49.916
225, -37564.47, 70686.74, 46076.04, 104983.44, 153284.81, 99987.09, -38931.44, -12918.62, -10603.04, -69200.57, -45236.62, -5972.34, -82110.94, -82777.13, -69959.52, -72162.52, 0.000, 0.000, 0.000, 15:33:49.916
226, -37564.47, 70686.74, 46076.04, 104983.44, 153284.81, 99987.09, -38931.44, -12918.62, -10763.46, -69162.69, -45324.62, -5923.10, -82150.33, -82738.22, -70259.13, -72399.22, 0.000, 0.000, 0.000, 15:33:49.916
227, -37852.70, 70698.07, 46088.82, 104996.51, 153299.84, 99998.46, -39670.77, -13721.24, -10763.46, -69162.69, -45324.62, -5923.10, -82150.33, -82738.22, -70259.13, -72399.22, 0.000, 0.000, 0.000, 15:33:49.916
228, -37852.70, 70698.07, 46088.82, 104996.51, 153299.84, 99998.46, -39670.77, -13721.24, -10593.21, -69178.29, -45217.29, -5958.30, -82117.87, -82751.43, -70120.15, -72284.27, 0.000, 0.000, 0.000, 15:33:49.916
229, -37336.11, 70682.12, 46078.88, 104961.38, 153286.73, 100016.16, -39131.73, -13680.92, -10593.21, -69178.29, -45217.29, -5958.30, -82117.87, -82751.43, -70120.15, -72284.27, -0.032, 0.912, -0.290, 15:33:49.917
230, -37336.11, 70682.12, 46078.88, 104961.38, 153286.73, 100016.16, -39131.73, -13680.92, -10682.12, -69195.01, -45313.71, -5955.85, -82133.43, -82764.28, -70020.03, -72205.81, 0.000, 0.000, 0.000, 15:33:49.917
231, -37866.09, 70692.33, 46077.23, 104986.07, 153298.39, 99935.45, -39352.64, -14211.91, -10682.12, -69195.01, -45313.71, -5955.85, -82133.43, -82764.28, -70020.03, -72205.81, 0.000, 0.000, 0.000, 15:33:49.917
232, -37866.09, 70692.33, 46077.23, 104986.07, 153298.39, 99935.45, -39352.64, -14211.91, -10671.44, -69191.30, -45276.96, -5954.10, -82123.28, -82688.20, -70335.23, -72446.78, 0.000, 0.000, 0.000, 15:33:49.917
233, -37506.89, 70683.39, 46065.18, 104950.87, 153283.81, 99992.27, -39614.55, -14651.77, -10671.44, -69191.30, -45276.96, -5954.10, -82123.28, -82688.20, -70335.23, -72446.78, 0.000, 0.000, 0.000, 15:33:49.917
234, -37506.89, 70683.39, 46065.18, 104950.87, 153283.81, 99992.27, -39614.55, -14651.77, -10580.98, -69195.32, -45259.96, -5979.14, -82111.90, -82806.51, -69989.34, -72139.72, 0.000, 0.000, 0.000, 15:33:49.918
235, -37507.79, 70672.91, 46050.85, 104949.80, 153271.58, 99957.98, -39012.93, -14633.11, -10580.98, -69195.32, -45259.96, -5979.14, -82111.90, -82806.51, -69989.34, -72139.72, 0.000, 0.000, 0.000, 15:33:49.918
236, -37507.79, 70672.91, 46050.85, 104949.80, 153271.58, 99957.98, -39012.93, -14633.11, -10751.84, -69174.80, -45353.43, -5937.18, -82149.01, -82691.39, -70298.00, -72375.77, 0.000, 0.000, 0.000, 15:33:49.918
237, -37797.09, 70703.80, 46074.79, 104968.08, 153286.77, 99944.10, -39742.68, -15407.01, -10751.84, -69174.80, -45353.43, -5937.18, -82149.01, -82691.39, -70298.00, -72375.77, 0.000, 0.000, 0.000, 15:33:49.918
238, -37797.09, 70703.80, 46074.79, 104968.08, 153286.77, 99944.10, -39742.68, -15407.01, -10575.37, -69171.45, -45219.07, -5938.66, -82089.33, -82778.38, -70175.38, -72268.84, -0.024, 0.892, -0.314, 15:33:49.918
239, -37271.27, 70665.73, 46059.88, 104941.57, 153260.36, 99981.12, -39214.14, -15355.92, -10575.37, -69171.45, -45219.07, -5938.66, -82089.33, -82778.38, -70175.38, -72268.84, 0.000, 0.000, 0.000, 15:33:49.919
240, -37271.27, 70665.73, 46059.88, 104941.57, 153260.36, 99981.12, -39214.14, -15355.92, -10695.15, -69190.65, -45327.48, -5948.98, -82129.90, -82745.82, -70058.39, -72178.52, 0.000, 0.000, 0.000, 15:33:49.919
241, -37769.24, 70679.09, 46070.05, 104967.81, 153268.30, 99897.45, -39387.04, -15837.42, -10695.15, -69190.65, -45327.48, -5948.98, -82129.90, -82745.82, -70058.39, -72178.52, 0.000, 0.000, 0.000, 15:33:49.919
242, -37769.24, 70679.09, 46070.05, 104967.81, 153268.30, 99897.45, -39387.04, -15837.42, -10687.80, -69158.10, -45257.81, -5896.21, -82109.60, -82756.17, -70360.59, -72419.38, 0.000, 0.000, 0.000, 15:33:49.919
243, -37400.37, 70673.64, 46080.24, 104965.71, 153260.66, 99996.59, -39640.64, -16257.61, -10687.80, -69158.10, -45257.81, -5896.21, -82109.60, -82756.17, -70360.59, -72419.38, 0.000, 0.000, 0.000, 15:33:49.919
244, -37400.37, 70673.64, 46080.24, 104965.71, 153260.66, 99996.59, -39640.64, -16257.61, -10622.53, -69181.59, -45232.82, -5924.20, -82101.40, -82761.53, -70025.95, -72135.40, 0.000, 0.000, 0.000, 15:33:49.919
245, -37451.60, 70671.85, 46077.96, 104974.70, 153262.27, 99947.05, -39091.93, -16285.99, -10622.53, -69181.59, -45232.82, -5924.20, -82101.40, -82761.53, -70025.95, -72135.40, 0.000, 0.000, 0.000, 15:33:49.920
246, -37451.60, 70671.85, 46077.96, 104974.70, 153262.27, 99947.05, -39091.93, -16285.99, -10820.48, -69166.47, -45322.72, -5893.84, -82135.91, -82732.21, -70305.60, -72377.36, 0.000, 0.000, 0.000, 15:33:49.920
247, -37757.06, 70681.35, 46091.69, 104984.38, 153277.19, 99940.13, -39819.00, -17056.46, -10820.48, -69166.47, -45322.72, -5893.84, -82135.91, -82732.21, -70305.60, -72377.36, 0.000, 0.000, 0.000, 15:33:49.920
248, -37757.06, 70681.35, 46091.69, 104984.38, 153277.19, 99940.13, -39819.00, -17056.46, -10664.75, -69161.32, -45199.81, -5912.86, -82083.67, -82691.02, -70186.84, -72280.15, -0.014, 0.910, -0.326, 15:33:49.920
249, -37249.00, 70674.94, 46081.52, 104971.55, 153258.28, 99985.85, -39337.06, -17037.17, -10664.75, -69161.32, -45199.81, -5912.86, -82083.67, -82691.02, -70186.84, -72280.15, 0.000, 0.000, 0.000, 15:33:49.920
250, -37249.00, 70674.94, 46081.52, 104971.55, 153258.28, 99985.85, -39337.06, -17037.17, -10764.11, -69186.85, -45293.93, -5921.20, -82119.01, -82779.46, -70051.62, -72155.98, 0.000, 0.000, 0.000, 15:33:49.921
251, -37721.12, 70730.39, 46087.98, 105008.07, 153274.02, 99908.09, -39487.60, -17490.31, -10764.11, -69186.85, -45293.93, -5921.20, -82119.01, -82779.46, -70051.62, -72155.98, 0.000, 0.000, 0.000, 15:33:49.921
252, -37721.12, 70730.39, 46087.98, 105008.07, 153274.02, 99908.09, -39487.60, -17490.31, -10751.81, -69157.34, -45246.70, -5902.29, -82112.75, -82716.98, -70344.40, -72395.45, 0.000, 0.000, 0.000, 15:33:49.921
253, -37356.18, 70743.25, 46091.15, 104988.53, 153275.52, 99973.43, -39764.64, -17919.28, -10751.81, -69157.34, -45246.70, -5902.29, -82112.75, -82716.98, -70344.40, -72395.45, 0.000, 0.000, 0.000, 15:33:50.381
254, -37356.18, 70743.25, 46091.15, 104988.53, 153275.52, 99973.43, -39764.64, -17919.28, -10635.76, -69203.46, -45225.38, -5946.30, -82100.39, -82743.07, -70001.99, -72114.08, 0.000, 0.000, 0.000, 15:33:50.381
255, -37349.70, 70740.36, 46088.42, 104981.13, 153277.33, 99907.73, -39176.32, -17891.65, -10635.76, -69203.46, -45225.38, -5946.30, -82100.39, -82743.07, -70001.99, -72114.08, 0.000, 0.000, 0.000, 15:33:50.381
0, -37349.70, 70740.36, 46088.42, 104981.13, 153277.33, 99907.73, -39176.32, -17891.65, -10794.39, -69165.15, -45313.94, -5909.96, -82147.02, -82726.89, -70277.80, -72342.42, 0.000, 0.000, 0.000, 15:33:50.381
1, -37672.66, 70777.96, 46115.36, 105015.60, 153294.66, 99932.01, -39905.13, -18643.10, -10794.39, -69165.15, -45313.94, -5909.96, -82147.02, -82726.89, -70277.80, -72342.42, 0.000, 0.000, 0.000, 15:33:50.381
2, -37672.66, 70777.96, 46115.36, 105015.60, 153294.66, 99932.01, -39905.13, -18643.10, -10579.86, -69190.11, -45191.80, -5939.95, -82101.80, -82755.59, -70173.81, -72248.16, -0.034, 0.942, -0.332, 15:33:50.382
3, -37132.15, 70759.49, 46087.02, 104963.54, 153264.44, 99943.56, -39404.70, -18578.23, -10579.86, -69190.11, -45191.80, -5939.95, -82101.80, -82755.59, -70173.81, -72248.16, 0.000, 0.000, 0.000, 15:33:50.382
4, -37132.15, 70759.49, 46087.02, 104963.54, 153264.44, 99943.56, -39404.70, -18578.23, -10669.96, -69207.70, -45291.59, -5941.00, -82144.96, -82767.55, -70046.81, -72146.71, 0.000, 0.000, 0.000, 15:33:50.382
5, -37627.84, 70796.38, 46109.25, 105013.84, 153286.78, 99868.09, -39553.49, -19028.55, -10669.96, -69207.70, -45291.59, -5941.00, -82144.96, -82767.55, -70046.81, -72146.71, 0.000, 0.000, 0.000, 15:33:50.382
6, -37627.84, 70796.38, 46109.25, 105013.84, 153286.78, 99868.09, -39553.49, -19028.55, -10649.94, -69159.34, -45236.40, -5905.98, -82136.22, -82716.98, -70344.42, -72399.94, 0.000, 0.000, 0.000, 15:33:50.382
7, -37290.96, 70781.63, 46091.51, 104960.97, 153264.30, 99914.15, -39841.31, -19455.54, -10649.94, -69159.34, -45236.40, -5905.98, -82136.22, -82716.98, -70344.42, -72399.94, 0.000, 0.000, 0.000, 15:33:50.382
8, -37290.96, 70781.63, 46091.51, 104960.97, 153264.30, 99914.15, -39841.31, -19455.54, -10524.05, -69205.98, -45219.95, -5962.48, -82113.22, -82757.29, -70011.05, -72128.90, 0.000, 0.000, 0.000, 15:33:50.383
9, -37303.23, 70788.84, 46094.19, 104985.07, 153269.73, 99891.48, -39243.79, -19428.94, -10524.05, -69205.98, -45219.95, -5962.48, -82113.22, -82757.29, -70011.05, -72128.90, 0.000, 0.000, 0.000, 15:33:50.383
10, -37303.23, 70788.84, 46094.19, 104985.07, 153269.73, 99891.48, -39243.79, -19428.94, -10669.58, -69164.68, -45301.82, -5895.09, -82137.05, -82738.42, -70286.66, -72344.59, 0.000, 0.000, 0.000, 15:33:50.383
11, -37662.49, 70813.70, 46108.34, 105003.64, 153284.33, 99880.64, -39962.84, -20192.77, -10669.58, -69164.68, -45301.82, -5895.09, -82137.05, -82738.42, -70286.66, -72344.59, 0.000, 0.000, 0.000, 15:33:50.383
12, -37662.49, 70813.70, 46108.34, 105003.64, 153284.33, 99880.64, -39962.84, -20192.77, -10460.37, -69159.76, -45193.39, -5918.27, -82092.57, -82697.61, -70200.45, -72266.74, -0.040, 0.918, -0.344, 15:33:50.383
13, -37174.55, 70788.15, 46088.91, 104971.30, 153269.28, 99911.47, -39492.36, -20180.23, -10460.37, -69159.76, -45193.39, -5918.27, -82092.57, -82697.61, -70200.45, -72266.74, 0.000, 0.000, 0.000, 15:33:50.383
14, -37174.55, 70788.15, 46088.91, 104971.30, 153269.28, 99911.47, -39492.36, -20180.23, -10532.97, -69186.67, -45293.24, -5929.92, -82116.91, -82734.22, -70062.05, -72150.09, 0.000, 0.000, 0.000, 15:33:50.384
15, -37720.76, 70793.47, 46096.40, 104994.08, 153286.33, 99845.28, -39640.01, -20657.95, -10532.97, -69186.67, -45293.24, -5929.92, -82116.91, -82734.22, -70062.05, -72150.09, 0.000, 0.000, 0.000, 15:33:50.384
16, -37720.76, 70793.47, 46096.40, 104994.08, 153286.33, 99845.28, -39640.01, -20657.95, -10530.69, -69160.41, -45249.99, -5906.22, -82102.83, -82688.29, -70377.05, -72409.46, 0.000, 0.000, 0.000, 15:33:50.384
17, -37409.31, 70772.55, 46092.52, 104983.86, 153268.86, 99916.27, -39950.72, -21113.75, -10530.69, -69160.41, -45249.99, -5906.22, -82102.83, -82688.29, -70377.05, -72409.46, 0.000, 0.000, 0.000, 15:33:50.384
18, -37409.31, 70772.55, 46092.52, 104983.86, 153268.86, 99916.27, -39950.72, -21113.75, -10389.20, -69165.98, -45217.98, -5945.94, -82087.54, -82729.19, -70013.13, -72111.87, 0.000, 0.000, 0.000, 15:33:50.384
19, -37412.57, 70752.52, 46084.47, 104975.39, 153261.86, 99867.75, -39348.75, -21080.04, -10389.20, -69165.98, -45217.98, -5945.94, -82087.54, -82729.19, -70013.13, -72111.87, 0.000, 0.000, 0.000, 15:33:50.384
20, -37412.57, 70752.52, 46084.47, 104975.39, 153261.86, 99867.75, -39348.75, -21080.04, -10585.67, -69153.57, -45318.68, -5936.98, -82141.30, -82699.15, -70265.97, -72339.07, 0.000, 0.000, 0.000, 15:33:50.385
21, -37789.78, 70758.13, 46101.68, 104978.88, 153269.97, 99856.62, -40077.26, -21848.54, -10585.67, -69153.57, -45318.68, -5936.98, -82141.30, -82699.15, -70265.97, -72339.07, 0.000, 0.000, 0.000, 15:33:50.385
22, -37789.78, 70758.13, 46101.68, 104978.88, 153269.97, 99856.62, -40077.26, -21848.54, -10386.50, -69172.88, -45202.11, -5983.79, -82101.46, -82729.91, -70157.88, -72269.98, -0.058, 0.910, -0.342, 15:33:50.385
23, -37283.63, 70740.54, 46100.96, 104964.84, 153267.38, 99910.26, -39601.90, -21816.84, -10386.50, -69172.88, -45202.11, -5983.79, -82101.46, -82729.91, -70157.88, -72269.98, 0.000, 0.000, 0.000, 15:33:50.385
24, -37283.63, 70740.54, 46100.96, 104964.84, 153267.38, 99910.26, -39601.90, -21816.84, -10457.13, -69189.20, -45286.55, -5999.03, -82118.85, -82725.88, -69981.39, -72146.78, 0.000, 0.000, 0.000, 15:33:50.385
25, -37835.76, 70765.51, 46114.93, 104990.39, 153293.72, 99836.19, -39740.42, -22278.94, -10457.13, -69189.20, -45286.55, -5999.03, -82118.85, -82725.88, -69981.39, -72146.78, 0.000, 0.000, 0.000, 15:33:50.385
26, -37835.76, 70765.51, 46114.93, 104990.39, 153293.72, 99836.19, -39740.42, -22278.94, -10481.29, -69163.00, -45259.64, -5998.31, -82109.24, -82679.93, -70302.70, -72419.59, 0.000, 0.000, 0.000, 15:33:50.385
27, -37546.14, 70752.74, 46094.35, 104961.33, 153274.67, 99877.38, -40068.32, -22738.03, -10481.29, -69163.00, -45259.64, -5998.31, -82109.24, -82679.93, -70302.70, -72419.59, 0.000, 0.000, 0.000, 15:33:50.386
28, -37546.14, 70752.74, 46094.35, 104961.33, 153274.67, 99877.38, -40068.32, -22738.03, -10342.22, -69183.30, -45233.43, -6026.50, -82087.83, -82744.12, -69961.20, -72138.45, 0.000, 0.000, 0.000, 15:33:50.386
29, -37523.44, 70740.19, 46081.67, 104968.88, 153271.81, 99852.19, -39453.78, -22691.38, -10342.22, -69183.30, -45233.43, -6026.50, -82087.83, -82744.12, -69961.20, -72138.45, 0.000, 0.000, 0.000, 15:33:50.386
30, -37523.44, 70740.19, 46081.67, 104968.88, 153271.81, 99852.19, -39453.78, -22691.38, -10543.83, -69164.34, -45339.33, -6000.59, -82141.65, -82679.68, -70225.98, -72350.85, 0.000, 0.000, 0.000, 15:33:50.386
31, -37921.84, 70750.58, 46091.84, 104975.19, 153283.08, 99862.78, -40194.47, -23461.93, -10543.83, -69164.34, -45339.33, -6000.59, -82141.65, -82679.68, -70225.98, -72350.85, -0.030, 0.884, -0.326, 15:33:50.386
32, -37921.84, 70750.58, 46091.84, 104975.19, 153283.08, 99862.78, -40194.47, -23461.93, -10341.35, -69174.04, -45225.18, -6023.30, -82099.54, -82724.97, -70150.99, -72293.56, 0.000, 0.000, 0.000, 15:33:50.387
33, -37410.38, 70720.83, 46074.57, 104964.73, 153265.06, 99908.31, -39742.90, -23437.12, -10341.35, -69174.04, -45225.18, -6023.30, -82099.54, -82724.97, -70150.99, -72293.56, 0.000, 0.000, 0.000, 15:33:50.387
34, -37410.38, 70720.83, 46074.57, 104964.73, 153265.06, 99908.31, -39742.90, -23437.12, -10426.84, -69183.43, -45324.93, -6023.17, -82131.59, -82673.58, -69982.70, -72160.26, 0.000, 0.000, 0.000, 15:33:50.387
35, -37924.18, 70738.09, 46096.76, 104985.45, 153292.02, 99840.12, -39840.20, -23851.05, -10426.84, -69183.43, -45324.93, -6023.17, -82131.59, -82673.58, -69982.70, -72160.26, 0.000, 0.000, 0.000, 15:33:50.387
36, -37924.18, 70738.09, 46096.76, 104985.45, 153292.02, 99840.12, -39840.20, -23851.05, -10450.16, -69166.78, -45297.38, -6017.49, -82118.20, -82706.23, -70309.94, -72432.05, 0.000, 0.000, 0.000, 15:33:50.387
37, -37641.32, 70710.39, 46069.34, 104950.24, 153268.50, 99905.12, -40168.52, -24291.79, -10450.16, -69166.78, -45297.38, -6017.49, -82118.20, -82706.23, -70309.94, -72432.05, 0.000, 0.000, 0.000, 15:33:50.387
38, -37641.32, 70710.39, 46069.34, 104950.24, 153268.50, 99905.12, -40168.52, -24291.79, -10281.31, -69211.50, -45275.16, -6046.64, -82104.57, -82752.13, -69954.61, -72131.94, 0.000, 0.000, 0.000, 15:33:50.388
39, -37570.62, 70719.11, 46065.63, 104966.60, 153275.98, 99859.52, -39500.80, -24179.18, -10281.31, -69211.50, -45275.16, -6046.64, -82104.57, -82752.13, -69954.61, -72131.94, 0.000, 0.000, 0.000, 15:33:50.388
40, -37570.62, 70719.11, 46065.63, 104966.60, 153275.98, 99859.52, -39500.80, -24179.18, -10480.40, -69172.09, -45374.09, -6000.62, -82149.09, -82722.53, -70239.37, -72364.80, 0.000, 0.000, 0.000, 15:33:50.388
41, -38017.10, 70726.91, 46075.48, 104972.91, 153290.84, 99846.87, -40263.96, -24955.92, -10480.40, -69172.09, -45374.09, -6000.62, -82149.09, -82722.53, -70239.37, -72364.80, -0.018, 0.874, -0.318, 15:33:50.388
42, -38017.10, 70726.91, 46075.48, 104972.91, 153290.84, 99846.87, -40263.96, -24955.92, -10272.55, -69192.73, -45250.52, -6034.61, -82106.36, -82698.79, -70169.43, -72310.26, 0.000, 0.000, 0.000, 15:33:50.388
43, -37524.60, 70697.23, 46068.42, 104949.95, 153274.69, 99891.06, -39837.73, -24936.14, -10272.55, -69192.73, -45250.52, -6034.61, -82106.36, -82698.79, -70169.43, -72310.26, 0.000, 0.000, 0.000, 15:33:50.388
44, -37524.60, 70697.23, 46068.42, 104949.95, 153274.69, 99891.06, -39837.73, -24936.14, -10352.34, -69201.67, -45339.91, -6025.78, -82134.03, -82741.77, -70001.80, -72185.00, 0.000, 0.000, 0.000, 15:33:50.389
45, -38049.48, 70700.04, 46075.10, 104967.72, 153282.20, 99790.12, -39940.66, -25343.81, -10352.34, -69201.67, -45339.91, -6025.78, -82134.03, -82741.77, -70001.80, -72185.00, 0.000, 0.000, 0.000, 15:33:50.389
46, -38049.48, 70700.04, 46075.10, 104967.72, 153282.20, 99790.12, -39940.66, -25343.81, -10407.82, -69186.02, -45320.89, -6014.18, -82141.70, -82710.88, -70329.98, -72460.38, 0.000, 0.000, 0.000, 15:33:50.389
47, -37755.20, 70678.88, 46075.77, 104941.99, 153264.88, 99847.72, -40276.64, -25767.76, -10407.82, -69186.02, -45320.89, -6014.18, -82141.70, -82710.88, -70329.98, -72460.38, 0.000, 0.000, 0.000, 15:33:50.389
48, -37755.20, 70678.88, 46075.77, 104941.99, 153264.88, 99847.72, -40276.64, -25767.76, -10214.66, -69208.09, -45248.09, -6033.63, -82126.07, -82767.08, -69976.72, -72160.19, 0.000, 0.000, 0.000, 15:33:50.389
49, -37654.95, 70677.27, 46075.93, 104955.48, 153265.22, 99803.28, -39602.82, -25638.54, -10214.66, -69208.09, -45248.09, -6033.63, -82126.07, -82767.08, -69976.72, -72160.19, 0.000, 0.000, 0.000, 15:33:50.389
50, -37654.95, 70677.27, 46075.93, 104955.48, 153265.22, 99803.28, -39602.82, -25638.54, -10432.07, -69186.36, -45350.55, -5996.06, -82155.40, -82738.58, -70239.41, -72373.74, 0.000, 0.000, 0.000, 15:33:50.390
51, -38083.48, 70711.89, 46088.58, 104977.58, 153272.45, 99783.68, -40340.27, -26385.09, -10432.07, -69186.36, -45350.55, -5996.06, -82155.40, -82738.58, -70239.41, -72373.74, -0.022, 0.904, -0.326, 15:33:50.390
52, -38083.48, 70711.89, 46088.58, 104977.58, 153272.45, 99783.68, -40340.27, -26385.09, -10218.59, -69191.77, -45223.25, -6020.71, -82123.63, -82743.27, -70165.38, -72319.27, 0.000, 0.000, 0.000, 15:33:50.390
53, -37526.68, 70706.70, 46080.64, 104946.60, 153256.00, 99817.50, -39877.43, -26313.54, -10218.59, -69191.77, -45223.25, -6020.71, -82123.63, -82743.27, -70165.38, -72319.27, 0.000, 0.000, 0.000, 15:33:50.390
54, -37526.68, 70706.70, 46080.64, 104946.60, 153256.00, 99817.50, -39877.43, -26313.54, -10279.10, -69198.96, -45298.89, -6010.41, -82168.30, -82758.20, -69999.56, -72194.05, 0.000, 0.000, 0.000, 15:33:50.390
55, -38018.73, 70732.61, 46093.45, 104997.95, 153271.16, 99764.62, -39937.58, -26683.31, -10279.10, -69198.96, -45298.89, -6010.41, -82168.30, -82758.20, -69999.56, -72194.05, 0.000, 0.000, 0.000, 15:33:50.390
56, -38018.73, 70732.61, 46093.45, 104997.95, 153271.16, 99764.62, -39937.58, -26683.31, -10337.01, -69179.27, -45273.43, -5983.81, -82126.38, -82736.81, -70315.45, -72446.72, 0.000, 0.000, 0.000, 15:33:50.391
57, -37718.01, 70713.54, 46092.29, 104975.39, 153270.75, 99840.05, -40263.18, -27096.79, -10337.01, -69179.27, -45273.43, -5983.81, -82126.38, -82736.81, -70315.45, -72446.72, 0.000, 0.000, 0.000, 15:33:50.391
58, -37718.01, 70713.54, 46092.29, 104975.39, 153270.75, 99840.05, -40263.18, -27096.79, -10204.11, -69209.31, -45239.48, -6019.57, -82133.61, -82725.81, -69972.47, -72167.57, 0.000, 0.000, 0.000, 15:33:50.391
59, -37643.29, 70707.44, 46082.46, 104982.92, 153273.78, 99812.20, -39625.02, -27001.98, -10204.11, -69209.31, -45239.48, -6019.57, -82133.61, -82725.81, -69972.47, -72167.57, 0.000, 0.000, 0.000, 15:33:50.391
60, -37643.29, 70707.44, 46082.46, 104982.92, 153273.78, 99812.20, -39625.02, -27001.98, -10412.16, -69189.95, -45350.66, -5995.14, -82172.32, -82762.56, -70213.09, -72367.15, 0.000, 0.000, 0.000, 15:33:50.391
61, -38070.52, 70720.02, 46089.34, 105002.59, 153284.92, 99806.59, -40339.22, -27722.71, -10412.16, -69189.95, -45350.66, -5995.14, -82172.32, -82762.56, -70213.09, -72367.15, -0.018, 0.912, -0.320, 15:33:50.392
62, -38070.52, 70720.02, 46089.34, 105002.59, 153284.92, 99806.59, -40339.22, -27722.71, -10231.44, -69188.10, -45238.19, -6019.32, -82123.03, -82754.49, -70162.48, -72333.57, 0.000, 0.000, 0.000, 15:33:50.392
63, -37561.77, 70713.18, 46080.20, 104963.99, 153279.83, 99841.71, -39935.73, -27701.50, -10231.44, -69188.10, -45238.19, -6019.32, -82123.03, -82754.49, -70162.48, -72333.57, 0.000, 0.000, 0.000, 15:33:50.392
64, -37561.77, 70713.18, 46080.20, 104963.99, 153279.83, 99841.71, -39935.73, -27701.50, -10292.33, -69215.08, -45323.50, -6026.99, -82150.88, -82753.42, -69997.64, -72191.73, 0.000, 0.000, 0.000, 15:33:50.392
65, -38057.42, 70712.91, 46069.78, 104964.26, 153278.33, 99736.07, -39988.25, -28054.81, -10292.33, -69215.08, -45323.50, -6026.99, -82150.88, -82753.42, -69997.64, -72191.73, 0.000, 0.000, 0.000, 15:33:50.392
66, -38057.42, 70712.91, 46069.78, 104964.26, 153278.33, 99736.07, -39988.25, -28054.81, -10368.68, -69206.67, -45319.95, -6024.24, -82132.38, -82715.65, -70353.01, -72474.84, 0.000, 0.000, 0.000, 15:33:50.393
67, -37806.84, 70689.11, 46072.44, 104928.70, 153269.14, 99782.84, -40374.74, -28505.60, -10368.68, -69206.67, -45319.95, -6024.24, -82132.38, -82715.65, -70353.01, -72474.84, 0.000, 0.000, 0.000, 15:33:50.393
68, -37806.84, 70689.11, 46072.44, 104928.70, 153269.14, 99782.84, -40374.74, -28505.60, -10215.64, -69191.03, -45271.73, -6052.29, -82090.89, -82810.26, -70007.85, -72170.78, 0.000, 0.000, 0.000, 15:33:50.394
69, -37676.64, 70670.34, 46055.12, 104935.31, 153251.00, 99761.02, -39692.85, -28357.03, -10215.64, -69191.03, -45271.73, -6052.29, -82090.89, -82810.26, -70007.85, -72170.78, 0.000, 0.000, 0.000, 15:33:50.394
70, -37676.64, 70670.34, 46055.12, 104935.31, 153251.00, 99761.02, -39692.85, -28357.03, -10457.89, -69195.88, -45389.13, -6030.48, -82142.57, -82764.13, -70266.93, -72355.05, 0.000, 0.000, 0.000, 15:33:50.394
71, -38130.18, 70681.24, 46063.32, 104948.84, 153256.77, 99729.77, -40429.63, -29093.21, -10457.89, -69195.88, -45389.13, -6030.48, -82142.57, -82764.13, -70266.93, -72355.05, -0.062, 0.866, -0.338, 15:33:50.394
72, -38130.18, 70681.24, 46063.32, 104948.84, 153256.77, 99729.77, -40429.63, -29093.21, -10293.83, -69207.95, -45275.11, -6060.68, -82096.86, -82738.76, -70232.42, -72323.11, 0.000, 0.000, 0.000, 15:33:50.395
73, -37578.29, 70646.51, 46036.97, 104909.34, 153214.25, 99755.97, -39999.05, -29034.96, -10293.83, -69207.95, -45275.11, -6060.68, -82096.86, -82738.76, -70232.42, -72323.11, 0.000, 0.000, 0.000, 15:33:50.395
74, -37578.29, 70646.51, 46036.97, 104909.34, 153214.25, 99755.97, -39999.05, -29034.96, -10315.26, -69233.03, -45337.61, -6043.51, -82092.19, -82806.26, -70032.05, -72164.13, 0.000, 0.000, 0.000, 15:33:50.395
75, -38080.64, 70681.65, 46074.75, 104970.43, 153244.73, 99688.28, -40031.17, -29380.27, -10315.26, -69233.03, -45337.61, -6043.51, -82092.19, -82806.26, -70032.05, -72164.13, 0.000, 0.000, 0.000, 15:33:50.395
76, -38080.64, 70681.65, 46074.75, 104970.43, 153244.73, 99688.28, -40031.17, -29380.27, -10376.98, -69208.64, -45305.91, -5996.57, -82099.20, -82748.91, -70347.09, -72437.89, 0.000, 0.000, 0.000, 15:33:50.395
77, -37851.09, 70671.25, 46066.88, 104947.56, 153225.42, 99753.48, -40412.51, -29828.47, -10376.98, -69208.64, -45305.91, -5996.57, -82099.20, -82748.91, -70347.09, -72437.89, 0.000, 0.000, 0.000, 15:33:50.396
78, -37851.09, 70671.25, 46066.88, 104947.56, 153225.42, 99753.48, -40412.51, -29828.47, -10208.53, -69247.00, -45258.04, -6026.12, -82075.45, -82769.71, -70005.15, -72157.73, 0.000, 0.000, 0.000, 15:33:50.396
79, -37746.93, 70658.42, 46057.67, 104938.22, 153223.11, 99729.26, -39737.67, -29697.42, -10208.53, -69247.00, -45258.04, -6026.12, -82075.45, -82769.71, -70005.15, -72157.73, 0.000, 0.000, 0.000, 15:33:50.396
80, -37746.93, 70658.42, 46057.67, 104938.22, 153223.11, 99729.26, -39737.67, -29697.42, -10439.49, -69239.22, -45379.88, -6012.22, -82133.13, -82734.30, -70235.77, -72359.52, 0.000, 0.000, 0.000, 15:33:50.396
81, -38221.48, 70675.88, 46070.86, 104956.13, 153236.25, 99697.72, -40444.39, -30412.77, -10439.49, -69239.22, -45379.88, -6012.22, -82133.13, -82734.30, -70235.77, -72359.52, -0.072, 0.882, -0.346, 15:33:50.396
82, -38221.48, 70675.88, 46070.86, 104956.13, 153236.25, 99697.72, -40444.39, -30412.77, -10223.62, -69252.05, -45244.31, -6006.07, -82076.66, -82798.46, -70194.17, -72342.24, 0.000, 0.000, 0.000, 15:33:50.397
83, -37676.79, 70658.35, 46064.75, 104936.52, 153220.88, 99734.93, -40012.64, -30359.84, -10223.62, -69252.05, -45244.31, -6006.07, -82076.66, -82798.46, -70194.17, -72342.24, 0.000, 0.000, 0.000, 15:33:50.397
84, -37676.79, 70658.35, 46064.75, 104936.52, 153220.88, 99734.93, -40012.64, -30359.84, -10268.23, -69252.41, -45322.00, -6006.99, -82099.63, -82776.93, -69987.58, -72183.03, 0.000, 0.000, 0.000, 15:33:50.397
85, -38162.05, 70677.13, 46078.50, 104974.52, 153241.75, 99662.42, -40014.20, -30683.11, -10268.23, -69252.41, -45322.00, -6006.99, -82099.63, -82776.93, -69987.58, -72183.03, 0.000, 0.000, 0.000, 15:33:50.397
86, -38162.05, 70677.13, 46078.50, 104974.52, 153241.75, 99662.42, -40014.20, -30683.11, -10335.29, -69224.73, -45309.29, -5989.48, -82101.42, -82754.60, -70335.64, -72474.14, 0.000, 0.000, 0.000, 15:33:50.397
87, -37941.06, 70665.48, 46077.85, 104945.70, 153242.38, 99731.09, -40422.86, -31151.36, -10335.29, -69224.73, -45309.29, -5989.48, -82101.42, -82754.60, -70335.64, -72474.14, 0.000, 0.000, 0.000, 15:33:50.397
88, -37941.06, 70665.48, 46077.85, 104945.70, 153242.38, 99731.09, -40422.86, -31151.36, -10183.39, -69270.83, -45270.08, -6049.57, -82076.70, -82786.08, -69972.34, -72175.48, 0.000, 0.000, 0.000, 15:33:50.398
89, -37786.81, 70660.30, 46063.57, 104930.55, 153245.50, 99677.45, -39730.76, -30983.99, -10183.39, -69270.83, -45270.08, -6049.57, -82076.70, -82786.08, -69972.34, -72175.48, 0.000, 0.000, 0.000, 15:33:50.398
90, -37786.81, 70660.30, 46063.57, 104930.55, 153245.50, 99677.45, -39730.76, -30983.99, -10415.24, -69249.79, -45391.54, -6024.29, -82138.57, -82727.52, -70199.45, -72373.16, -0.086, 0.904, -0.350, 15:33:50.398
91, -38240.12, 70663.23, 46056.68, 104933.05, 153246.55, 99629.14, -40425.50, -31662.25, -10415.24, -69249.79, -45391.54, -6024.29, -82138.57, -82727.52, -70199.45, -72373.16, 0.000, 0.000, 0.000, 15:33:50.398
92, -38240.12, 70663.23, 46056.68, 104933.05, 153246.55, 99629.14, -40425.50, -31662.25, -10239.40, -69256.61, -45271.80, -6035.64, -82083.02, -82807.45, -70170.04, -72346.25, 0.000, 0.000, 0.000, 15:33:50.398
93, -37690.09, 70650.76, 46052.57, 104923.38, 153245.30, 99718.77, -40020.77, -31612.81, -10239.40, -69256.61, -45271.80, -6035.64, -82083.02, -82807.45, -70170.04, -72346.25, 0.000, 0.000, 0.000, 15:33:50.398
94, -37690.09, 70650.76, 46052.57, 104923.38, 153245.30, 99718.77, -40020.77, -31612.81, -10309.21, -69285.89, -45354.32, -6042.82, -82107.21, -82816.66, -69968.40, -72171.73, 0.000, 0.000, 0.000, 15:33:50.399
95, -38171.32, 70664.75, 46060.02, 104949.15, 153263.42, 99637.34, -40016.26, -31921.64, -10309.21, -69285.89, -45354.32, -6042.82, -82107.21, -82816.66, -69968.40, -72171.73, 0.000, 0.000, 0.000, 15:33:50.399
96, -38171.32, 70664.75, 46060.02, 104949.15, 153263.42, 99637.34, -40016.26, -31921.64, -10341.55, -69261.41, -45327.41, -6003.79, -82088.03, -82748.62, -70331.59, -72472.53, 0.000, 0.000, 0.000, 15:33:50.399
97, -37970.92, 70654.29, 46058.25, 104917.34, 153242.08, 99683.86, -40443.87, -32395.61, -10341.55, -69261.41, -45327.41, -6003.79, -82088.03, -82748.62, -70331.59, -72472.53, 0.000, 0.000, 0.000, 15:33:50.399
98, -37970.92, 70654.29, 46058.25, 104917.34, 153242.08, 99683.86, -40443.87, -32395.61, -10199.95, -69293.58, -45273.59, -6039.28, -82081.15, -82808.56, -69979.27, -72182.92, 0.000, 0.000, 0.000, 15:33:50.399
99, -37784.30, 70658.13, 46070.99, 104939.52, 153238.19, 99651.49, -39744.42, -32213.60, -10199.95, -69293.58, -45273.59, -6039.28, -82081.15, -82808.56, -69979.27, -72182.92, 0.000, 0.000, 0.000, 15:33:50.400
100, -37784.30, 70658.13, 46070.99, 104939.52, 153238.19, 99651.49, -39744.42, -32213.60, -10402.10, -69288.23, -45368.05, -6003.25, -82125.13, -82785.09, -70200.01, -72362.70, -0.090, 0.952, -0.360, 15:33:50.400
101, -38196.38, 70689.80, 46097.70, 104969.89, 153251.47, 99650.06, -40438.51, -32883.17, -10402.10, -69288.23, -45368.05, -6003.25, -82125.13, -82785.09, -70200.01, -72362.70, 0.000, 0.000, 0.000, 15:33:50.400
102, -38196.38, 70689.80, 46097.70, 104969.89, 153251.47, 99650.06, -40438.51, -32883.17, -10196.15, -69239.27, -45218.36, -5981.39, -82075.70, -82761.71, -70167.55, -72348.73, 0.000, 0.000, 0.000, 15:33:50.400
103, -37521.00, 70689.18, 46106.21, 104977.18, 153243.98, 99716.80, -40038.48, -32804.98, -10196.15, -69239.27, -45218.36, -5981.39, -82075.70, -82761.71, -70167.55, -72348.73, 0.000, 0.000, 0.000, 15:33:50.400
104, -37521.00, 70689.18, 46106.21, 104977.18, 153243.98, 99716.80, -40038.48, -32804.98, -10248.05, -69274.63, -45297.93, -6000.59, -82105.55, -82770.97, -69934.96, -72162.88, 0.000, 0.000, 0.000, 15:33:50.400
105, -37821.03, 70731.45, 46110.20, 104993.27, 153257.45, 99605.16, -39989.37, -33036.35, -10248.05, -69274.63, -45297.93, -6000.59, -82105.55, -82770.97, -69934.96, -72162.88, 0.000, 0.000, 0.000, 15:33:50.401
106, -37821.03, 70731.45, 46110.20, 104993.27, 153257.45, 99605.16, -39989.37, -33036.35, -10323.33, -69244.43, -45295.00, -5981.26, -82117.60, -82756.55, -70289.39, -72461.07, 0.000, 0.000, 0.000, 15:33:50.401
107, -37564.23, 70723.73, 46097.10, 104968.51, 153240.50, 99640.25, -40400.35, -33447.24, -10323.33, -69244.43, -45295.00, -5981.26, -82117.60, -82756.55, -70289.39, -72461.07, 0.000, 0.000, 0.000, 15:33:50.401
108, -37564.23, 70723.73, 46097.10, 104968.51, 153240.50, 99640.25, -40400.35, -33447.24, -10183.19, -69283.72, -45261.14, -6027.80, -82126.56, -82796.89, -69953.89, -72190.95, 0.000, 0.000, 0.000, 15:33:50.401
109, -37414.25, 70694.50, 46072.02, 104944.30, 153226.81, 99585.71, -39728.86, -33254.07, -10183.19, -69283.72, -45261.14, -6027.80, -82126.56, -82796.89, -69953.89, -72190.95, 0.000, 0.000, 0.000, 15:33:50.401
110, -37414.25, 70694.50, 46072.02, 104944.30, 153226.81, 99585.71, -39728.86, -33254.07, -10367.05, -69271.41, -45373.01, -6005.44, -82136.51, -82777.63, -70151.66, -72356.15, -0.104, 0.960, -0.356, 15:33:50.401
111, -37896.42, 70718.26, 46095.78, 104965.58, 153266.70, 99543.71, -40396.66, -33885.11, -10367.05, -69271.41, -45373.01, -6005.44, -82136.51, -82777.63, -70151.66, -72356.15, 0.000, 0.000, 0.000, 15:33:50.402
112, -37896.42, 70718.26, 46095.78, 104965.58, 153266.70, 99543.71, -40396.66, -33885.11, -10184.01, -69267.90, -45256.85, -6025.67, -82117.24, -82730.71, -70131.84, -72350.52, 0.000, 0.000, 0.000, 15:33:50.402
113, -37362.84, 70683.21, 46071.57, 104921.34, 153255.52, 99588.71, -39996.61, -33810.54, -10184.01, -69267.90, -45256.85, -6025.67, -82117.24, -82730.71, -70131.84, -72350.52, 0.000, 0.000, 0.000, 15:33:50.402
114, -37362.84, 70683.21, 46071.57, 104921.34, 153255.52, 99588.71, -39996.61, -33810.54, -10250.82, -69285.09, -45344.87, -6026.28, -82121.24, -82802.21, -69916.88, -72163.50, 0.000, 0.000, 0.000, 15:33:50.402
115, -37857.77, 70690.83, 46074.61, 104957.66, 153278.52, 99495.30, -39950.88, -34069.45, -10250.82, -69285.09, -45344.87, -6026.28, -82121.24, -82802.21, -69916.88, -72163.50, 0.000, 0.000, 0.000, 15:33:50.402
116, -37857.77, 70690.83, 46074.61, 104957.66, 153278.52, 99495.30, -39950.88, -34069.45, -10345.37, -69255.63, -45339.39, -5994.94, -82117.31, -82745.26, -70282.42, -72461.13, 0.000, 0.000, 0.000, 15:33:50.402
117, -37686.25, 70659.54, 46064.11, 104929.41, 153266.88, 99591.34, -40359.31, -34505.08, -10345.37, -69255.63, -45339.39, -5994.94, -82117.31, -82745.26, -70282.42, -72461.13, 0.000, 0.000, 0.000, 15:33:50.861
118, -37686.25, 70659.54, 46064.11, 104929.41, 153266.88, 99591.34, -40359.31, -34505.08, -10200.15, -69290.14, -45291.02, -6027.95, -82092.39, -82798.48, -69961.78, -72184.40, 0.000, 0.000, 0.000, 15:33:50.862
119, -37551.60, 70644.20, 46048.01, 104935.54, 153257.95, 99575.16, -39668.36, -34334.11, -10200.15, -69290.14, -45291.02, -6027.95, -82092.39, -82798.48, -69961.78, -72184.40, 0.000, 0.000, 0.000, 15:33:50.862
120, -37551.60, 70644.20, 46048.01, 104935.54, 153257.95, 99575.16, -39668.36, -34334.11, -10423.80, -69268.10, -45409.38, -5990.80, -82137.34, -82762.16, -70187.56, -72363.32, -0.082, 0.932, -0.354, 15:33:50.862
121, -38082.07, 70663.45, 46063.75, 104966.74, 153268.31, 99545.95, -40359.47, -35012.24, -10423.80, -69268.10, -45409.38, -5990.80, -82137.34, -82762.16, -70187.56, -72363.32, 0.000, 0.000, 0.000, 15:33:50.862
122, -38082.07, 70663.45, 46063.75, 104966.74, 153268.31, 99545.95, -40359.47, -35012.24, -10233.72, -69271.70, -45280.50, -5997.38, -82086.71, -82759.70, -70195.12, -72384.65, 0.000, 0.000, 0.000, 15:33:50.862
123, -37584.93, 70629.09, 46045.31, 104923.24, 153242.13, 99586.27, -40009.44, -34995.01, -10233.72, -69271.70, -45280.50, -5997.38, -82086.71, -82759.70, -70195.12, -72384.65, 0.000, 0.000, 0.000, 15:33:50.862
124, -37584.93, 70629.09, 46045.31, 104923.24, 153242.13, 99586.27, -40009.44, -34995.01, -10300.73, -69298.05, -45370.31, -6009.98, -82125.85, -82766.00, -69968.80, -72208.07, 0.000, 0.000, 0.000, 15:33:50.863
125, -38045.17, 70649.21, 46056.41, 104980.82, 153253.20, 99519.38, -39930.00, -35227.33, -10300.73, -69298.05, -45370.31, -6009.98, -82125.85, -82766.00, -69968.80, -72208.07, 0.000, 0.000, 0.000, 15:33:50.863
126, -38045.17, 70649.21, 46056.41, 104980.82, 153253.20, 99519.38, -39930.00, -35227.33, -10380.64, -69260.07, -45356.58, -5962.15, -82142.73, -82780.29, -70323.34, -72502.53, 0.000, 0.000, 0.000, 15:33:50.863
127, -37882.41, 70640.27, 46046.36, 104962.09, 153232.42, 99560.81, -40356.23, -35667.73, -10380.64, -69260.07, -45356.58, -5962.15, -82142.73, -82780.29, -70323.34, -72502.53, 0.000, 0.000, 0.000, 15:33:50.863
128, -37882.41, 70640.27, 46046.36, 104962.09, 153232.42, 99560.81, -40356.23, -35667.73, -10195.57, -69278.07, -45314.20, -6004.39, -82115.12, -82769.96, -69993.28, -72240.95, 0.000, 0.000, 0.000, 15:33:50.863
129, -37723.57, 70639.29, 46054.79, 104974.23, 153240.69, 99549.32, -39658.70, -35480.93, -10195.57, -69278.07, -45314.20, -6004.39, -82115.12, -82769.96, -69993.28, -72240.95, 0.000, 0.000, 0.000, 15:33:50.863
130, -37723.57, 70639.29, 46054.79, 104974.23, 153240.69, 99549.32, -39658.70, -35480.93, -10426.80, -69245.37, -45421.34, -5975.16, -82156.47, -82745.55, -70194.42, -72401.66, -0.050, 0.910, -0.338, 15:33:50.864
131, -38254.25, 70641.26, 46057.09, 104977.83, 153253.28, 99504.45, -40356.63, -36158.77, -10426.80, -69245.37, -45421.34, -5975.16, -82156.47, -82745.55, -70194.42, -72401.66, 0.000, 0.000, 0.000, 15:33:50.864
132, -38254.25, 70641.26, 46057.09, 104977.83, 153253.28, 99504.45, -40356.63, -36158.77, -10234.77, -69284.05, -45305.26, -5996.91, -82133.74, -82759.88, -70202.96, -72419.34, 0.000, 0.000, 0.000, 15:33:50.864
133, -37712.11, 70624.34, 46056.82, 104958.78, 153248.56, 99546.02, -39989.44, -36100.52, -10234.77, -69284.05, -45305.26, -5996.91, -82133.74, -82759.88, -70202.96, -72419.34, 0.000, 0.000, 0.000, 15:33:50.864
134, -37712.11, 70624.34, 46056.82, 104958.78, 153248.56, 99546.02, -39989.44, -36100.52, -10260.61, -69270.24, -45367.65, -5989.19, -82120.82, -82826.02, -69952.11, -72202.95, 0.000, 0.000, 0.000, 15:33:50.864
135, -38176.40, 70650.17, 46080.29, 105008.00, 153272.14, 99476.37, -39920.62, -36337.57, -10260.61, -69270.24, -45367.65, -5989.19, -82120.82, -82826.02, -69952.11, -72202.95, 0.000, 0.000, 0.000, 15:33:50.864
136, -38176.40, 70650.17, 46080.29, 105008.00, 153272.14, 99476.37, -39920.62, -36337.57, -10339.47, -69239.35, -45352.76, -5954.10, -82140.36, -82750.24, -70315.30, -72497.16, 0.000, 0.000, 0.000, 15:33:50.865
137, -38009.48, 70633.45, 46073.38, 104979.77, 153244.61, 99532.13, -40366.89, -36785.74, -10339.47, -69239.35, -45352.76, -5954.10, -82140.36, -82750.24, -70315.30, -72497.16, 0.000, 0.000, 0.000, 15:33:50.865
138, -38009.48, 70633.45, 46073.38, 104979.77, 153244.61, 99532.13, -40366.89, -36785.74, -10160.63, -69259.60, -45295.43, -5989.84, -82115.26, -82775.08, -69974.81, -72207.27, 0.000, 0.000, 0.000, 15:33:50.865
139, -37826.82, 70630.93, 46081.29, 104981.05, 153258.13, 99493.80, -39665.45, -36585.04, -10160.63, -69259.60, -45295.43, -5989.84, -82115.26, -82775.08, -69974.81, -72207.27, -0.060, 0.902, -0.318, 15:33:50.865
140, -37826.82, 70630.93, 46081.29, 104981.05, 153258.13, 99493.80, -39665.45, -36585.04, -10385.42, -69241.52, -45401.15, -5962.44, -82179.36, -82747.85, -70172.67, -72373.88, 0.000, 0.000, 0.000, 15:33:50.865
141, -38318.38, 70637.27, 46090.70, 104987.21, 153275.19, 99470.04, -40318.16, -37198.82, -10385.42, -69241.52, -45401.15, -5962.44, -82179.36, -82747.85, -70172.67, -72373.88, 0.000, 0.000, 0.000, 15:33:50.865
142, -38318.38, 70637.27, 46090.70, 104987.21, 153275.19, 99470.04, -40318.16, -37198.82, -10217.25, -69249.08, -45288.63, -5985.19, -82151.73, -82764.95, -70178.09, -72394.57, 0.000, 0.000, 0.000, 15:33:50.866
143, -37796.11, 70610.37, 46076.36, 104955.49, 153268.30, 99531.69, -39989.97, -37160.40, -10217.25, -69249.08, -45288.63, -5985.19, -82151.73, -82764.95, -70178.09, -72394.57, 0.000, 0.000, 0.000, 15:33:50.866
144, -37796.11, 70610.37, 46076.36, 104955.49, 153268.30, 99531.69, -39989.97, -37160.40, -10288.64, -69283.63, -45368.18, -6000.97, -82199.09, -82792.22, -69952.11, -72221.05, 0.000, 0.000, 0.000, 15:33:50.866
145, -38236.97, 70647.52, 46105.48, 105003.24, 153305.53, 99466.35, -39904.10, -37387.63, -10288.64, -69283.63, -45368.18, -6000.97, -82199.09, -82792.22, -69952.11, -72221.05, 0.000, 0.000, 0.000, 15:33:50.866
146, -38236.97, 70647.52, 46105.48, 105003.24, 153305.53, 99466.35, -39904.10, -37387.63, -10334.15, -69207.28, -45330.14, -5937.38, -82142.32, -82709.50, -70286.51, -72498.33, 0.000, 0.000, 0.000, 15:33:50.866
147, -38098.79, 70658.42, 46115.09, 104994.50, 153303.06, 99539.31, -40389.89, -37870.52, -10334.15, -69207.28, -45330.14, -5937.38, -82142.32, -82709.50, -70286.51, -72498.33, 0.000, 0.000, 0.000, 15:33:50.866
148, -38098.79, 70658.42, 46115.09, 104994.50, 153303.06, 99539.31, -40389.89, -37870.52, -10168.90, -69253.97, -45283.38, -5979.63, -82146.88, -82723.24, -69953.07, -72228.77, 0.000, 0.000, 0.000, 15:33:50.867
149, -37888.57, 70626.34, 46085.18, 104971.84, 153270.27, 99487.21, -39682.66, -37658.57, -10168.90, -69253.97, -45283.38, -5979.63, -82146.88, -82723.24, -69953.07, -72228.77, -0.068, 0.882, -0.312, 15:33:50.867
150, -37888.57, 70626.34, 46085.18, 104971.84, 153270.27, 99487.21, -39682.66, -37658.57, -10392.00, -69236.23, -45400.50, -5940.58, -82192.21, -82769.13, -70154.16, -72386.41, 0.000, 0.000, 0.000, 15:33:50.867
151, -38420.30, 70635.17, 46098.01, 105003.06, 153281.28, 99448.54, -40376.21, -38324.88, -10392.00, -69236.23, -45400.50, -5940.58, -82192.21, -82769.13, -70154.16, -72386.41, 0.000, 0.000, 0.000, 15:33:50.867
152, -38420.30, 70635.17, 46098.01, 105003.06, 153281.28, 99448.54, -40376.21, -38324.88, -10230.73, -69246.22, -45293.75, -5960.65, -82165.08, -82759.86, -70172.56, -72408.41, 0.000, 0.000, 0.000, 15:33:50.867
153, -37846.09, 70596.17, 46082.21, 104962.23, 153261.34, 99499.81, -40020.46, -38253.07, -10230.73, -69246.22, -45293.75, -5960.65, -82165.08, -82759.86, -70172.56, -72408.41, 0.000, 0.000, 0.000, 15:33:50.867
154, -37846.09, 70596.17, 46082.21, 104962.23, 153261.34, 99499.81, -40020.46, -38253.07, -10280.08, -69264.84, -45356.11, -5961.17, -82170.02, -82757.11, -69921.20, -72196.94, 0.000, 0.000, 0.000, 15:33:50.868
155, -38255.72, 70606.97, 46109.30, 105011.27, 153291.28, 99444.07, -39888.34, -38430.89, -10280.08, -69264.84, -45356.11, -5961.17, -82170.02, -82757.11, -69921.20, -72196.94, 0.000, 0.000, 0.000, 15:33:50.868
156, -38255.72, 70606.97, 46109.30, 105011.27, 153291.28, 99444.07, -39888.34, -38430.89, -10365.29, -69227.53, -45338.90, -5909.76, -82167.47, -82749.62, -70281.13, -72493.21, 0.000, 0.000, 0.000, 15:33:50.868
157, -38125.19, 70595.30, 46113.68, 105000.65, 153284.23, 99492.80, -40370.16, -38890.87, -10365.29, -69227.53, -45338.90, -5909.76, -82167.47, -82749.62, -70281.13, -72493.21, 0.000, 0.000, 0.000, 15:33:50.868
158, -38125.19, 70595.30, 46113.68, 105000.65, 153284.23, 99492.80, -40370.16, -38890.87, -10203.88, -69261.21, -45283.40, -5956.02, -82143.22, -82732.50, -69943.34, -72220.70, 0.000, 0.000, 0.000, 15:33:50.868
159, -37883.55, 70579.03, 46097.36, 104972.93, 153263.97, 99475.07, -39633.66, -38633.47, -10203.88, -69261.21, -45283.40, -5956.02, -82143.22, -82732.50, -69943.34, -72220.70, -0.092, 0.900, -0.320, 15:33:50.868
160, -37883.55, 70579.03, 46097.36, 104972.93, 153263.97, 99475.07, -39633.66, -38633.47, -10410.84, -69235.48, -45385.13, -5923.15, -82204.88, -82732.99, -70103.41, -72368.46, 0.000, 0.000, 0.000, 15:33:50.869
161, -38398.78, 70602.19, 46116.48, 105009.30, 153275.27, 99460.95, -40275.50, -39244.50, -10410.84, -69235.48, -45385.13, -5923.15, -82204.88, -82732.99, -70103.41, -72368.46, 0.000, 0.000, 0.000, 15:33:50.869
162, -38398.78, 70602.19, 46116.48, 105009.30, 153275.27, 99460.95, -40275.50, -39244.50, -10245.99, -69250.82, -45266.19, -5941.34, -82143.91, -82791.41, -70129.73, -72399.84, 0.000, 0.000, 0.000, 15:33:50.869
163, -37844.25, 70589.24, 46106.08, 104983.13, 153261.14, 99515.73, -39932.95, -39178.36, -10245.99, -69250.82, -45266.19, -5941.34, -82143.91, -82791.41, -70129.73, -72399.84, 0.000, 0.000, 0.000, 15:33:50.869
164, -37844.25, 70589.24, 46106.08, 104983.13, 153261.14, 99515.73, -39932.95, -39178.36, -10269.91, -69271.01, -45334.41, -5957.08, -82161.95, -82726.28, -69886.33, -72194.63, 0.000, 0.000, 0.000, 15:33:50.869
165, -38228.37, 70599.19, 46108.43, 104978.36, 153276.77, 99413.18, -39756.49, -39317.45, -10269.91, -69271.01, -45334.41, -5957.08, -82161.95, -82726.28, -69886.33, -72194.63, 0.000, 0.000, 0.000, 15:33:50.869
166, -38228.37, 70599.19, 46108.43, 104978.36, 153276.77, 99413.18, -39756.49, -39317.45, -10368.48, -69229.34, -45342.79, -5941.36, -82153.03, -82688.53, -70256.76, -72501.44, 0.000, 0.000, 0.000, 15:33:50.869
167, -38126.62, 70599.41, 46116.05, 104972.77, 153282.20, 99489.53, -40247.67, -39784.98, -10368.48, -69229.34, -45342.79, -5941.36, -82153.03, -82688.53, -70256.76, -72501.44, 0.000, 0.000, 0.000, 15:33:50.870
168, -38126.62, 70599.41, 46116.05, 104972.77, 153282.20, 99489.53, -40247.67, -39784.98, -10160.72, -69245.81, -45270.04, -5970.96, -82117.91, -82760.52, -69939.48, -72242.71, 0.000, 0.000, 0.000, 15:33:50.870
169, -37880.64, 70581.48, 46105.86, 104975.19, 153274.75, 99474.00, -39521.91, -39546.89, -10160.72, -69245.81, -45270.04, -5970.96, -82117.91, -82760.52, -69939.48, -72242.71, -0.112, 0.888, -0.312, 15:33:50.870
170, -37880.64, 70581.48, 46105.86, 104975.19, 153274.75, 99474.00, -39521.91, -39546.89, -10373.80, -69233.41, -45385.68, -5955.78, -82168.70, -82739.59, -70096.61, -72367.64, 0.000, 0.000, 0.000, 15:33:50.870
171, -38414.06, 70590.38, 46112.50, 104972.82, 153281.06, 99425.05, -40167.94, -40168.86, -10373.80, -69233.41, -45385.68, -5955.78, -82168.70, -82739.59, -70096.61, -72367.64, 0.000, 0.000, 0.000, 15:33:50.870
172, -38414.06, 70590.38, 46112.50, 104972.82, 153281.06, 99425.05, -40167.94, -40168.86, -10211.06, -69233.74, -45280.23, -5998.67, -82130.84, -82736.79, -70122.52, -72401.90, 0.000, 0.000, 0.000, 15:33:50.870
173, -37841.73, 70512.73, 46092.04, 104942.69, 153259.31, 99477.22, -39819.48, -40093.20, -10211.06, -69233.74, -45280.23, -5998.67, -82130.84, -82736.79, -70122.52, -72401.90, 0.000, 0.000, 0.000, 15:33:50.871
174, -37841.73, 70512.73, 46092.04, 104942.69, 153259.31, 99477.22, -39819.48, -40093.20, -10239.38, -69251.11, -45350.46, -6019.91, -82135.84, -82737.23, -69873.25, -72193.67, 0.000, 0.000, 0.000, 15:33:50.871
175, -38236.21, 70493.04, 46095.04, 104961.84, 153265.23, 99382.80, -39650.85, -40242.10, -10239.38, -69251.11, -45350.46, -6019.91, -82135.84, -82737.23, -69873.25, -72193.67, 0.000, 0.000, 0.000, 15:33:50.871
176, -38236.21, 70493.04, 46095.04, 104961.84, 153265.23, 99382.80, -39650.85, -40242.10, -10339.69, -69210.48, -45351.60, -5996.53, -82148.45, -82705.59, -70240.80, -72503.45, 0.000, 0.000, 0.000, 15:33:50.871
177, -38153.15, 70474.69, 46103.98, 104952.01, 153272.64, 99449.21, -40164.50, -40722.91, -10339.69, -69210.48, -45351.60, -5996.53, -82148.45, -82705.59, -70240.80, -72503.45, 0.000, 0.000, 0.000, 15:33:50.871
178, -38153.15, 70474.69, 46103.98, 104952.01, 153272.64, 99449.21, -40164.50, -40722.91, -10157.86, -69237.14, -45284.66, -6042.86, -82092.08, -82738.69, -69901.77, -72240.50, 0.000, 0.000, 0.000, 15:33:50.872
179, -37886.52, 70432.49, 46087.20, 104942.78, 153270.98, 99446.57, -39430.64, -40463.38, -10157.86, -69237.14, -45284.66, -6042.86, -82092.08, -82738.69, -69901.77, -72240.50, -0.114, 0.872, -0.330, 15:33:50.872
180, -37886.52, 70432.49, 46087.20, 104942.78, 153270.98, 99446.57, -39430.64, -40463.38, -10389.54, -69225.92, -45403.05, -6015.06, -82151.87, -82670.49, -70059.87, -72366.43, 0.000, 0.000, 0.000, 15:33:50.872
181, -38442.77, 70445.09, 46113.61, 104977.40, 153296.47, 99424.60, -40079.61, -41075.64, -10389.54, -69225.92, -45403.05, -6015.06, -82151.87, -82670.49, -70059.87, -72366.43, 0.000, 0.000, 0.000, 15:33:50.872
182, -38442.77, 70445.09, 46113.61, 104977.40, 153296.47, 99424.60, -40079.61, -41075.64, -10223.89, -69239.02, -45280.92, -6042.70, -82099.50, -82738.42, -70099.00, -72420.07, 0.000, 0.000, 0.000, 15:33:50.872
183, -37894.50, 70404.53, 46076.02, 104926.75, 153254.55, 99491.01, -39759.33, -41005.01, -10223.89, -69239.02, -45280.92, -6042.70, -82099.50, -82738.42, -70099.00, -72420.07, 0.000, 0.000, 0.000, 15:33:50.872
184, -37894.50, 70404.53, 46076.02, 104926.75, 153254.55, 99491.01, -39759.33, -41005.01, -10265.53, -69270.42, -45371.56, -6089.55, -82148.36, -82719.16, -69842.76, -72205.63, 0.000, 0.000, 0.000, 15:33:50.873
185, -38257.98, 70426.52, 46075.28, 104935.91, 153258.17, 99399.91, -39545.58, -41089.39, -10265.53, -69270.42, -45371.56, -6089.55, -82148.36, -82719.16, -69842.76, -72205.63, 0.000, 0.000, 0.000, 15:33:50.873
186, -38257.98, 70426.52, 46075.28, 104935.91, 153258.17, 99399.91, -39545.58, -41089.39, -10371.48, -69249.39, -45374.75, -6063.51, -82147.87, -82697.95, -70243.95, -72534.45, 0.000, 0.000, 0.000, 15:33:50.873
187, -38207.78, 70435.06, 46084.71, 104951.56, 153262.02, 99471.77, -40085.55, -41571.67, -10371.48, -69249.39, -45374.75, -6063.51, -82147.87, -82697.95, -70243.95, -72534.45, 0.000, 0.000, 0.000, 15:33:50.873
188, -38207.78, 70435.06, 46084.71, 104951.56, 153262.02, 99471.77, -40085.55, -41571.67, -10187.88, -69218.84, -45299.63, -6058.02, -82107.52, -82775.15, -69926.13, -72270.16, 0.000, 0.000, 0.000, 15:33:50.873
189, -37936.18, 70428.55, 46083.77, 104966.02, 153259.63, 99475.48, -39366.41, -41302.82, -10187.88, -69218.84, -45299.63, -6058.02, -82107.52, -82775.15, -69926.13, -72270.16, -0.100, 0.906, -0.316, 15:33:50.873
190, -37936.18, 70428.55, 46083.77, 104966.02, 153259.63, 99475.48, -39366.41, -41302.82, -10393.70, -69239.89, -45418.92, -6055.98, -82165.95, -82751.34, -70067.84, -72371.02, 0.000, 0.000, 0.000, 15:33:50.874
191, -38464.04, 70452.20, 46101.43, 104984.77, 153271.77, 99410.54, -39974.39, -41855.34, -10393.70, -69239.89, -45418.92, -6055.98, -82165.95, -82751.34, -70067.84, -72371.02, 0.000, 0.000, 0.000, 15:33:50.874
192, -38464.04, 70452.20, 46101.43, 104984.77, 153271.77, 99410.54, -39974.39, -41855.34, -10217.36, -69198.27, -45285.93, -6047.06, -82138.26, -82715.94, -70128.69, -72427.56, 0.000, 0.000, 0.000, 15:33:50.874
193, -37915.46, 70445.55, 46107.20, 104962.34, 153266.53, 99475.30, -39683.13, -41795.17, -10217.36, -69198.27, -45285.93, -6047.06, -82138.26, -82715.94, -70128.69, -72427.56, 0.000, 0.000, 0.000, 15:33:50.874
194, -37915.46, 70445.55, 46107.20, 104962.34, 153266.53, 99475.30, -39683.13, -41795.17, -10247.60, -69213.52, -45329.22, -6054.33, -82103.38, -82714.95, -69849.29, -72199.89, 0.000, 0.000, 0.000, 15:33:50.874
195, -38287.62, 70466.45, 46121.17, 104988.46, 153284.80, 99395.99, -39488.25, -41895.50, -10247.60, -69213.52, -45329.22, -6054.33, -82103.38, -82714.95, -69849.29, -72199.89, 0.000, 0.000, 0.000, 15:33:50.875
196, -38287.62, 70466.45, 46121.17, 104988.46, 153284.80, 99395.99, -39488.25, -41895.50, -10349.28, -69186.25, -45343.51, -6030.21, -82146.68, -82674.77, -70220.33, -72513.51, 0.000, 0.000, 0.000, 15:33:50.875
197, -38211.76, 70448.00, 46105.21, 104966.74, 153266.83, 99422.16, -40001.29, -42346.03, -10349.28, -69186.25, -45343.51, -6030.21, -82146.68, -82674.77, -70220.33, -72513.51, 0.000, 0.000, 0.000, 15:33:50.875
198, -38211.76, 70448.00, 46105.21, 104966.74, 153266.83, 99422.16, -40001.29, -42346.03, -10153.32, -69194.77, -45285.55, -6062.91, -82097.95, -82744.34, -69906.62, -72255.52, -0.110, 0.930, -0.308, 15:33:50.875
199, -37927.63, 70439.60, 46105.90, 104970.56, 153277.86, 99418.43, -39281.60, -42082.59, -10153.32, -69194.77, -45285.55, -6062.91, -82097.95, -82744.34, -69906.62, -72255.52, 0.000, 0.000, 0.000, 15:33:50.875
200, -37927.63, 70439.60, 46105.90, 104970.56, 153277.86, 99418.43, -39281.60, -42082.59, -10359.54, -69201.13, -45396.37, -6035.26, -82145.23, -82757.80, -70045.49, -72359.88, 0.000, 0.000, 0.000, 15:33:50.876
201, -38471.80, 70461.41, 46128.01, 104998.19, 153307.77, 99382.02, -39890.66, -42658.35, -10359.54, -69201.13, -45396.37, -6035.26, -82145.23, -82757.80, -70045.49, -72359.88, 0.000, 0.000, 0.000, 15:33:50.876
202, -38471.80, 70461.41, 46128.01, 104998.19, 153307.77, 99382.02, -39890.66, -42658.35, -10176.35, -69174.13, -45262.93, -6036.74, -82080.77, -82694.32, -70089.77, -72414.55, 0.000, 0.000, 0.000, 15:33:50.876
203, -37913.27, 70431.08, 46118.18, 104952.03, 153309.48, 99467.67, -39602.55, -42606.29, -10176.35, -69174.13, -45262.93, -6036.74, -82080.77, -82694.32, -70089.77, -72414.55, 0.000, 0.000, 0.000, 15:33:50.876
204, -37913.27, 70431.08, 46118.18, 104952.03, 153309.48, 99467.67, -39602.55, -42606.29, -10194.85, -69213.76, -45342.05, -6062.11, -82098.94, -82745.28, -69800.63, -72168.57, 0.000, 0.000, 0.000, 15:33:50.877
205, -38262.43, 70446.55, 46133.33, 104992.51, 153332.92, 99384.26, -39370.79, -42687.49, -10194.85, -69213.76, -45342.05, -6062.11, -82098.94, -82745.28, -69800.63, -72168.57, 0.000, 0.000, 0.000, 15:33:50.877
206, -38262.43, 70446.55, 46133.33, 104992.51, 153332.92, 99384.26, -39370.79, -42687.49, -10303.33, -69159.05, -45341.29, -6003.50, -82098.23, -82711.63, -70187.67, -72500.48, 0.000, 0.000, 0.000, 15:33:50.877
207, -38255.59, 70440.88, 46124.45, 104964.86, 153314.31, 99419.77, -39933.38, -43193.56, -10303.33, -69159.05, -45341.29, -6003.50, -82098.23, -82711.63, -70187.67, -72500.48, 0.000, 0.000, 0.000, 15:33:50.877
208, -38255.59, 70440.88, 46124.45, 104964.86, 153314.31, 99419.77, -39933.38, -43193.56, -10118.70, -69212.94, -45292.77, -6059.98, -82078.17, -82725.08, -69886.30, -72256.99, -0.104, 0.928, -0.300, 15:33:50.878
209, -37923.71, 70418.01, 46076.06, 104934.59, 153272.08, 99391.21, -39166.87, -42884.70, -10118.70, -69212.94, -45292.77, -6059.98, -82078.17, -82725.08, -69886.30, -72256.99, 0.000, 0.000, 0.000, 15:33:50.878
210, -37923.71, 70418.01, 46076.06, 104934.59, 153272.08, 99391.21, -39166.87, -42884.70, -10340.77, -69218.21, -45429.70, -6038.01, -82149.14, -82748.84, -70062.08, -72382.68, 0.000, 0.000, 0.000, 15:33:50.878
211, -38496.05, 70436.34, 46075.21, 104960.63, 153273.50, 99356.97, -39774.75, -43463.08, -10340.77, -69218.21, -45429.70, -6038.01, -82149.14, -82748.84, -70062.08, -72382.68, 0.000, 0.000, 0.000, 15:33:50.878
212, -38496.05, 70436.34, 46075.21, 104960.63, 153273.50, 99356.97, -39774.75, -43463.08, -10190.25, -69193.48, -45316.73, -6041.34, -82139.82, -82733.21, -70155.84, -72469.18, 0.000, 0.000, 0.000, 15:33:50.878
213, -37957.08, 70422.92, 46066.36, 104919.71, 153254.19, 99425.20, -39507.67, -43430.60, -10190.25, -69193.48, -45316.73, -6041.34, -82139.82, -82733.21, -70155.84, -72469.18, 0.000, 0.000, 0.000, 15:33:50.879
214, -37957.08, 70422.92, 46066.36, 104919.71, 153254.19, 99425.20, -39507.67, -43430.60, -10192.93, -69206.45, -45365.52, -6049.10, -82080.32, -82712.83, -69863.64, -72221.75, 0.000, 0.000, 0.000, 15:33:50.879
215, -38305.77, 70445.39, 46095.22, 104948.77, 153283.34, 99361.26, -39268.53, -43509.37, -10192.93, -69206.45, -45365.52, -6049.10, -82080.32, -82712.83, -69863.64, -72221.75, 0.000, 0.000, 0.000, 15:33:50.879
216, -38305.77, 70445.39, 46095.22, 104948.77, 153283.34, 99361.26, -39268.53, -43509.37, -10328.05, -69176.50, -45374.87, -6003.79, -82106.36, -82710.59, -70234.74, -72535.90, 0.000, 0.000, 0.000, 15:33:50.879
217, -38293.14, 70436.13, 46100.61, 104967.05, 153277.73, 99417.49, -39825.46, -44000.17, -10328.05, -69176.50, -45374.87, -6003.79, -82106.36, -82710.59, -70234.74, -72535.90, 0.000, 0.000, 0.000, 15:33:50.879
218, -38293.14, 70436.13, 46100.61, 104967.05, 153277.73, 99417.49, -39825.46, -44000.17, -10151.96, -69214.90, -45320.15, -6037.54, -82090.89, -82734.64, -69930.27, -72279.33, -0.094, 0.914, -0.298, 15:33:50.879
219, -37962.05, 70415.99, 46069.16, 104939.16, 153254.63, 99397.82, -39087.23, -43713.02, -10151.96, -69214.90, -45320.15, -6037.54, -82090.89, -82734.64, -69930.27, -72279.33, 0.000, 0.000, 0.000, 15:33:50.880
220, -37962.05, 70415.99, 46069.16, 104939.16, 153254.63, 99397.82, -39087.23, -43713.02, -10360.97, -69207.44, -45437.03, -6009.60, -82143.09, -82762.63, -70069.27, -72375.08, 0.000, 0.000, 0.000, 15:33:50.880
221, -38509.80, 70442.39, 46078.84, 104974.79, 153267.92, 99346.55, -39666.23, -44259.16, -10360.97, -69207.44, -45437.03, -6009.60, -82143.09, -82762.63, -70069.27, -72375.08, 0.000, 0.000, 0.000, 15:33:50.880
222, -38509.80, 70442.39, 46078.84, 104974.79, 153267.92, 99346.55, -39666.23, -44259.16, -10177.04, -69190.60, -45305.31, -6013.45, -82099.25, -82689.43, -70140.51, -72449.76, 0.000, 0.000, 0.000, 15:33:50.880
223, -37948.07, 70419.28, 46067.23, 104931.27, 153254.86, 99398.02, -39404.05, -44218.16, -10177.04, -69190.60, -45305.31, -6013.45, -82099.25, -82689.43, -70140.51, -72449.76, 0.000, 0.000, 0.000, 15:33:50.880
224, -37948.07, 70419.28, 46067.23, 104931.27, 153254.86, 99398.02, -39404.05, -44218.16, -10203.37, -69216.35, -45377.66, -6039.24, -82112.35, -82769.55, -69840.02, -72196.04, 0.000, 0.000, 0.000, 15:33:50.880
225, -38258.16, 70462.48, 46089.52, 104985.42, 153286.17, 99368.16, -39129.39, -44256.81, -10203.37, -69216.35, -45377.66, -6039.24, -82112.35, -82769.55, -69840.02, -72196.04, 0.000, 0.000, 0.000, 15:33:50.881
226, -38258.16, 70462.48, 46089.52, 104985.42, 153286.17, 99368.16, -39129.39, -44256.81, -10336.83, -69176.05, -45382.98, -5990.04, -82124.44, -82694.27, -70219.01, -72516.66, 0.000, 0.000, 0.000, 15:33:50.881
227, -38252.66, 70474.69, 46106.66, 104954.34, 153300.13, 99405.65, -39694.59, -44743.70, -10336.83, -69176.05, -45382.98, -5990.04, -82124.44, -82694.27, -70219.01, -72516.66, 0.000, 0.000, 0.000, 15:33:50.881
228, -38252.66, 70474.69, 46106.66, 104954.34, 153300.13, 99405.65, -39694.59, -44743.70, -10091.81, -69213.07, -45299.77, -6042.88, -82064.12, -82725.93, -69885.43, -72256.99, -0.102, 0.918, -0.296, 15:33:50.881
229, -37886.54, 70455.69, 46087.95, 104920.18, 153286.52, 99369.55, -38927.24, -44422.01, -10091.81, -69213.07, -45299.77, -6042.88, -82064.12, -82725.93, -69885.43, -72256.99, 0.000, 0.000, 0.000, 15:33:50.881
230, -37886.54, 70455.69, 46087.95, 104920.18, 153286.52, 99369.55, -38927.24, -44422.01, -10321.95, -69215.93, -45429.56, -6031.37, -82146.93, -82748.50, -70044.38, -72391.04, 0.000, 0.000, 0.000, 15:33:50.882
231, -38489.66, 70493.53, 46103.94, 104960.80, 153293.42, 99330.14, -39545.11, -45001.21, -10321.95, -69215.93, -45429.56, -6031.37, -82146.93, -82748.50, -70044.38, -72391.04, 0.000, 0.000, 0.000, 15:33:50.882
232, -38489.66, 70493.53, 46103.94, 104960.80, 153293.42, 99330.14, -39545.11, -45001.21, -10143.38, -69213.90, -45293.73, -6035.82, -82046.10, -82705.32, -70121.80, -72476.83, 0.000, 0.000, 0.000, 15:33:50.882
233, -37918.19, 70469.59, 46087.82, 104911.75, 153269.28, 99379.32, -39272.37, -44936.30, -10143.38, -69213.90, -45293.73, -6035.82, -82046.10, -82705.32, -70121.80, -72476.83, 0.000, 0.000, 0.000, 15:33:50.882
234, -37918.19, 70469.59, 46087.82, 104911.75, 153269.28, 99379.32, -39272.37, -44936.30, -10159.78, -69222.86, -45349.03, -6041.99, -82091.65, -82769.67, -69833.53, -72235.98, 0.000, 0.000, 0.000, 15:33:50.882
235, -38260.95, 70498.63, 46112.05, 104967.66, 153284.08, 99320.73, -39023.17, -44996.47, -10159.78, -69222.86, -45349.03, -6041.99, -82091.65, -82769.67, -69833.53, -72235.98, 0.000, 0.000, 0.000, 15:33:50.882
236, -38260.95, 70498.63, 46112.05, 104967.66, 153284.08, 99320.73, -39023.17, -44996.47, -10282.56, -69172.03, -45357.93, -6001.40, -82106.42, -82704.63, -70210.09, -72550.12, 0.000, 0.000, 0.000, 15:33:50.883
237, -38264.22, 70490.85, 46117.86, 104949.93, 153275.45, 99367.45, -39588.67, -45471.20, -10282.56, -69172.03, -45357.93, -6001.40, -82106.42, -82704.63, -70210.09, -72550.12, 0.000, 0.000, 0.000, 15:33:51.342
238, -38264.22, 70490.85, 46117.86, 104949.93, 153275.45, 99367.45, -39588.67, -45471.20, -10106.88, -69205.98, -45289.28, -6042.32, -82071.45, -82739.05, -69897.32, -72293.32, -0.126, 0.928, -0.292, 15:33:51.342
239, -37894.66, 70475.85, 46116.16, 104932.32, 153274.36, 99357.57, -38833.34, -45154.79, -10106.88, -69205.98, -45289.28, -6042.32, -82071.45, -82739.05, -69897.32, -72293.32, 0.000, 0.000, 0.000, 15:33:51.343
240, -37894.66, 70475.85, 46116.16, 104932.32, 153274.36, 99357.57, -38833.34, -45154.79, -10303.91, -69180.44, -45388.86, -5999.54, -82106.94, -82707.42, -70002.35, -72374.39, 0.000, 0.000, 0.000, 15:33:51.343
241, -38469.36, 70510.85, 46160.93, 104992.04, 153308.53, 99330.99, -39406.57, -45691.08, -10303.91, -69180.44, -45388.86, -5999.54, -82106.94, -82707.42, -70002.35, -72374.39, 0.000, 0.000, 0.000, 15:33:51.344
242, -38469.36, 70510.85, 46160.93, 104992.04, 153308.53, 99330.99, -39406.57, -45691.08, -10161.53, -69179.56, -45264.92, -6005.42, -82044.89, -82731.42, -70078.46, -72457.05, 0.000, 0.000, 0.000, 15:33:51.344
243, -37912.36, 70483.45, 46139.57, 104942.95, 153284.13, 99381.73, -39162.33, -45645.21, -10161.53, -69179.56, -45264.92, -6005.42, -82044.89, -82731.42, -70078.46, -72457.05, 0.000, 0.000, 0.000, 15:33:51.344
244, -37912.36, 70483.45, 46139.57, 104942.95, 153284.13, 99381.73, -39162.33, -45645.21, -10147.02, -69205.58, -45326.61, -6027.39, -82059.17, -82747.50, -69786.30, -72200.22, 0.000, 0.000, 0.000, 15:33:51.344
245, -38219.05, 70499.34, 46136.28, 104971.63, 153292.55, 99319.37, -38876.84, -45676.61, -10147.02, -69205.58, -45326.61, -6027.39, -82059.17, -82747.50, -69786.30, -72200.22, 0.000, 0.000, 0.000, 15:33:51.345
246, -38219.05, 70499.34, 46136.28, 104971.63, 153292.55, 99319.37, -38876.84, -45676.61, -10283.59, -69174.67, -45349.70, -5991.41, -82066.95, -82732.61, -70183.38, -72522.58, 0.000, 0.000, 0.000, 15:33:51.345
247, -38244.28, 70501.13, 46142.45, 104960.57, 153295.39, 99355.63, -39444.79, -46153.94, -10283.59, -69174.67, -45349.70, -5991.41, -82066.95, -82732.61, -70183.38, -72522.58, -0.132, 0.916, -0.294, 15:33:51.345
248, -38244.28, 70501.13, 46142.45, 104960.57, 153295.39, 99355.63, -39444.79, -46153.94, -10086.72, -69178.53, -45271.78, -6011.50, -82021.69, -82719.84, -69887.51, -72282.19, 0.000, 0.000, 0.000, 15:33:51.345
249, -37885.31, 70488.57, 46127.00, 104951.34, 153287.92, 99367.41, -38705.00, -45857.44, -10086.72, -69178.53, -45271.78, -6011.50, -82021.69, -82719.84, -69887.51, -72282.19, 0.000, 0.000, 0.000, 15:33:51.345
250, -37885.31, 70488.57, 46127.00, 104951.34, 153287.92, 99367.41, -38705.00, -45857.44, -10306.30, -69169.30, -45398.67, -5985.35, -82088.30, -82683.70, -70005.64, -72364.80, 0.000, 0.000, 0.000, 15:33:51.345
251, -38481.75, 70508.13, 46137.20, 104973.78, 153306.09, 99313.34, -39282.09, -46401.08, -10306.30, -69169.30, -45398.67, -5985.35, -82088.30, -82683.70, -70005.64, -72364.80, 0.000, 0.000, 0.000, 15:33:51.345
252, -38481.75, 70508.13, 46137.20, 104973.78, 153306.09, 99313.34, -39282.09, -46401.08, -10178.34, -69181.59, -45294.09, -6002.14, -82065.21, -82750.80, -70118.74, -72473.72, 0.000, 0.000, 0.000, 15:33:51.346
253, -37968.75, 70476.41, 46106.68, 104931.49, 153276.56, 99374.58, -39080.68, -46390.44, -10178.34, -69181.59, -45294.09, -6002.14, -82065.21, -82750.80, -70118.74, -72473.72, 0.000, 0.000, 0.000, 15:33:51.346
254, -37968.75, 70476.41, 46106.68, 104931.49, 153276.56, 99374.58, -39080.68, -46390.44, -10185.60, -69208.42, -45361.43, -6026.41, -82063.31, -82783.02, -69830.24, -72226.42, 0.000, 0.000, 0.000, 15:33:51.346
255, -38272.38, 70496.23, 46109.01, 104960.93, 153282.09, 99316.53, -38774.66, -46408.03, -10185.60, -69208.42, -45361.43, -6026.41, -82063.31, -82783.02, -69830.24, -72226.42, 0.000, 0.000, 0.000, 15:33:51.346
0, -38272.38, 70496.23, 46109.01, 104960.93, 153282.09, 99316.53, -38774.66, -46408.03, -10330.08, -69165.37, -45365.32, -5975.22, -82075.29, -82738.60, -70223.23, -72535.03, 0.000, 0.000, 0.000, 15:33:51.346
1, -38329.91, 70505.20, 46110.69, 104955.23, 153275.81, 99365.39, -39369.42, -46902.32, -10330.08, -69165.37, -45365.32, -5975.22, -82075.29, -82738.60, -70223.23, -72535.03, -0.136, 0.898, -0.288, 15:33:51.346
2, -38329.91, 70505.20, 46110.69, 104955.23, 153275.81, 99365.39, -39369.42, -46902.32, -10206.23, -69183.36, -45292.52, -6004.30, -82041.59, -82743.77, -69945.45, -72300.34, 0.000, 0.000, 0.000, 15:33:51.347
3, -37953.89, 70485.64, 46086.28, 104939.94, 153258.70, 99355.42, -38625.20, -46598.65, -10206.23, -69183.36, -45292.52, -6004.30, -82041.59, -82743.77, -69945.45, -72300.34, 0.000, 0.000, 0.000, 15:33:51.347
4, -37953.89, 70485.64, 46086.28, 104939.94, 153258.70, 99355.42, -38625.20, -46598.65, -10440.57, -69183.59, -45418.68, -5977.91, -82096.95, -82747.95, -70057.23, -72375.77, 0.000, 0.000, 0.000, 15:33:51.347
5, -38537.80, 70507.44, 46104.76, 104973.82, 153278.22, 99312.28, -39176.21, -47113.56, -10440.57, -69183.59, -45418.68, -5977.91, -82096.95, -82747.95, -70057.23, -72375.77, 0.000, 0.000, 0.000, 15:33:51.347
6, -38537.80, 70507.44, 46104.76, 104973.82, 153278.22, 99312.28, -39176.21, -47113.56, -10268.68, -69175.72, -45300.55, -5982.51, -82047.48, -82751.32, -70163.11, -72470.99, 0.000, 0.000, 0.000, 15:33:51.347
7, -38004.20, 70491.79, 46094.23, 104934.15, 153260.55, 99377.44, -38979.47, -47099.04, -10268.68, -69175.72, -45300.55, -5982.51, -82047.48, -82751.32, -70163.11, -72470.99, 0.000, 0.000, 0.000, 15:33:51.348
8, -38004.20, 70491.79, 46094.23, 104934.15, 153260.55, 99377.44, -38979.47, -47099.04, -10263.47, -69194.65, -45351.57, -6005.58, -82065.45, -82754.56, -69861.73, -72218.17, 0.000, 0.000, 0.000, 15:33:51.348
9, -38273.02, 70503.86, 46110.98, 104964.57, 153278.84, 99307.26, -38650.75, -47095.35, -10263.47, -69194.65, -45351.57, -6005.58, -82065.45, -82754.56, -69861.73, -72218.17, 0.000, 0.000, 0.000, 15:33:51.348
10, -38273.02, 70503.86, 46110.98, 104964.57, 153278.84, 99307.26, -38650.75, -47095.35, -10414.01, -69173.48, -45366.11, -5951.42, -82076.48, -82754.05, -70237.00, -72525.10, 0.000, 0.000, 0.000, 15:33:51.348
11, -38329.91, 70503.34, 46120.21, 104963.37, 153277.50, 99334.14, -39254.71, -47586.66, -10414.01, -69173.48, -45366.11, -5951.42, -82076.48, -82754.05, -70237.00, -72525.10, -0.134, 0.894, -0.298, 15:33:51.348
12, -38329.91, 70503.34, 46120.21, 104963.37, 153277.50, 99334.14, -39254.71, -47586.66, -10207.24, -69212.17, -45281.01, -5989.48, -82038.68, -82773.94, -69936.28, -72284.29, 0.000, 0.000, 0.000, 15:33:51.349
13, -37910.28, 70501.16, 46118.46, 104951.36, 153275.47, 99332.47, -38486.30, -47251.32, -10207.24, -69212.17, -45281.01, -5989.48, -82038.68, -82773.94, -69936.28, -72284.29, 0.000, 0.000, 0.000, 15:33:51.349
14, -37910.28, 70501.16, 46118.46, 104951.36, 153275.47, 99332.47, -38486.30, -47251.32, -10407.08, -69172.73, -45386.07, -5943.82, -82073.62, -82770.23, -70024.75, -72352.46, 0.000, 0.000, 0.000, 15:33:51.349
15, -38524.88, 70538.26, 46150.11, 105003.66, 153316.28, 99280.59, -39051.40, -47781.23, -10407.08, -69172.73, -45386.07, -5943.82, -82073.62, -82770.23, -70024.75, -72352.46, 0.000, 0.000, 0.000, 15:33:51.349
16, -38524.88, 70538.26, 46150.11, 105003.66, 153316.28, 99280.59, -39051.40, -47781.23, -10275.77, -69169.37, -45270.73, -5966.98, -82029.96, -82730.93, -70139.46, -72469.25, 0.000, 0.000, 0.000, 15:33:51.349
17, -37991.73, 70504.71, 46121.08, 104946.87, 153287.00, 99355.65, -38856.96, -47757.18, -10275.77, -69169.37, -45270.73, -5966.98, -82029.96, -82730.93, -70139.46, -72469.25, 0.000, 0.000, 0.000, 15:33:51.349
18, -37991.73, 70504.71, 46121.08, 104946.87, 153287.00, 99355.65, -38856.96, -47757.18, -10277.42, -69177.35, -45330.36, -5976.36, -82057.72, -82799.38, -69816.32, -72184.48, 0.000, 0.000, 0.000, 15:33:51.350
19, -38222.13, 70513.52, 46130.58, 104997.23, 153300.48, 99283.59, -38482.91, -47705.04, -10277.42, -69177.35, -45330.36, -5976.36, -82057.72, -82799.38, -69816.32, -72184.48, 0.000, 0.000, 0.000, 15:33:51.350
20, -38222.13, 70513.52, 46130.58, 104997.23, 153300.48, 99283.59, -38482.91, -47705.04, -10428.54, -69163.07, -45360.36, -5937.52, -82107.70, -82757.30, -70205.77, -72503.85, 0.000, 0.000, 0.000, 15:33:51.350
21, -38318.80, 70529.61, 46148.37, 104976.33, 153299.55, 99316.02, -39107.57, -48206.05, -10428.54, -69163.07, -45360.36, -5937.52, -82107.70, -82757.30, -70205.77, -72503.85, -0.136, 0.910, -0.292, 15:33:51.350
22, -38318.80, 70529.61, 46148.37, 104976.33, 153299.55, 99316.02, -39107.57, -48206.05, -10195.57, -69181.80, -45261.01, -5979.34, -82065.03, -82743.56, -69930.09, -72288.96, 0.000, 0.000, 0.000, 15:33:51.350
23, -37905.18, 70507.80, 46130.76, 104947.05, 153281.50, 99319.91, -38361.71, -47883.36, -10195.57, -69181.80, -45261.01, -5979.34, -82065.03, -82743.56, -69930.09, -72288.96, 0.000, 0.000, 0.000, 15:33:51.350
24, -37905.18, 70507.80, 46130.76, 104947.05, 153281.50, 99319.91, -38361.71, -47883.36, -10409.30, -69160.63, -45389.26, -5950.68, -82091.38, -82767.32, -70029.82, -72361.65, 0.000, 0.000, 0.000, 15:33:51.351
25, -38520.04, 70531.33, 46143.01, 104989.65, 153301.38, 99248.34, -38918.81, -48406.88, -10409.30, -69160.63, -45389.26, -5950.68, -82091.38, -82767.32, -70029.82, -72361.65, 0.000, 0.000, 0.000, 15:33:51.351
26, -38520.04, 70531.33, 46143.01, 104989.65, 153301.38, 99248.34, -38918.81, -48406.88, -10268.21, -69168.84, -45273.32, -5963.36, -82077.13, -82784.76, -70169.30, -72491.64, 0.000, 0.000, 0.000, 15:33:51.351
27, -38010.01, 70509.94, 46117.57, 104939.78, 153271.97, 99334.63, -38757.41, -48403.59, -10268.21, -69168.84, -45273.32, -5963.36, -82077.13, -82784.76, -70169.30, -72491.64, 0.000, 0.000, 0.000, 15:33:51.351
28, -38010.01, 70509.94, 46117.57, 104939.78, 153271.97, 99334.63, -38757.41, -48403.59, -10247.09, -69186.60, -45320.06, -5978.31, -82086.84, -82785.36, -69859.50, -72225.13, 0.000, 0.000, 0.000, 15:33:51.351
29, -38253.91, 70529.01, 46119.92, 104968.98, 153280.39, 99264.81, -38401.55, -48372.62, -10247.09, -69186.60, -45320.06, -5978.31, -82086.84, -82785.36, -69859.50, -72225.13, 0.000, 0.000, 0.000, 15:33:51.352
30, -38253.91, 70529.01, 46119.92, 104968.98, 153280.39, 99264.81, -38401.55, -48372.62, -10426.78, -69152.45, -45362.46, -5941.25, -82117.42, -82746.76, -70239.28, -72529.93, 0.000, 0.000, 0.000, 15:33:51.352
31, -38360.89, 70528.18, 46120.07, 104948.74, 153275.89, 99292.03, -39029.95, -48866.59, -10426.78, -69152.45, -45362.46, -5941.25, -82117.42, -82746.76, -70239.28, -72529.93, -0.130, 0.916, -0.292, 15:33:51.352
32, -38360.89, 70528.18, 46120.07, 104948.74, 153275.89, 99292.03, -39029.95, -48866.59, -10206.72, -69174.34, -45281.05, -5983.00, -82078.73, -82767.41, -69976.94, -72324.32, 0.000, 0.000, 0.000, 15:33:51.352
33, -37954.47, 70501.49, 46099.78, 104926.28, 153262.73, 99285.26, -38308.25, -48560.21, -10206.72, -69174.34, -45281.05, -5983.00, -82078.73, -82767.41, -69976.94, -72324.32, 0.000, 0.000, 0.000, 15:33:51.352
34, -37954.47, 70501.49, 46099.78, 104926.28, 153262.73, 99285.26, -38308.25, -48560.21, -10418.95, -69192.57, -45414.34, -5964.85, -82140.42, -82765.40, -70044.71, -72368.15, 0.000, 0.000, 0.000, 15:33:51.352
35, -38521.40, 70514.23, 46106.46, 104948.84, 153274.25, 99199.95, -38797.00, -49016.70, -10418.95, -69192.57, -45414.34, -5964.85, -82140.42, -82765.40, -70044.71, -72368.15, 0.000, 0.000, 0.000, 15:33:51.353
36, -38521.40, 70514.23, 46106.46, 104948.84, 153274.25, 99199.95, -38797.00, -49016.70, -10305.25, -69172.27, -45303.39, -5959.35, -82089.69, -82755.97, -70195.70, -72502.77, 0.000, 0.000, 0.000, 15:33:51.353
37, -38018.71, 70500.77, 46102.35, 104934.87, 153269.45, 99310.59, -38652.47, -49018.60, -10305.25, -69172.27, -45303.39, -5959.35, -82089.69, -82755.97, -70195.70, -72502.77, 0.000, 0.000, 0.000, 15:33:51.353
38, -38018.71, 70500.77, 46102.35, 104934.87, 153269.45, 99310.59, -38652.47, -49018.60, -10263.63, -69185.69, -45337.90, -5971.89, -82085.84, -82781.90, -69878.63, -72225.62, 0.000, 0.000, 0.000, 15:33:51.353
39, -38257.60, 70501.53, 46102.46, 104957.98, 153285.20, 99238.63, -38282.52, -48976.83, -10263.63, -69185.69, -45337.90, -5971.89, -82085.84, -82781.90, -69878.63, -72225.62, 0.000, 0.000, 0.000, 15:33:51.353
40, -38257.60, 70501.53, 46102.46, 104957.98, 153285.20, 99238.63, -38282.52, -48976.83, -10449.95, -69165.99, -45383.88, -5939.39, -82119.50, -82752.39, -70264.38, -72536.41, 0.000, 0.000, 0.000, 15:33:51.353
41, -38388.02, 70502.30, 46113.50, 104949.80, 153299.48, 99265.91, -38927.30, -49486.63, -10449.95, -69165.99, -45383.88, -5939.39, -82119.50, -82752.39, -70264.38, -72536.41, -0.130, 0.916, -0.288, 15:33:51.354
42, -38388.02, 70502.30, 46113.50, 104949.80, 153299.48, 99265.91, -38927.30, -49486.63, -10231.42, -69200.73, -45297.51, -5982.67, -82068.18, -82741.93, -69990.57, -72320.23, 0.000, 0.000, 0.000, 15:33:51.354
43, -37959.14, 70471.67, 46080.02, 104906.01, 153274.94, 99257.84, -38184.96, -49159.29, -10231.42, -69200.73, -45297.51, -5982.67, -82068.18, -82741.93, -69990.57, -72320.23, 0.000, 0.000, 0.000, 15:33:51.354
44, -37959.14, 70471.67, 46080.02, 104906.01, 153274.94, 99257.84, -38184.96, -49159.29, -10443.72, -69182.98, -45424.33, -5958.33, -82133.27, -82743.48, -70072.02, -72371.39, 0.000, 0.000, 0.000, 15:33:51.354
45, -38555.13, 70509.38, 46107.71, 104961.66, 153304.23, 99188.19, -38688.68, -49630.21, -10443.72, -69182.98, -45424.33, -5958.33, -82133.27, -82743.48, -70072.02, -72371.39, 0.000, 0.000, 0.000, 15:33:51.354
46, -38555.13, 70509.38, 46107.71, 104961.66, 153304.23, 99188.19, -38688.68, -49630.21, -10328.70, -69165.03, -45307.19, -5949.18, -82092.81, -82778.30, -70217.38, -72494.80, 0.000, 0.000, 0.000, 15:33:51.354
47, -38052.39, 70482.40, 46094.37, 104934.87, 153291.09, 99271.49, -38555.02, -49634.28, -10328.70, -69165.03, -45307.19, -5949.18, -82092.81, -82778.30, -70217.38, -72494.80, 0.000, 0.000, 0.000, 15:33:51.355
48, -38052.39, 70482.40, 46094.37, 104934.87, 153291.09, 99271.49, -38555.02, -49634.28, -10297.96, -69195.32, -45350.35, -5971.07, -82109.31, -82803.29, -69899.02, -72223.20, 0.000, 0.000, 0.000, 15:33:51.355
49, -38270.92, 70488.44, 46087.48, 104948.70, 153286.61, 99178.35, -38167.05, -49581.20, -10297.96, -69195.32, -45350.35, -5971.07, -82109.31, -82803.29, -69899.02, -72223.20, 0.000, 0.000, 0.000, 15:33:51.355
50, -38270.92, 70488.44, 46087.48, 104948.70, 153286.61, 99178.35, -38167.05, -49581.20, -10496.51, -69165.21, -45390.18, -5926.65, -82140.69, -82765.00, -70273.79, -72524.57, -0.128, 0.918, -0.298, 15:33:51.355
51, -38396.32, 70504.75, 46115.07, 104961.91, 153290.81, 99250.37, -38795.39, -50067.82, -10496.51, -69165.21, -45390.18, -5926.65, -82140.69, -82765.00, -70273.79, -72524.57, 0.000, 0.000, 0.000, 15:33:51.355
52, -38396.32, 70504.75, 46115.07, 104961.91, 153290.81, 99250.37, -38795.39, -50067.82, -10244.97, -69170.89, -45276.99, -5956.78, -82094.11, -82758.83, -69991.13, -72291.38, 0.000, 0.000, 0.000, 15:33:51.356
53, -37937.55, 70491.32, 46097.86, 104936.09, 153267.09, 99233.83, -38039.07, -49720.65, -10244.97, -69170.89, -45276.99, -5956.78, -82094.11, -82758.83, -69991.13, -72291.38, 0.000, 0.000, 0.000, 15:33:51.356
54, -37937.55, 70491.32, 46097.86, 104936.09, 153267.09, 99233.83, -38039.07, -49720.65, -10448.50, -69171.20, -45397.15, -5918.38, -82146.88, -82746.40, -70058.19, -72337.59, 0.000, 0.000, 0.000, 15:33:51.356
55, -38539.32, 70523.17, 46122.93, 104974.41, 153285.02, 99146.01, -38529.24, -50184.22, -10448.50, -69171.20, -45397.15, -5918.38, -82146.88, -82746.40, -70058.19, -72337.59, 0.000, 0.000, 0.000, 15:33:51.356
56, -38539.32, 70523.17, 46122.93, 104974.41, 153285.02, 99146.01, -38529.24, -50184.22, -10314.26, -69163.91, -45284.03, -5920.82, -82099.59, -82738.24, -70215.63, -72497.05, 0.000, 0.000, 0.000, 15:33:51.356
57, -38072.21, 70513.45, 46121.46, 104950.42, 153275.30, 99250.68, -38443.86, -50221.80, -10314.26, -69163.91, -45284.03, -5920.82, -82099.59, -82738.24, -70215.63, -72497.05, 0.000, 0.000, 0.000, 15:33:51.356
58, -38072.21, 70513.45, 46121.46, 104950.42, 153275.30, 99250.68, -38443.86, -50221.80, -10267.14, -69178.76, -45302.56, -5950.62, -82100.84, -82749.66, -69885.77, -72221.77, 0.000, 0.000, 0.000, 15:33:51.357
59, -38281.34, 70510.43, 46114.82, 104960.88, 153269.44, 99171.16, -38045.98, -50154.21, -10267.14, -69178.76, -45302.56, -5950.62, -82100.84, -82749.66, -69885.77, -72221.77, 0.000, 0.000, 0.000, 15:33:51.357
60, -38281.34, 70510.43, 46114.82, 104960.88, 153269.44, 99171.16, -38045.98, -50154.21, -10458.38, -69150.33, -45358.21, -5901.42, -82151.48, -82731.60, -70257.03, -72523.95, -0.136, 0.920, -0.292, 15:33:51.357
61, -38433.02, 70520.11, 46129.57, 104962.56, 153273.69, 99207.37, -38698.54, -50655.38, -10458.38, -69150.33, -45358.21, -5901.42, -82151.48, -82731.60, -70257.03, -72523.95, 0.000, 0.000, 0.000, 15:33:51.357
62, -38433.02, 70520.11, 46129.57, 104962.56, 153273.69, 99207.37, -38698.54, -50655.38, -10223.44, -69180.48, -45266.33, -5957.68, -82075.54, -82696.42, -69979.06, -72315.70, 0.000, 0.000, 0.000, 15:33:51.357
63, -37955.68, 70506.16, 46108.05, 104929.34, 153257.61, 99220.84, -37947.52, -50304.77, -10223.44, -69180.48, -45266.33, -5957.68, -82075.54, -82696.42, -69979.06, -72315.70, 0.000, 0.000, 0.000, 15:33:51.358
64, -37955.68, 70506.16, 46108.05, 104929.34, 153257.61, 99220.84, -37947.52, -50304.77, -10416.14, -69161.99, -45394.25, -5952.00, -82135.51, -82685.58, -70016.91, -72348.64, 0.000, 0.000, 0.000, 15:33:51.358
65, -38555.11, 70525.48, 46119.11, 104967.90, 153279.89, 99154.23, -38422.20, -50750.98, -10416.14, -69161.99, -45394.25, -5952.00, -82135.51, -82685.58, -70016.91, -72348.64, 0.000, 0.000, 0.000, 15:33:51.358
66, -38555.11, 70525.48, 46119.11, 104967.90, 153279.89, 99154.23, -38422.20, -50750.98, -10326.55, -69158.04, -45298.80, -5970.04, -82094.02, -82728.52, -70191.56, -72518.34, 0.000, 0.000, 0.000, 15:33:51.358
67, -38110.68, 70500.82, 46107.13, 104946.00, 153289.06, 99230.41, -38368.11, -50808.64, -10326.55, -69158.04, -45298.80, -5970.04, -82094.02, -82728.52, -70191.56, -72518.34, 0.000, 0.000, 0.000, 15:33:51.358
