%OpenBCI Raw EEG Data
%
%Sample Rate = 250.0 Hz
%First Column = SampleIndex
%Last Column = Timestamp 
%Other Columns = EEG data in microvolts followed by Accel Data (in G) interleaved with Aux Data
0, 0.00, 0.00, 0.00, 0.00, 0.00, 0.00, 0.00, 0.00, -1680.02, -34787.43, -22996.37, -2984.94, -41296.37, -41645.48, -35163.16, -36141.61, 0.000, 0.000, 0.000, 15:35:18.914
1, -14.37, -10.97, -13.39, -10.06, -9.39, -12.61, -11.89, -10.28, -1680.02, -34787.43, -22996.37, -2984.94, -41296.37, -41645.48, -35163.16, -36141.61, -0.050, 0.940, -0.242, 15:35:19.396
2, -14.37, -10.97, -13.39, -10.06, -9.39, -12.61, -11.89, -10.28, -21.59, -19.45, -22.84, -23.49, -30.80, -23.51, -24.45, -19.89, 0.000, 0.000, 0.000, 15:35:19.396
3, -28.95, -22.06, -27.02, -20.12, -19.02, -25.17, -23.60, -20.34, -21.59, -19.45, -22.84, -23.49, -30.80, -23.51, -24.45, -19.89, 0.000, 0.000, 0.000, 15:35:19.396
4, -28.95, -22.06, -27.02, -20.12, -19.02, -25.17, -23.60, -20.34, -21.41, -19.60, -22.62, -23.47, -31.11, -23.63, -24.59, -19.83, 0.000, 0.000, 0.000, 15:35:19.396
5, -28.83, -21.93, -26.96, -20.12, -18.80, -25.37, -23.54, -20.41, -21.41, -19.60, -22.62, -23.47, -31.11, -23.63, -24.59, -19.83, 0.000, 0.000, 0.000, 15:35:19.396
6, -28.83, -21.93, -26.96, -20.12, -18.80, -25.37, -23.54, -20.41, -21.37, -19.71, -22.78, -23.34, -31.09, -23.45, -24.52, -19.89, 0.000, 0.000, 0.000, 15:35:19.397
7, -28.95, -21.84, -26.87, -19.98, -19.20, -25.30, -23.60, -20.47, -21.37, -19.71, -22.78, -23.34, -31.09, -23.45, -24.52, -19.89, 0.000, 0.000, 0.000, 15:35:19.397
8, -28.95, -21.84, -26.87, -19.98, -19.20, -25.30, -23.60, -20.47, -21.28, -19.60, -22.78, -23.18, -30.76, -23.72, -24.70, -19.83, -0.024, 0.944, -0.188, 15:35:19.397
9, -28.74, -21.77, -26.89, -20.05, -19.02, -25.17, -23.65, -20.50, -21.28, -19.60, -22.78, -23.18, -30.76, -23.72, -24.70, -19.83, 0.000, 0.000, 0.000, 15:35:19.397
10, -28.74, -21.77, -26.89, -20.05, -19.02, -25.17, -23.65, -20.50, -21.46, -19.56, -22.78, -23.13, -30.91, -23.47, -24.77, -19.94, 0.000, 0.000, 0.000, 15:35:19.397
11, -28.81, -21.68, -26.91, -19.98, -19.11, -25.21, -23.78, -20.09, -21.46, -19.56, -22.78, -23.13, -30.91, -23.47, -24.77, -19.94, 0.000, 0.000, 0.000, 15:35:19.397
12, -28.81, -21.68, -26.91, -19.98, -19.11, -25.21, -23.78, -20.09, -21.35, -19.96, -22.75, -23.09, -30.80, -23.54, -24.70, -20.05, 0.000, 0.000, 0.000, 15:35:19.398
13, -28.95, -21.90, -26.55, -19.96, -19.07, -25.32, -23.67, -20.38, -21.35, -19.96, -22.75, -23.09, -30.80, -23.54, -24.70, -20.05, 0.000, 0.000, 0.000, 15:35:19.398
14, -28.95, -21.90, -26.55, -19.96, -19.07, -25.32, -23.67, -20.38, -21.32, -19.83, -22.64, -23.29, -30.98, -23.69, -24.39, -19.85, 0.000, 0.000, 0.000, 15:35:19.398
15, -29.08, -21.90, -26.87, -19.80, -18.82, -25.24, -23.60, -20.72, -21.32, -19.83, -22.64, -23.29, -30.98, -23.69, -24.39, -19.85, 0.000, 0.000, 0.000, 15:35:19.398
16, -29.08, -21.90, -26.87, -19.80, -18.82, -25.24, -23.60, -20.72, -21.37, -19.85, -22.71, -23.25, -30.91, -23.49, -24.41, -20.00, 0.000, 0.000, 0.000, 15:35:19.398
17, -29.06, -21.73, -26.80, -20.03, -18.71, -25.30, -23.56, -20.59, -21.37, -19.85, -22.71, -23.25, -30.91, -23.49, -24.41, -20.00, -0.028, 0.942, -0.180, 15:35:19.398
18, -29.06, -21.73, -26.80, -20.03, -18.71, -25.30, -23.56, -20.59, -21.06, -19.83, -22.80, -23.31, -30.80, -23.45, -24.25, -19.85, 0.000, 0.000, 0.000, 15:35:19.399
19, -28.86, -21.73, -26.93, -20.05, -18.80, -25.28, -23.69, -20.50, -21.06, -19.83, -22.80, -23.31, -30.80, -23.45, -24.25, -19.85, 0.000, 0.000, 0.000, 15:35:19.399
20, -28.86, -21.73, -26.93, -20.05, -18.80, -25.28, -23.69, -20.50, -21.12, -19.54, -22.51, -23.22, -30.85, -23.34, -24.43, -19.83, 0.000, 0.000, 0.000, 15:35:19.399
21, -29.10, -21.97, -27.14, -20.00, -19.04, -25.17, -23.74, -20.59, -21.12, -19.54, -22.51, -23.22, -30.85, -23.34, -24.43, -19.83, 0.000, 0.000, 0.000, 15:35:19.399
22, -29.10, -21.97, -27.14, -20.00, -19.04, -25.17, -23.74, -20.59, -21.50, -19.74, -22.80, -23.25, -30.89, -23.36, -24.59, -20.14, 0.000, 0.000, 0.000, 15:35:19.399
23, -29.08, -22.02, -27.02, -19.89, -18.93, -25.19, -23.60, -20.32, -21.50, -19.74, -22.80, -23.25, -30.89, -23.36, -24.59, -20.14, 0.000, 0.000, 0.000, 15:35:19.399
24, -29.08, -22.02, -27.02, -19.89, -18.93, -25.19, -23.60, -20.32, -21.26, -19.71, -22.62, -23.38, -30.96, -23.63, -24.56, -19.92, 0.000, 0.000, 0.000, 15:35:19.400
25, -28.95, -21.79, -27.05, -19.87, -18.98, -25.35, -23.87, -20.50, -21.26, -19.71, -22.62, -23.38, -30.96, -23.63, -24.56, -19.92, 0.000, 0.000, 0.000, 15:35:19.400
26, -28.95, -21.79, -27.05, -19.87, -18.98, -25.35, -23.87, -20.50, -21.37, -19.83, -22.73, -23.36, -30.87, -23.74, -24.52, -19.80, 0.000, 0.000, 0.000, 15:35:19.400
27, -28.74, -22.02, -26.82, -19.96, -19.09, -25.12, -23.85, -20.41, -21.37, -19.83, -22.73, -23.36, -30.87, -23.74, -24.52, -19.80, -0.030, 0.936, -0.184, 15:35:19.400
28, -28.74, -22.02, -26.82, -19.96, -19.09, -25.12, -23.85, -20.41, -21.37, -19.60, -22.58, -23.27, -30.80, -23.60, -24.54, -19.83, 0.000, 0.000, 0.000, 15:35:19.400
29, -28.90, -21.79, -26.80, -20.00, -18.78, -25.15, -23.69, -20.47, -21.37, -19.60, -22.58, -23.27, -30.80, -23.60, -24.54, -19.83, 0.000, 0.000, 0.000, 15:35:19.400
30, -28.90, -21.79, -26.80, -20.00, -18.78, -25.15, -23.69, -20.47, -21.28, -19.56, -22.66, -23.45, -30.93, -23.40, -24.77, -19.92, 0.000, 0.000, 0.000, 15:35:19.401
31, -28.86, -21.84, -26.98, -19.96, -18.89, -25.41, -23.78, -20.70, -21.28, -19.56, -22.66, -23.45, -30.93, -23.40, -24.77, -19.92, 0.000, 0.000, 0.000, 15:35:19.401
32, -28.86, -21.84, -26.98, -19.96, -18.89, -25.41, -23.78, -20.70, -21.26, -19.71, -22.78, -23.25, -31.09, -23.51, -24.56, -19.96, 0.000, 0.000, 0.000, 15:35:19.401
33, -28.72, -21.82, -26.98, -19.74, -18.91, -25.26, -23.76, -20.38, -21.26, -19.71, -22.78, -23.25, -31.09, -23.51, -24.56, -19.96, 0.000, 0.000, 0.000, 15:35:19.401
34, -28.72, -21.82, -26.98, -19.74, -18.91, -25.26, -23.76, -20.38, -21.59, -19.78, -22.62, -23.29, -30.98, -23.69, -24.59, -19.89, 0.000, 0.000, 0.000, 15:35:19.401
35, -28.83, -21.75, -27.27, -19.83, -18.95, -25.12, -23.87, -20.27, -21.59, -19.78, -22.62, -23.29, -30.98, -23.69, -24.59, -19.89, 0.000, 0.000, 0.000, 15:35:19.401
36, -28.83, -21.75, -27.27, -19.83, -18.95, -25.12, -23.87, -20.27, -21.46, -19.58, -22.75, -23.40, -31.02, -23.65, -24.50, -20.09, 0.000, 0.000, 0.000, 15:35:19.402
37, -28.97, -21.79, -26.98, -19.92, -18.89, -25.21, -23.69, -20.38, -21.46, -19.58, -22.75, -23.40, -31.02, -23.65, -24.50, -20.09, -0.028, 0.926, -0.176, 15:35:19.402
38, -28.97, -21.79, -26.98, -19.92, -18.89, -25.21, -23.69, -20.38, -21.44, -19.49, -22.66, -23.16, -30.96, -23.69, -24.50, -19.80, 0.000, 0.000, 0.000, 15:35:19.402
39, -28.88, -21.79, -26.93, -19.94, -18.89, -25.30, -23.67, -20.47, -21.44, -19.49, -22.66, -23.16, -30.96, -23.69, -24.50, -19.80, 0.000, 0.000, 0.000, 15:35:19.402
40, -28.88, -21.79, -26.93, -19.94, -18.89, -25.30, -23.67, -20.47, -21.30, -19.54, -22.71, -23.38, -30.85, -23.87, -24.41, -19.87, 0.000, 0.000, 0.000, 15:35:19.403
41, -28.83, -21.77, -26.87, -20.05, -19.13, -25.50, -23.69, -20.70, -21.30, -19.54, -22.71, -23.38, -30.85, -23.87, -24.41, -19.87, 0.000, 0.000, 0.000, 15:35:19.403
42, -28.83, -21.77, -26.87, -20.05, -19.13, -25.50, -23.69, -20.70, -21.32, -19.56, -22.75, -23.29, -30.93, -23.60, -24.39, -19.87, 0.000, 0.000, 0.000, 15:35:19.403
43, -28.88, -21.95, -26.80, -20.03, -19.20, -25.37, -23.76, -20.38, -21.32, -19.56, -22.75, -23.29, -30.93, -23.60, -24.39, -19.87, 0.000, 0.000, 0.000, 15:35:19.404
44, -28.88, -21.95, -26.80, -20.03, -19.20, -25.37, -23.76, -20.38, -21.39, -19.65, -22.80, -23.45, -30.69, -23.63, -24.39, -19.80, 0.000, 0.000, 0.000, 15:35:19.404
45, -28.92, -21.75, -26.76, -20.07, -19.22, -25.28, -23.89, -20.43, -21.39, -19.65, -22.80, -23.45, -30.69, -23.63, -24.39, -19.80, 0.000, 0.000, 0.000, 15:35:19.404
46, -28.92, -21.75, -26.76, -20.07, -19.22, -25.28, -23.89, -20.43, -21.59, -19.67, -22.71, -23.47, -30.85, -23.67, -24.50, -19.94, 0.000, 0.000, 0.000, 15:35:19.405
47, -28.81, -21.90, -27.05, -20.00, -18.93, -25.30, -23.72, -20.25, -21.59, -19.67, -22.71, -23.47, -30.85, -23.67, -24.50, -19.94, -0.022, 0.918, -0.180, 15:35:19.405
48, -28.81, -21.90, -27.05, -20.00, -18.93, -25.30, -23.72, -20.25, -21.50, -19.76, -22.73, -23.29, -30.85, -23.56, -24.45, -20.03, 0.000, 0.000, 0.000, 15:35:19.406
49, -28.88, -22.08, -26.98, -19.60, -18.78, -25.21, -23.76, -20.27, -21.50, -19.76, -22.73, -23.29, -30.85, -23.56, -24.45, -20.03, 0.000, 0.000, 0.000, 15:35:19.406
50, -28.88, -22.08, -26.98, -19.60, -18.78, -25.21, -23.76, -20.27, -21.23, -19.51, -22.64, -23.31, -30.67, -23.56, -24.39, -19.89, 0.000, 0.000, 0.000, 15:35:19.407
51, -28.92, -21.90, -27.05, -19.98, -18.95, -25.41, -23.80, -20.63, -21.23, -19.51, -22.64, -23.31, -30.67, -23.56, -24.39, -19.89, 0.000, 0.000, 0.000, 15:35:19.407
52, -28.92, -21.90, -27.05, -19.98, -18.95, -25.41, -23.80, -20.63, -21.44, -19.71, -22.80, -23.07, -30.85, -23.67, -24.41, -19.89, 0.000, 0.000, 0.000, 15:35:19.407
53, -28.83, -21.95, -27.18, -20.00, -19.02, -25.62, -23.78, -20.41, -21.44, -19.71, -22.80, -23.07, -30.85, -23.67, -24.41, -19.89, 0.000, 0.000, 0.000, 15:35:19.407
54, -28.83, -21.95, -27.18, -20.00, -19.02, -25.62, -23.78, -20.41, -21.21, -19.74, -22.84, -23.00, -30.80, -23.54, -24.48, -19.74, 0.000, 0.000, 0.000, 15:35:19.407
55, -28.74, -21.88, -26.93, -20.07, -18.84, -25.28, -23.78, -20.36, -21.21, -19.74, -22.84, -23.00, -30.80, -23.54, -24.48, -19.74, 0.000, 0.000, 0.000, 15:35:19.408
56, -28.74, -21.88, -26.93, -20.07, -18.84, -25.28, -23.78, -20.36, -21.21, -19.92, -22.64, -23.27, -31.02, -23.63, -24.41, -19.87, 0.000, 0.000, 0.000, 15:35:19.408
57, -28.86, -21.55, -26.96, -20.12, -18.86, -25.10, -23.65, -20.34, -21.21, -19.92, -22.64, -23.27, -31.02, -23.63, -24.41, -19.87, -0.012, 0.920, -0.192, 15:35:19.408
58, -28.86, -21.55, -26.96, -20.12, -18.86, -25.10, -23.65, -20.34, -21.35, -19.76, -22.80, -23.42, -30.93, -23.58, -24.52, -19.92, 0.000, 0.000, 0.000, 15:35:19.408
59, -29.03, -21.70, -27.07, -19.87, -18.82, -25.19, -23.51, -20.56, -21.35, -19.76, -22.80, -23.42, -30.93, -23.58, -24.52, -19.92, 0.000, 0.000, 0.000, 15:35:19.409
60, -29.03, -21.70, -27.07, -19.87, -18.82, -25.19, -23.51, -20.56, -21.55, -19.76, -22.91, -23.20, -30.67, -23.69, -24.68, -19.85, 0.000, 0.000, 0.000, 15:35:19.409
61, -28.88, -21.84, -27.05, -20.09, -18.93, -25.28, -23.78, -20.16, -21.55, -19.76, -22.91, -23.20, -30.67, -23.69, -24.68, -19.85, 0.000, 0.000, 0.000, 15:35:19.409
62, -28.88, -21.84, -27.05, -20.09, -18.93, -25.28, -23.78, -20.16, -21.44, -19.65, -22.71, -23.29, -30.64, -23.58, -24.48, -20.03, 0.000, 0.000, 0.000, 15:35:19.410
63, -28.92, -21.99, -26.98, -20.07, -18.84, -25.28, -23.85, -20.41, -21.44, -19.65, -22.71, -23.29, -30.64, -23.58, -24.48, -20.03, 0.000, 0.000, 0.000, 15:35:19.410
64, -28.92, -21.99, -26.98, -20.07, -18.84, -25.28, -23.85, -20.41, -21.30, -19.69, -22.84, -23.45, -30.93, -23.49, -24.72, -19.89, 0.000, 0.000, 0.000, 15:35:19.410
65, -28.92, -21.88, -26.93, -19.83, -18.91, -25.08, -23.65, -20.50, -21.30, -19.69, -22.84, -23.45, -30.93, -23.49, -24.72, -19.89, 0.000, 0.000, 0.000, 15:35:19.410
66, -28.92, -21.88, -26.93, -19.83, -18.91, -25.08, -23.65, -20.50, -21.37, -19.56, -22.66, -23.27, -30.91, -23.42, -24.56, -19.94, -0.020, 0.946, -0.190, 15:35:19.410
67, -28.88, -21.84, -27.16, -19.89, -19.02, -25.24, -23.54, -20.65, -21.37, -19.56, -22.66, -23.27, -30.91, -23.42, -24.56, -19.94, 0.000, 0.000, 0.000, 15:35:19.411
68, -28.88, -21.84, -27.16, -19.89, -19.02, -25.24, -23.54, -20.65, -21.26, -19.58, -22.84, -23.20, -30.73, -23.65, -24.63, -20.00, 0.000, 0.000, 0.000, 15:35:19.411
69, -29.06, -21.68, -27.05, -19.94, -19.00, -24.94, -23.58, -20.41, -21.26, -19.58, -22.84, -23.20, -30.73, -23.65, -24.63, -20.00, 0.000, 0.000, 0.000, 15:35:19.412
70, -29.06, -21.68, -27.05, -19.94, -19.00, -24.94, -23.58, -20.41, -21.28, -19.78, -22.80, -23.40, -31.02, -23.49, -24.77, -20.00, 0.000, 0.000, 0.000, 15:35:19.412
71, -28.88, -21.66, -27.25, -20.00, -18.86, -25.26, -23.80, -20.41, -21.28, -19.78, -22.80, -23.40, -31.02, -23.49, -24.77, -20.00, 0.000, 0.000, 0.000, 15:35:19.412
72, -28.88, -21.66, -27.25, -20.00, -18.86, -25.26, -23.80, -20.41, -21.48, -19.62, -22.98, -23.45, -30.93, -23.56, -24.68, -19.74, 0.000, 0.000, 0.000, 15:35:19.412
73, -28.90, -21.84, -26.96, -19.96, -19.09, -25.21, -23.65, -20.32, -21.48, -19.62, -22.98, -23.45, -30.93, -23.56, -24.68, -19.74, 0.000, 0.000, 0.000, 15:35:19.413
74, -28.90, -21.84, -26.96, -19.96, -19.09, -25.21, -23.65, -20.32, -21.14, -19.65, -22.84, -23.31, -30.93, -23.67, -24.63, -19.69, 0.000, 0.000, 0.000, 15:35:19.413
75, -28.92, -21.64, -27.02, -19.94, -19.07, -25.06, -23.96, -20.34, -21.14, -19.65, -22.84, -23.31, -30.93, -23.67, -24.63, -19.69, 0.000, 0.000, 0.000, 15:35:19.413
76, -28.92, -21.64, -27.02, -19.94, -19.07, -25.06, -23.96, -20.34, -21.14, -19.67, -22.80, -23.36, -31.05, -23.65, -24.54, -19.69, -0.030, 0.962, -0.192, 15:35:19.413
77, -28.79, -21.79, -26.76, -20.09, -18.86, -25.24, -23.85, -20.45, -21.14, -19.67, -22.80, -23.36, -31.05, -23.65, -24.54, -19.69, 0.000, 0.000, 0.000, 15:35:19.413
78, -28.79, -21.79, -26.76, -20.09, -18.86, -25.24, -23.85, -20.45, -21.26, -19.71, -22.80, -23.13, -30.82, -23.65, -24.52, -19.87, 0.000, 0.000, 0.000, 15:35:19.414
79, -28.72, -21.79, -27.16, -19.96, -19.04, -25.50, -23.65, -20.45, -21.26, -19.71, -22.80, -23.13, -30.82, -23.65, -24.52, -19.87, 0.000, 0.000, 0.000, 15:35:19.414
80, -28.72, -21.79, -27.16, -19.96, -19.04, -25.50, -23.65, -20.45, -21.30, -19.58, -22.66, -23.36, -30.89, -23.31, -24.45, -20.05, 0.000, 0.000, 0.000, 15:35:19.414
81, -29.06, -21.86, -26.89, -20.07, -19.00, -25.32, -23.94, -20.45, -21.30, -19.58, -22.66, -23.36, -30.89, -23.31, -24.45, -20.05, 0.000, 0.000, 0.000, 15:35:19.415
82, -29.06, -21.86, -26.89, -20.07, -19.00, -25.32, -23.94, -20.45, -21.26, -19.71, -22.64, -23.25, -31.09, -23.45, -24.45, -19.83, 0.000, 0.000, 0.000, 15:35:19.415
83, -28.99, -21.93, -27.14, -20.14, -18.93, -25.28, -23.40, -20.38, -21.26, -19.71, -22.64, -23.25, -31.09, -23.45, -24.45, -19.83, 0.000, 0.000, 0.000, 15:35:19.415
84, -28.99, -21.93, -27.14, -20.14, -18.93, -25.28, -23.40, -20.38, -21.48, -19.65, -22.73, -23.13, -30.82, -23.45, -24.34, -20.00, 0.000, 0.000, 0.000, 15:35:19.415
85, -28.95, -21.82, -26.96, -19.96, -18.86, -25.32, -23.67, -20.52, -21.48, -19.65, -22.73, -23.13, -30.82, -23.45, -24.34, -20.00, 0.000, 0.000, 0.000, 15:35:19.416
86, -28.95, -21.82, -26.96, -19.96, -18.86, -25.32, -23.67, -20.52, -21.79, -19.85, -22.55, -23.13, -30.89, -23.69, -24.56, -20.03, -0.022, 0.954, -0.192, 15:35:19.416
87, -28.79, -21.82, -26.91, -19.98, -18.89, -25.35, -23.63, -20.36, -21.79, -19.85, -22.55, -23.13, -30.89, -23.69, -24.56, -20.03, 0.000, 0.000, 0.000, 15:35:19.416
88, -28.79, -21.82, -26.91, -19.98, -18.89, -25.35, -23.63, -20.36, -21.37, -19.83, -22.80, -23.40, -31.05, -23.54, -24.50, -20.03, 0.000, 0.000, 0.000, 15:35:19.417
89, -28.99, -22.02, -27.09, -19.85, -19.13, -25.48, -23.74, -20.38, -21.37, -19.83, -22.80, -23.40, -31.05, -23.54, -24.50, -20.03, 0.000, 0.000, 0.000, 15:35:19.417
90, -28.99, -22.02, -27.09, -19.85, -19.13, -25.48, -23.74, -20.38, -21.14, -19.62, -22.91, -23.36, -30.98, -23.47, -24.41, -20.16, 0.000, 0.000, 0.000, 15:35:19.417
91, -29.03, -21.79, -26.98, -19.94, -18.80, -25.35, -23.83, -20.41, -21.14, -19.62, -22.91, -23.36, -30.98, -23.47, -24.41, -20.16, 0.000, 0.000, 0.000, 15:35:19.417
92, -29.03, -21.79, -26.98, -19.94, -18.80, -25.35, -23.83, -20.41, -21.21, -19.76, -22.75, -23.27, -31.00, -23.49, -24.54, -19.89, 0.000, 0.000, 0.000, 15:35:19.418
93, -28.97, -21.99, -27.05, -20.03, -18.69, -25.10, -23.85, -20.65, -21.21, -19.76, -22.75, -23.27, -31.00, -23.49, -24.54, -19.89, 0.000, 0.000, 0.000, 15:35:19.418
94, -28.97, -21.99, -27.05, -20.03, -18.69, -25.10, -23.85, -20.65, -21.21, -19.69, -22.73, -23.34, -31.07, -23.67, -24.61, -19.89, 0.000, 0.000, 0.000, 15:35:19.418
95, -28.92, -21.95, -26.60, -20.07, -18.98, -24.97, -23.54, -20.52, -21.21, -19.69, -22.73, -23.34, -31.07, -23.67, -24.61, -19.89, 0.000, 0.000, 0.000, 15:35:19.418
96, -28.92, -21.95, -26.60, -20.07, -18.98, -24.97, -23.54, -20.52, -21.30, -19.60, -22.66, -23.45, -30.91, -23.49, -24.52, -19.71, -0.022, 0.950, -0.192, 15:35:19.418
97, -28.86, -22.04, -27.07, -19.85, -19.00, -25.28, -23.85, -20.34, -21.30, -19.60, -22.66, -23.45, -30.91, -23.49, -24.52, -19.71, 0.000, 0.000, 0.000, 15:35:19.418
98, -28.86, -22.04, -27.07, -19.85, -19.00, -25.28, -23.85, -20.34, -21.26, -19.65, -22.58, -23.34, -30.76, -23.56, -24.45, -20.00, 0.000, 0.000, 0.000, 15:35:19.419
99, -28.63, -22.11, -27.22, -19.94, -18.86, -25.21, -23.74, -20.34, -21.26, -19.65, -22.58, -23.34, -30.76, -23.56, -24.45, -20.00, 0.000, 0.000, 0.000, 15:35:19.419
100, -28.63, -22.11, -27.22, -19.94, -18.86, -25.21, -23.74, -20.34, -21.50, -19.62, -22.80, -23.40, -30.98, -23.42, -24.43, -19.98, 0.000, 0.000, 0.000, 15:35:19.419
101, -28.95, -21.99, -27.09, -19.98, -19.00, -25.26, -23.87, -20.23, -21.50, -19.62, -22.80, -23.40, -30.98, -23.42, -24.43, -19.98, 0.000, 0.000, 0.000, 15:35:19.420
102, -28.95, -21.99, -27.09, -19.98, -19.00, -25.26, -23.87, -20.23, -21.12, -19.71, -22.84, -23.31, -30.82, -23.78, -24.59, -19.76, 0.000, 0.000, 0.000, 15:35:19.420
103, -28.88, -21.97, -26.82, -20.05, -18.95, -25.17, -23.63, -20.52, -21.12, -19.71, -22.84, -23.31, -30.82, -23.78, -24.59, -19.76, 0.000, 0.000, 0.000, 15:35:19.420
104, -28.88, -21.97, -26.82, -20.05, -18.95, -25.17, -23.63, -20.52, -21.50, -19.65, -22.84, -23.22, -30.82, -23.60, -24.50, -19.83, 0.000, 0.000, 0.000, 15:35:19.425
105, -28.90, -21.95, -26.89, -20.07, -18.80, -25.28, -23.63, -20.50, -21.50, -19.65, -22.84, -23.22, -30.82, -23.60, -24.50, -19.83, 0.000, 0.000, 0.000, 15:35:19.425
106, -28.90, -21.95, -26.89, -20.07, -18.80, -25.28, -23.63, -20.50, -21.26, -19.65, -22.80, -23.51, -30.98, -23.76, -24.41, -20.00, -0.022, 0.950, -0.196, 15:35:19.425
107, -28.63, -21.88, -27.02, -20.18, -18.91, -25.12, -23.78, -20.47, -21.26, -19.65, -22.80, -23.51, -30.98, -23.76, -24.41, -20.00, 0.000, 0.000, 0.000, 15:35:19.425
108, -28.63, -21.88, -27.02, -20.18, -18.91, -25.12, -23.78, -20.47, -21.52, -19.67, -22.44, -23.18, -30.85, -23.67, -24.68, -19.85, 0.000, 0.000, 0.000, 15:35:19.426
109, -28.83, -21.75, -27.02, -20.27, -18.91, -25.21, -23.83, -20.34, -21.52, -19.67, -22.44, -23.18, -30.85, -23.67, -24.68, -19.85, 0.000, 0.000, 0.000, 15:35:19.426
110, -28.83, -21.75, -27.02, -20.27, -18.91, -25.21, -23.83, -20.34, -21.64, -19.54, -22.80, -23.18, -30.96, -23.67, -24.43, -19.94, 0.000, 0.000, 0.000, 15:35:19.426
111, -29.08, -21.99, -27.02, -20.09, -19.31, -25.03, -23.78, -20.52, -21.64, -19.54, -22.80, -23.18, -30.96, -23.67, -24.43, -19.94, 0.000, 0.000, 0.000, 15:35:19.426
112, -29.08, -21.99, -27.02, -20.09, -19.31, -25.03, -23.78, -20.52, -21.48, -19.49, -22.93, -23.22, -31.14, -23.45, -24.45, -19.76, 0.000, 0.000, 0.000, 15:35:19.426
113, -28.90, -21.70, -26.96, -19.94, -18.91, -25.15, -23.76, -20.52, -21.48, -19.49, -22.93, -23.22, -31.14, -23.45, -24.45, -19.76, 0.000, 0.000, 0.000, 15:35:19.426
114, -28.90, -21.70, -26.96, -19.94, -18.91, -25.15, -23.76, -20.52, -21.23, -19.71, -22.91, -23.34, -30.85, -23.69, -24.50, -19.83, 0.000, 0.000, 0.000, 15:35:19.427
115, -28.77, -21.86, -26.93, -20.09, -18.89, -25.21, -23.67, -20.52, -21.23, -19.71, -22.91, -23.34, -30.85, -23.69, -24.50, -19.83, 0.000, 0.000, 0.000, 15:35:19.427
116, -28.77, -21.86, -26.93, -20.09, -18.89, -25.21, -23.67, -20.52, -21.50, -19.60, -22.91, -23.36, -31.14, -23.63, -24.61, -19.96, -0.024, 0.944, -0.198, 15:35:19.427
117, -28.86, -22.02, -27.05, -19.96, -18.78, -25.32, -23.72, -20.54, -21.50, -19.60, -22.91, -23.36, -31.14, -23.63, -24.61, -19.96, 0.000, 0.000, 0.000, 15:35:19.427
118, -28.86, -22.02, -27.05, -19.96, -18.78, -25.32, -23.72, -20.54, -21.37, -19.58, -22.69, -23.56, -30.96, -23.51, -24.56, -19.96, 0.000, 0.000, 0.000, 15:35:19.428
119, -28.86, -22.02, -26.91, -19.87, -18.89, -25.28, -23.60, -20.45, -21.37, -19.58, -22.69, -23.56, -30.96, -23.51, -24.56, -19.96, 0.000, 0.000, 0.000, 15:35:19.428
120, -28.86, -22.02, -26.91, -19.87, -18.89, -25.28, -23.60, -20.45, -21.30, -19.65, -22.82, -23.25, -30.71, -23.49, -24.59, -19.87, 0.000, 0.000, 0.000, 15:35:19.428
121, -28.99, -21.84, -27.05, -19.98, -18.89, -25.37, -23.83, -20.38, -21.30, -19.65, -22.82, -23.25, -30.71, -23.49, -24.59, -19.87, 0.000, 0.000, 0.000, 15:35:19.876
122, -28.99, -21.84, -27.05, -19.98, -18.89, -25.37, -23.83, -20.38, -21.37, -19.67, -22.69, -23.31, -30.89, -23.51, -24.52, -19.85, 0.000, 0.000, 0.000, 15:35:19.876
123, -28.92, -21.84, -27.05, -19.96, -18.91, -25.41, -23.85, -20.47, -21.37, -19.67, -22.69, -23.31, -30.89, -23.51, -24.52, -19.85, 0.000, 0.000, 0.000, 15:35:19.876
124, -28.92, -21.84, -27.05, -19.96, -18.91, -25.41, -23.85, -20.47, -21.37, -19.92, -22.55, -23.27, -30.80, -23.31, -24.59, -19.96, 0.000, 0.000, 0.000, 15:35:19.876
125, -28.83, -21.90, -27.09, -19.80, -18.73, -25.19, -23.80, -20.52, -21.37, -19.92, -22.55, -23.27, -30.80, -23.31, -24.59, -19.96, -0.030, 0.944, -0.192, 15:35:19.877
126, -28.83, -21.90, -27.09, -19.80, -18.73, -25.19, -23.80, -20.52, -21.46, -19.54, -22.73, -23.29, -30.80, -23.56, -24.63, -19.78, 0.000, 0.000, 0.000, 15:35:19.877
127, -28.74, -21.82, -26.80, -20.00, -18.66, -25.30, -23.74, -20.38, -21.46, -19.54, -22.73, -23.29, -30.80, -23.56, -24.63, -19.78, 0.000, 0.000, 0.000, 15:35:19.877
128, -28.74, -21.82, -26.80, -20.00, -18.66, -25.30, -23.74, -20.38, -21.39, -19.54, -22.75, -23.29, -30.98, -23.42, -24.50, -20.14, 0.000, 0.000, 0.000, 15:35:19.877
129, -29.10, -21.79, -26.96, -19.76, -19.02, -25.37, -23.76, -20.41, -21.39, -19.54, -22.75, -23.29, -30.98, -23.42, -24.50, -20.14, 0.000, 0.000, 0.000, 15:35:19.877
130, -29.10, -21.79, -26.96, -19.76, -19.02, -25.37, -23.76, -20.41, -21.55, -19.78, -22.69, -23.20, -30.73, -23.60, -24.63, -20.00, 0.000, 0.000, 0.000, 15:35:19.878
131, -28.97, -21.86, -26.89, -19.92, -19.02, -25.19, -23.56, -20.47, -21.55, -19.78, -22.69, -23.20, -30.73, -23.60, -24.63, -20.00, 0.000, 0.000, 0.000, 15:35:19.878
132, -28.97, -21.86, -26.89, -19.92, -19.02, -25.19, -23.56, -20.47, -21.44, -19.89, -22.75, -23.16, -30.78, -23.56, -24.39, -20.03, 0.000, 0.000, 0.000, 15:35:19.878
133, -28.90, -21.86, -26.80, -19.94, -18.78, -25.24, -23.56, -20.61, -21.44, -19.89, -22.75, -23.16, -30.78, -23.56, -24.39, -20.03, 0.000, 0.000, 0.000, 15:35:19.878
134, -28.90, -21.86, -26.80, -19.94, -18.78, -25.24, -23.56, -20.61, -21.37, -19.54, -22.69, -23.29, -30.89, -23.47, -24.63, -19.69, 0.000, 0.000, 0.000, 15:35:19.878
135, -28.90, -21.70, -27.02, -20.12, -18.78, -25.15, -23.47, -20.52, -21.37, -19.54, -22.69, -23.29, -30.89, -23.47, -24.63, -19.69, -0.028, 0.940, -0.190, 15:35:19.878
136, -28.90, -21.70, -27.02, -20.12, -18.78, -25.15, -23.47, -20.52, -21.21, -19.87, -22.78, -23.29, -30.76, -23.42, -24.63, -19.78, 0.000, 0.000, 0.000, 15:35:19.879
137, -29.01, -21.73, -27.07, -19.98, -19.04, -25.39, -23.58, -20.47, -21.21, -19.87, -22.78, -23.29, -30.76, -23.42, -24.63, -19.78, 0.000, 0.000, 0.000, 15:35:19.879
138, -29.01, -21.73, -27.07, -19.98, -19.04, -25.39, -23.58, -20.47, -21.39, -19.42, -22.75, -23.31, -30.69, -23.58, -24.56, -20.05, 0.000, 0.000, 0.000, 15:35:19.879
139, -28.92, -21.68, -26.96, -20.03, -18.84, -25.30, -23.85, -20.34, -21.39, -19.42, -22.75, -23.31, -30.69, -23.58, -24.56, -20.05, 0.000, 0.000, 0.000, 15:35:19.879
140, -28.92, -21.68, -26.96, -20.03, -18.84, -25.30, -23.85, -20.34, -21.35, -19.47, -22.84, -23.34, -30.71, -23.63, -24.43, -19.87, 0.000, 0.000, 0.000, 15:35:19.880
141, -29.15, -21.84, -27.07, -19.94, -19.33, -25.26, -23.92, -20.45, -21.35, -19.47, -22.84, -23.34, -30.71, -23.63, -24.43, -19.87, 0.000, 0.000, 0.000, 15:35:19.880
142, -29.15, -21.84, -27.07, -19.94, -19.33, -25.26, -23.92, -20.45, -21.23, -19.58, -22.91, -23.40, -30.80, -23.47, -24.61, -19.80, 0.000, 0.000, 0.000, 15:35:19.880
143, -28.88, -21.86, -27.02, -20.05, -18.84, -25.37, -23.83, -20.52, -21.23, -19.58, -22.91, -23.40, -30.80, -23.47, -24.61, -19.80, 0.000, 0.000, 0.000, 15:35:19.880
144, -28.88, -21.86, -27.02, -20.05, -18.84, -25.37, -23.83, -20.52, -21.64, -19.71, -22.91, -23.36, -30.91, -23.58, -24.50, -19.78, 0.000, 0.000, 0.000, 15:35:19.880
145, -28.92, -21.64, -27.09, -20.03, -18.71, -25.21, -23.87, -20.38, -21.64, -19.71, -22.91, -23.36, -30.91, -23.58, -24.50, -19.78, -0.026, 0.942, -0.192, 15:35:19.880
146, -28.92, -21.64, -27.09, -20.03, -18.71, -25.21, -23.87, -20.38, -21.37, -19.67, -22.66, -23.29, -30.96, -23.42, -24.65, -20.14, 0.000, 0.000, 0.000, 15:35:19.881
147, -28.88, -21.77, -26.96, -19.78, -18.93, -25.08, -23.83, -20.50, -21.37, -19.67, -22.66, -23.29, -30.96, -23.42, -24.65, -20.14, 0.000, 0.000, 0.000, 15:35:19.881
148, -28.88, -21.77, -26.96, -19.78, -18.93, -25.08, -23.83, -20.50, -21.35, -19.67, -22.60, -23.31, -31.00, -23.56, -24.41, -19.80, 0.000, 0.000, 0.000, 15:35:19.881
149, -29.03, -21.84, -26.93, -19.96, -18.82, -25.28, -23.83, -20.54, -21.35, -19.67, -22.60, -23.31, -31.00, -23.56, -24.41, -19.80, 0.000, 0.000, 0.000, 15:35:19.881
150, -29.03, -21.84, -26.93, -19.96, -18.82, -25.28, -23.83, -20.54, -21.44, -19.65, -22.93, -23.29, -30.98, -23.40, -24.48, -20.00, 0.000, 0.000, 0.000, 15:35:19.881
151, -29.03, -21.86, -27.09, -20.09, -18.91, -25.15, -23.49, -20.45, -21.44, -19.65, -22.93, -23.29, -30.98, -23.40, -24.48, -20.00, 0.000, 0.000, 0.000, 15:35:19.881
152, -29.03, -21.86, -27.09, -20.09, -18.91, -25.15, -23.49, -20.45, -21.32, -19.60, -22.71, -23.20, -30.85, -23.34, -24.39, -20.05, 0.000, 0.000, 0.000, 15:35:19.882
153, -28.86, -21.88, -27.14, -19.96, -18.84, -25.19, -23.78, -20.56, -21.32, -19.60, -22.71, -23.20, -30.85, -23.34, -24.39, -20.05, 0.000, 0.000, 0.000, 15:35:19.882
154, -28.86, -21.88, -27.14, -19.96, -18.84, -25.19, -23.78, -20.56, -21.41, -19.85, -22.64, -23.25, -30.85, -23.60, -24.56, -19.94, 0.000, 0.000, 0.000, 15:35:19.882
155, -28.95, -21.68, -27.05, -19.89, -18.89, -25.15, -23.69, -20.54, -21.41, -19.85, -22.64, -23.25, -30.85, -23.60, -24.56, -19.94, -0.030, 0.952, -0.190, 15:35:19.882
156, -28.95, -21.68, -27.05, -19.89, -18.89, -25.15, -23.69, -20.54, -21.52, -19.76, -22.91, -23.38, -31.00, -23.40, -24.41, -20.03, 0.000, 0.000, 0.000, 15:35:19.882
157, -28.90, -21.82, -26.98, -20.03, -18.93, -25.21, -23.76, -20.59, -21.52, -19.76, -22.91, -23.38, -31.00, -23.40, -24.41, -20.03, 0.000, 0.000, 0.000, 15:35:19.883
158, -28.90, -21.82, -26.98, -20.03, -18.93, -25.21, -23.76, -20.59, -21.55, -19.71, -22.69, -23.27, -30.71, -23.74, -24.48, -20.09, 0.000, 0.000, 0.000, 15:35:19.883
159, -28.86, -21.75, -27.09, -19.94, -19.07, -25.41, -23.49, -20.23, -21.55, -19.71, -22.69, -23.27, -30.71, -23.74, -24.48, -20.09, 0.000, 0.000, 0.000, 15:35:19.883
160, -28.86, -21.75, -27.09, -19.94, -19.07, -25.41, -23.49, -20.23, -21.41, -19.58, -22.69, -23.34, -30.76, -23.65, -24.68, -20.00, 0.000, 0.000, 0.000, 15:35:19.883
161, -29.24, -21.75, -27.05, -19.80, -18.98, -25.46, -23.34, -20.27, -21.41, -19.58, -22.69, -23.34, -30.76, -23.65, -24.68, -20.00, 0.000, 0.000, 0.000, 15:35:19.883
162, -29.24, -21.75, -27.05, -19.80, -18.98, -25.46, -23.34, -20.27, -21.46, -19.67, -22.60, -23.27, -30.96, -23.65, -24.30, -19.96, 0.000, 0.000, 0.000, 15:35:19.883
163, -28.81, -21.88, -27.18, -19.89, -18.62, -25.32, -23.83, -20.27, -21.46, -19.67, -22.60, -23.27, -30.96, -23.65, -24.30, -19.96, 0.000, 0.000, 0.000, 15:35:19.883
164, -28.81, -21.88, -27.18, -19.89, -18.62, -25.32, -23.83, -20.27, -21.35, -19.54, -22.80, -23.36, -30.96, -23.63, -24.70, -20.00, 0.000, 0.000, 0.000, 15:35:19.884
165, -28.72, -21.93, -26.89, -19.85, -18.95, -25.46, -23.78, -20.27, -21.35, -19.54, -22.80, -23.36, -30.96, -23.63, -24.70, -20.00, -0.022, 0.948, -0.198, 15:35:19.884
166, -28.72, -21.93, -26.89, -19.85, -18.95, -25.46, -23.78, -20.27, -21.14, -19.71, -22.75, -23.29, -31.14, -23.63, -24.65, -19.89, 0.000, 0.000, 0.000, 15:35:19.884
167, -28.95, -21.73, -27.00, -19.98, -19.00, -25.44, -23.65, -20.47, -21.14, -19.71, -22.75, -23.29, -31.14, -23.63, -24.65, -19.89, 0.000, 0.000, 0.000, 15:35:19.884
168, -28.95, -21.73, -27.00, -19.98, -19.00, -25.44, -23.65, -20.47, -21.32, -19.62, -22.89, -23.54, -31.14, -23.56, -24.39, -19.83, 0.000, 0.000, 0.000, 15:35:19.884
169, -28.95, -21.99, -26.78, -19.92, -18.95, -25.35, -23.78, -20.41, -21.32, -19.62, -22.89, -23.54, -31.14, -23.56, -24.39, -19.83, 0.000, 0.000, 0.000, 15:35:19.884
170, -28.95, -21.99, -26.78, -19.92, -18.95, -25.35, -23.78, -20.41, -21.26, -19.74, -22.80, -23.40, -30.91, -23.56, -24.50, -19.96, 0.000, 0.000, 0.000, 15:35:19.885
171, -28.88, -21.82, -27.11, -19.96, -18.84, -25.12, -23.60, -20.47, -21.26, -19.74, -22.80, -23.40, -30.91, -23.56, -24.50, -19.96, 0.000, 0.000, 0.000, 15:35:19.885
172, -28.88, -21.82, -27.11, -19.96, -18.84, -25.12, -23.60, -20.47, -21.12, -19.78, -22.82, -23.31, -30.87, -23.54, -24.52, -20.16, 0.000, 0.000, 0.000, 15:35:19.885
173, -29.06, -21.84, -27.05, -20.09, -18.95, -25.32, -23.65, -20.61, -21.12, -19.78, -22.82, -23.31, -30.87, -23.54, -24.52, -20.16, 0.000, 0.000, 0.000, 15:35:19.885
174, -29.06, -21.84, -27.05, -20.09, -18.95, -25.32, -23.65, -20.61, -21.41, -19.80, -22.91, -23.36, -30.82, -23.49, -24.54, -20.00, -0.036, 0.946, -0.194, 15:35:19.885
175, -29.08, -21.99, -27.02, -19.94, -18.73, -25.03, -23.63, -20.61, -21.41, -19.80, -22.91, -23.36, -30.82, -23.49, -24.54, -20.00, 0.000, 0.000, 0.000, 15:35:19.885
176, -29.08, -21.99, -27.02, -19.94, -18.73, -25.03, -23.63, -20.61, -21.37, -19.56, -22.64, -23.54, -30.98, -23.49, -24.52, -19.89, 0.000, 0.000, 0.000, 15:35:19.886
177, -28.99, -21.93, -26.82, -19.96, -18.73, -25.15, -23.74, -20.45, -21.37, -19.56, -22.64, -23.54, -30.98, -23.49, -24.52, -19.89, 0.000, 0.000, 0.000, 15:35:19.886
178, -28.99, -21.93, -26.82, -19.96, -18.73, -25.15, -23.74, -20.45, -21.41, -19.69, -22.58, -23.51, -31.07, -23.49, -24.50, -19.96, 0.000, 0.000, 0.000, 15:35:19.886
179, -28.77, -21.66, -27.05, -19.98, -18.78, -25.48, -23.72, -20.45, -21.41, -19.69, -22.58, -23.51, -31.07, -23.49, -24.50, -19.96, 0.000, 0.000, 0.000, 15:35:19.887
180, -28.77, -21.66, -27.05, -19.98, -18.78, -25.48, -23.72, -20.45, -21.37, -19.60, -22.80, -23.22, -30.96, -23.42, -24.52, -19.76, 0.000, 0.000, 0.000, 15:35:19.887
181, -29.08, -21.77, -27.14, -20.00, -18.89, -25.30, -23.60, -20.54, -21.37, -19.60, -22.80, -23.22, -30.96, -23.42, -24.52, -19.76, 0.000, 0.000, 0.000, 15:35:19.887
182, -29.08, -21.77, -27.14, -20.00, -18.89, -25.30, -23.60, -20.54, -21.23, -19.60, -22.84, -23.45, -30.82, -23.49, -24.63, -20.07, 0.000, 0.000, 0.000, 15:35:19.888
183, -29.08, -21.88, -26.80, -19.98, -18.93, -25.53, -23.74, -20.63, -21.23, -19.60, -22.84, -23.45, -30.82, -23.49, -24.63, -20.07, 0.000, 0.000, 0.000, 15:35:19.888
184, -29.08, -21.88, -26.80, -19.98, -18.93, -25.53, -23.74, -20.63, -21.32, -19.47, -22.64, -23.36, -30.96, -23.31, -24.43, -19.94, -0.040, 0.946, -0.194, 15:35:19.888
185, -28.88, -21.99, -27.02, -19.98, -18.69, -25.24, -23.60, -20.52, -21.32, -19.47, -22.64, -23.36, -30.96, -23.31, -24.43, -19.94, 0.000, 0.000, 0.000, 15:35:19.889
186, -28.88, -21.99, -27.02, -19.98, -18.69, -25.24, -23.60, -20.52, -21.21, -19.56, -22.51, -23.40, -30.96, -23.56, -24.65, -20.00, 0.000, 0.000, 0.000, 15:35:19.889
187, -28.99, -22.02, -27.14, -20.00, -18.93, -25.30, -23.60, -20.36, -21.21, -19.56, -22.51, -23.40, -30.96, -23.56, -24.65, -20.00, 0.000, 0.000, 0.000, 15:35:19.889
188, -28.99, -22.02, -27.14, -20.00, -18.93, -25.30, -23.60, -20.36, -21.37, -19.76, -22.82, -23.18, -30.76, -23.67, -24.43, -20.05, 0.000, 0.000, 0.000, 15:35:19.889
189, -29.06, -21.97, -27.00, -20.07, -18.66, -25.24, -23.67, -20.56, -21.37, -19.76, -22.82, -23.18, -30.76, -23.67, -24.43, -20.05, 0.000, 0.000, 0.000, 15:35:19.889
190, -29.06, -21.97, -27.00, -20.07, -18.66, -25.24, -23.67, -20.56, -21.48, -19.89, -22.78, -23.13, -31.02, -23.67, -24.48, -19.78, 0.000, 0.000, 0.000, 15:35:19.890
191, -28.86, -21.79, -27.02, -19.98, -18.60, -25.28, -23.74, -20.36, -21.48, -19.89, -22.78, -23.13, -31.02, -23.67, -24.48, -19.78, 0.000, 0.000, 0.000, 15:35:19.890
192, -28.86, -21.79, -27.02, -19.98, -18.60, -25.28, -23.74, -20.36, -21.46, -19.60, -22.71, -23.22, -30.91, -23.56, -24.65, -20.12, 0.000, 0.000, 0.000, 15:35:19.890
193, -28.99, -21.77, -26.84, -19.92, -18.84, -25.39, -23.65, -20.45, -21.46, -19.60, -22.71, -23.22, -30.91, -23.56, -24.65, -20.12, 0.000, 0.000, 0.000, 15:35:19.890
194, -28.99, -21.77, -26.84, -19.92, -18.84, -25.39, -23.65, -20.45, -21.37, -19.76, -22.89, -23.36, -30.73, -23.40, -24.43, -19.98, -0.040, 0.946, -0.198, 15:35:19.890
195, -28.79, -21.79, -26.96, -19.94, -19.02, -25.28, -23.72, -20.56, -21.37, -19.76, -22.89, -23.36, -30.73, -23.40, -24.43, -19.98, 0.000, 0.000, 0.000, 15:35:19.890
196, -28.79, -21.79, -26.96, -19.94, -19.02, -25.28, -23.72, -20.56, -21.26, -19.51, -22.75, -23.38, -30.82, -23.45, -24.41, -19.94, 0.000, 0.000, 0.000, 15:35:19.891
197, -28.97, -21.64, -26.87, -20.03, -18.93, -25.19, -23.72, -20.56, -21.26, -19.51, -22.75, -23.38, -30.82, -23.45, -24.41, -19.94, 0.000, 0.000, 0.000, 15:35:19.891
198, -28.97, -21.64, -26.87, -20.03, -18.93, -25.19, -23.72, -20.56, -21.32, -19.71, -23.00, -23.47, -30.91, -23.40, -24.34, -19.92, 0.000, 0.000, 0.000, 15:35:19.891
199, -28.99, -21.84, -26.87, -19.89, -19.09, -25.12, -23.80, -20.54, -21.32, -19.71, -23.00, -23.47, -30.91, -23.40, -24.34, -19.92, 0.000, 0.000, 0.000, 15:35:19.891
200, -28.99, -21.84, -26.87, -19.89, -19.09, -25.12, -23.80, -20.54, -21.52, -19.78, -22.71, -23.29, -30.93, -23.58, -24.52, -20.03, 0.000, 0.000, 0.000, 15:35:19.892
201, -28.97, -21.93, -27.05, -19.76, -18.78, -25.39, -23.74, -20.50, -21.52, -19.78, -22.71, -23.29, -30.93, -23.58, -24.52, -20.03, 0.000, 0.000, 0.000, 15:35:19.892
202, -28.97, -21.93, -27.05, -19.76, -18.78, -25.39, -23.74, -20.50, -21.37, -19.49, -22.93, -23.29, -30.93, -23.49, -24.39, -19.85, 0.000, 0.000, 0.000, 15:35:19.892
203, -28.92, -21.88, -27.20, -19.94, -18.98, -25.50, -23.80, -20.32, -21.37, -19.49, -22.93, -23.29, -30.93, -23.49, -24.39, -19.85, 0.000, 0.000, 0.000, 15:35:19.893
204, -28.92, -21.88, -27.20, -19.94, -18.98, -25.50, -23.80, -20.32, -21.35, -19.40, -22.62, -23.42, -30.85, -23.49, -24.59, -19.71, -0.036, 0.944, -0.198, 15:35:19.893
205, -29.03, -21.90, -27.02, -19.96, -18.91, -25.39, -23.65, -20.52, -21.35, -19.40, -22.62, -23.42, -30.85, -23.49, -24.59, -19.71, 0.000, 0.000, 0.000, 15:35:19.893
206, -29.03, -21.90, -27.02, -19.96, -18.91, -25.39, -23.65, -20.52, -21.37, -19.78, -22.64, -23.40, -30.93, -23.60, -24.50, -19.71, 0.000, 0.000, 0.000, 15:35:19.893
207, -28.92, -21.79, -27.02, -19.87, -19.09, -25.35, -23.87, -20.45, -21.37, -19.78, -22.64, -23.40, -30.93, -23.60, -24.50, -19.71, 0.000, 0.000, 0.000, 15:35:19.894
208, -28.92, -21.79, -27.02, -19.87, -19.09, -25.35, -23.87, -20.45, -21.37, -19.51, -22.66, -23.22, -30.98, -23.47, -24.43, -19.78, 0.000, 0.000, 0.000, 15:35:19.894
209, -28.83, -21.95, -27.11, -19.87, -18.86, -25.26, -23.85, -20.54, -21.37, -19.51, -22.66, -23.22, -30.98, -23.47, -24.43, -19.78, 0.000, 0.000, 0.000, 15:35:19.894
210, -28.83, -21.95, -27.11, -19.87, -18.86, -25.26, -23.85, -20.54, -21.35, -19.78, -22.71, -23.20, -30.91, -23.34, -24.56, -20.00, 0.000, 0.000, 0.000, 15:35:19.894
211, -28.92, -21.84, -27.11, -19.92, -18.78, -25.21, -23.67, -20.47, -21.35, -19.78, -22.71, -23.20, -30.91, -23.34, -24.56, -20.00, 0.000, 0.000, 0.000, 15:35:19.895
212, -28.92, -21.84, -27.11, -19.92, -18.78, -25.21, -23.67, -20.47, -21.52, -19.54, -22.69, -23.29, -31.00, -23.47, -24.52, -19.78, 0.000, 0.000, 0.000, 15:35:19.895
213, -28.81, -21.99, -27.02, -20.03, -19.02, -25.44, -23.85, -20.27, -21.52, -19.54, -22.69, -23.29, -31.00, -23.47, -24.52, -19.78, 0.000, 0.000, 0.000, 15:35:19.895
214, -28.81, -21.99, -27.02, -20.03, -19.02, -25.44, -23.85, -20.27, -21.32, -19.62, -22.96, -23.22, -30.85, -23.65, -24.63, -20.07, -0.036, 0.942, -0.196, 15:35:19.895
215, -28.92, -21.82, -27.09, -19.83, -19.00, -25.39, -23.72, -20.34, -21.32, -19.62, -22.96, -23.22, -30.85, -23.65, -24.63, -20.07, 0.000, 0.000, 0.000, 15:35:19.896
216, -28.92, -21.82, -27.09, -19.83, -19.00, -25.39, -23.72, -20.34, -21.50, -19.56, -22.55, -23.51, -31.14, -23.42, -24.63, -19.87, 0.000, 0.000, 0.000, 15:35:19.896
217, -28.88, -21.77, -27.14, -19.98, -18.95, -25.30, -23.74, -20.45, -21.50, -19.56, -22.55, -23.51, -31.14, -23.42, -24.63, -19.87, 0.000, 0.000, 0.000, 15:35:19.896
218, -28.88, -21.77, -27.14, -19.98, -18.95, -25.30, -23.74, -20.45, -21.32, -19.58, -22.75, -23.47, -31.00, -23.65, -24.61, -19.94, 0.000, 0.000, 0.000, 15:35:19.896
219, -28.90, -21.99, -27.14, -20.16, -18.86, -25.28, -23.67, -20.41, -21.32, -19.58, -22.75, -23.47, -31.00, -23.65, -24.61, -19.94, 0.000, 0.000, 0.000, 15:35:19.896
220, -28.90, -21.99, -27.14, -20.16, -18.86, -25.28, -23.67, -20.41, -21.37, -19.60, -22.71, -23.27, -30.76, -23.49, -24.36, -19.80, 0.000, 0.000, 0.000, 15:35:19.896
221, -28.90, -21.86, -26.82, -19.83, -18.75, -25.21, -23.54, -20.30, -21.37, -19.60, -22.71, -23.27, -30.76, -23.49, -24.36, -19.80, 0.000, 0.000, 0.000, 15:35:19.897
222, -28.90, -21.86, -26.82, -19.83, -18.75, -25.21, -23.54, -20.30, -21.41, -19.74, -22.69, -23.49, -30.71, -23.45, -24.25, -19.74, 0.000, 0.000, 0.000, 15:35:19.897
223, -28.99, -21.86, -26.91, -19.87, -18.84, -25.12, -23.69, -20.32, -21.41, -19.74, -22.69, -23.49, -30.71, -23.45, -24.25, -19.74, 0.000, 0.000, 0.000, 15:35:19.897
224, -28.99, -21.86, -26.91, -19.87, -18.84, -25.12, -23.69, -20.32, -21.44, -19.65, -22.98, -23.45, -30.76, -23.65, -24.39, -19.89, -0.028, 0.942, -0.200, 15:35:19.897
225, -28.88, -21.88, -26.87, -20.05, -19.02, -25.28, -23.69, -20.47, -21.44, -19.65, -22.98, -23.45, -30.76, -23.65, -24.39, -19.89, 0.000, 0.000, 0.000, 15:35:19.897
226, -28.88, -21.88, -26.87, -20.05, -19.02, -25.28, -23.69, -20.47, -21.28, -19.71, -23.04, -23.42, -30.93, -23.45, -24.50, -20.05, 0.000, 0.000, 0.000, 15:35:19.897
227, -28.88, -21.84, -27.31, -19.96, -18.86, -25.37, -23.80, -20.38, -21.28, -19.71, -23.04, -23.42, -30.93, -23.45, -24.50, -20.05, 0.000, 0.000, 0.000, 15:35:19.897
228, -28.88, -21.84, -27.31, -19.96, -18.86, -25.37, -23.80, -20.38, -21.44, -19.80, -22.73, -23.09, -30.87, -23.60, -24.48, -19.94, 0.000, 0.000, 0.000, 15:35:19.898
229, -29.01, -21.70, -27.00, -19.94, -19.11, -25.12, -23.69, -20.43, -21.44, -19.80, -22.73, -23.09, -30.87, -23.60, -24.48, -19.94, 0.000, 0.000, 0.000, 15:35:19.898
230, -29.01, -21.70, -27.00, -19.94, -19.11, -25.12, -23.69, -20.43, -21.39, -19.83, -22.87, -23.45, -30.89, -23.58, -24.43, -19.89, 0.000, 0.000, 0.000, 15:35:19.898
231, -29.03, -21.75, -27.18, -20.12, -18.93, -25.21, -23.72, -20.43, -21.39, -19.83, -22.87, -23.45, -30.89, -23.58, -24.43, -19.89, 0.000, 0.000, 0.000, 15:35:19.898
232, -29.03, -21.75, -27.18, -20.12, -18.93, -25.21, -23.72, -20.43, -21.26, -19.74, -22.78, -23.38, -30.71, -23.65, -24.30, -20.12, 0.000, 0.000, 0.000, 15:35:19.898
233, -28.92, -21.84, -26.93, -19.83, -18.84, -25.19, -23.67, -20.54, -21.26, -19.74, -22.78, -23.38, -30.71, -23.65, -24.30, -20.12, -0.026, 0.948, -0.204, 15:35:19.898
234, -28.92, -21.84, -26.93, -19.83, -18.84, -25.19, -23.67, -20.54, -21.39, -19.94, -22.75, -23.29, -30.85, -23.51, -24.43, -19.89, 0.000, 0.000, 0.000, 15:35:19.899
235, -28.95, -21.84, -27.00, -19.94, -18.82, -25.35, -23.60, -20.38, -21.39, -19.94, -22.75, -23.29, -30.85, -23.51, -24.43, -19.89, 0.000, 0.000, 0.000, 15:35:19.899
236, -28.95, -21.84, -27.00, -19.94, -18.82, -25.35, -23.60, -20.38, -21.21, -19.67, -22.71, -23.36, -30.80, -23.49, -24.54, -19.80, 0.000, 0.000, 0.000, 15:35:19.899
237, -28.97, -21.86, -27.25, -20.00, -18.91, -25.26, -23.65, -20.41, -21.21, -19.67, -22.71, -23.36, -30.80, -23.49, -24.54, -19.80, 0.000, 0.000, 0.000, 15:35:19.899
238, -28.97, -21.86, -27.25, -20.00, -18.91, -25.26, -23.65, -20.41, -21.59, -19.62, -22.82, -23.31, -30.87, -23.49, -24.43, -19.94, 0.000, 0.000, 0.000, 15:35:19.899
239, -29.17, -21.93, -27.16, -19.94, -18.86, -25.62, -23.67, -20.45, -21.59, -19.62, -22.82, -23.31, -30.87, -23.49, -24.43, -19.94, 0.000, 0.000, 0.000, 15:35:19.900
240, -29.17, -21.93, -27.16, -19.94, -18.86, -25.62, -23.67, -20.45, -21.55, -19.49, -22.66, -23.36, -30.80, -23.42, -24.59, -19.83, 0.000, 0.000, 0.000, 15:35:19.900
241, -29.15, -21.75, -27.00, -20.05, -19.02, -25.50, -23.74, -20.47, -21.55, -19.49, -22.66, -23.36, -30.80, -23.42, -24.59, -19.83, 0.000, 0.000, 0.000, 15:35:20.356
242, -29.15, -21.75, -27.00, -20.05, -19.02, -25.50, -23.74, -20.47, -21.55, -19.80, -22.78, -23.27, -30.87, -23.56, -24.65, -20.07, 0.000, 0.000, 0.000, 15:35:20.357
243, -29.12, -21.79, -27.14, -20.05, -19.09, -25.39, -23.60, -20.23, -21.55, -19.80, -22.78, -23.27, -30.87, -23.56, -24.65, -20.07, -0.020, 0.954, -0.208, 15:35:20.357
244, -29.12, -21.79, -27.14, -20.05, -19.09, -25.39, -23.60, -20.23, -21.50, -19.78, -22.82, -23.09, -30.89, -23.49, -24.23, -20.16, 0.000, 0.000, 0.000, 15:35:20.357
245, -28.70, -21.88, -26.93, -19.98, -18.80, -25.24, -23.76, -20.70, -21.50, -19.78, -22.82, -23.09, -30.89, -23.49, -24.23, -20.16, 0.000, 0.000, 0.000, 15:35:20.357
246, -28.70, -21.88, -26.93, -19.98, -18.80, -25.24, -23.76, -20.70, -21.44, -19.76, -22.84, -23.20, -31.05, -23.56, -24.56, -20.14, 0.000, 0.000, 0.000, 15:35:20.357
247, -28.88, -21.84, -26.87, -20.12, -18.95, -25.35, -23.94, -20.36, -21.44, -19.76, -22.84, -23.20, -31.05, -23.56, -24.56, -20.14, 0.000, 0.000, 0.000, 15:35:20.357
248, -28.88, -21.84, -26.87, -20.12, -18.95, -25.35, -23.94, -20.36, -21.39, -19.54, -22.51, -23.22, -31.02, -23.56, -24.45, -20.07, 0.000, 0.000, 0.000, 15:35:20.358
249, -28.90, -21.82, -26.78, -19.94, -19.02, -25.21, -23.85, -20.74, -21.39, -19.54, -22.51, -23.22, -31.02, -23.56, -24.45, -20.07, 0.000, 0.000, 0.000, 15:35:20.358
250, -28.90, -21.82, -26.78, -19.94, -19.02, -25.21, -23.85, -20.74, -21.64, -19.71, -22.73, -23.13, -30.82, -23.67, -24.56, -19.87, 0.000, 0.000, 0.000, 15:35:20.358
251, -28.99, -21.88, -26.80, -19.83, -18.86, -25.21, -23.65, -20.34, -21.64, -19.71, -22.73, -23.13, -30.82, -23.67, -24.56, -19.87, 0.000, 0.000, 0.000, 15:35:20.358
252, -28.99, -21.88, -26.80, -19.83, -18.86, -25.21, -23.65, -20.34, -21.30, -19.78, -22.71, -23.36, -31.00, -23.36, -24.34, -19.78, 0.000, 0.000, 0.000, 15:35:20.358
253, -29.15, -21.73, -26.96, -19.83, -19.04, -25.41, -23.63, -20.52, -21.30, -19.78, -22.71, -23.36, -31.00, -23.36, -24.34, -19.78, -0.028, 0.950, -0.210, 15:35:20.358
254, -29.15, -21.73, -26.96, -19.83, -19.04, -25.41, -23.63, -20.52, -21.41, -19.58, -22.60, -23.22, -31.00, -23.49, -24.61, -19.98, 0.000, 0.000, 0.000, 15:35:20.359
255, -28.92, -21.84, -26.91, -19.78, -19.04, -25.15, -23.69, -20.52, -21.41, -19.58, -22.60, -23.22, -31.00, -23.49, -24.61, -19.98, 0.000, 0.000, 0.000, 15:35:20.359
0, -28.92, -21.84, -26.91, -19.78, -19.04, -25.15, -23.69, -20.52, -21.44, -19.76, -22.73, -23.36, -30.80, -23.54, -24.34, -19.87, 0.000, 0.000, 0.000, 15:35:20.359
1, -28.97, -22.04, -26.91, -19.94, -18.95, -25.26, -23.63, -20.41, -21.44, -19.76, -22.73, -23.36, -30.80, -23.54, -24.34, -19.87, 0.000, 0.000, 0.000, 15:35:20.359
2, -28.97, -22.04, -26.91, -19.94, -18.95, -25.26, -23.63, -20.41, -21.35, -19.80, -22.84, -23.25, -31.09, -23.65, -24.36, -20.05, 0.000, 0.000, 0.000, 15:35:20.360
3, -29.21, -21.97, -26.93, -19.76, -18.98, -25.39, -23.67, -20.56, -21.35, -19.80, -22.84, -23.25, -31.09, -23.65, -24.36, -20.05, 0.000, 0.000, 0.000, 15:35:20.360
4, -29.21, -21.97, -26.93, -19.76, -18.98, -25.39, -23.67, -20.56, -21.44, -19.74, -22.98, -23.27, -30.76, -23.51, -24.27, -20.03, 0.000, 0.000, 0.000, 15:35:20.360
5, -28.99, -21.82, -26.80, -19.87, -19.02, -25.28, -23.87, -20.38, -21.44, -19.74, -22.98, -23.27, -30.76, -23.51, -24.27, -20.03, 0.000, 0.000, 0.000, 15:35:20.360
6, -28.99, -21.82, -26.80, -19.87, -19.02, -25.28, -23.87, -20.38, -21.28, -19.83, -22.84, -23.58, -30.80, -23.69, -24.50, -19.92, 0.000, 0.000, 0.000, 15:35:20.361
7, -29.08, -21.77, -26.93, -20.05, -19.02, -25.12, -23.78, -20.43, -21.28, -19.83, -22.84, -23.58, -30.80, -23.69, -24.50, -19.92, -0.026, 0.946, -0.212, 15:35:20.361
8, -29.08, -21.77, -26.93, -20.05, -19.02, -25.12, -23.78, -20.43, -21.41, -19.78, -22.91, -23.38, -31.05, -23.56, -24.61, -19.96, 0.000, 0.000, 0.000, 15:35:20.361
9, -28.74, -21.79, -27.16, -20.00, -19.02, -25.12, -23.58, -20.25, -21.41, -19.78, -22.91, -23.38, -31.05, -23.56, -24.61, -19.96, 0.000, 0.000, 0.000, 15:35:20.361
10, -28.74, -21.79, -27.16, -20.00, -19.02, -25.12, -23.58, -20.25, -21.50, -19.83, -22.46, -23.29, -30.96, -23.60, -24.70, -19.94, 0.000, 0.000, 0.000, 15:35:20.361
11, -28.92, -22.08, -27.00, -20.07, -18.80, -25.30, -23.83, -20.41, -21.50, -19.83, -22.46, -23.29, -30.96, -23.60, -24.70, -19.94, 0.000, 0.000, 0.000, 15:35:20.361
12, -28.92, -22.08, -27.00, -20.07, -18.80, -25.30, -23.83, -20.41, -21.44, -19.62, -22.80, -23.20, -30.80, -23.56, -24.41, -20.05, 0.000, 0.000, 0.000, 15:35:20.362
13, -28.97, -21.88, -27.07, -20.09, -18.91, -25.37, -23.87, -20.47, -21.44, -19.62, -22.80, -23.20, -30.80, -23.56, -24.41, -20.05, 0.000, 0.000, 0.000, 15:35:20.362
14, -28.97, -21.88, -27.07, -20.09, -18.91, -25.37, -23.87, -20.47, -21.32, -19.71, -22.91, -23.51, -31.02, -23.58, -24.56, -19.94, 0.000, 0.000, 0.000, 15:35:20.362
15, -28.90, -22.02, -27.18, -20.00, -19.04, -25.12, -23.58, -20.38, -21.32, -19.71, -22.91, -23.51, -31.02, -23.58, -24.56, -19.94, 0.000, 0.000, 0.000, 15:35:20.362
16, -28.90, -22.02, -27.18, -20.00, -19.04, -25.12, -23.58, -20.38, -21.19, -19.94, -22.71, -23.49, -31.02, -23.34, -24.61, -19.87, 0.000, 0.000, 0.000, 15:35:20.362
17, -28.99, -22.02, -27.02, -20.07, -18.93, -25.06, -23.78, -20.25, -21.19, -19.94, -22.71, -23.49, -31.02, -23.34, -24.61, -19.87, -0.036, 0.950, -0.208, 15:35:20.363
18, -28.99, -22.02, -27.02, -20.07, -18.93, -25.06, -23.78, -20.25, -21.59, -19.85, -22.82, -23.34, -30.69, -23.63, -24.48, -19.94, 0.000, 0.000, 0.000, 15:35:20.363
19, -28.90, -21.88, -26.91, -19.96, -18.78, -25.15, -23.76, -20.41, -21.59, -19.85, -22.82, -23.34, -30.69, -23.63, -24.48, -19.94, 0.000, 0.000, 0.000, 15:35:20.363
20, -28.90, -21.88, -26.91, -19.96, -18.78, -25.15, -23.76, -20.41, -21.48, -19.96, -22.80, -23.18, -30.71, -23.60, -24.43, -19.92, 0.000, 0.000, 0.000, 15:35:20.363
21, -28.95, -21.77, -26.91, -19.96, -18.82, -25.30, -23.89, -20.47, -21.48, -19.96, -22.80, -23.18, -30.71, -23.60, -24.43, -19.92, 0.000, 0.000, 0.000, 15:35:20.363
22, -28.95, -21.77, -26.91, -19.96, -18.82, -25.30, -23.89, -20.47, -21.41, -19.67, -22.60, -23.34, -30.89, -23.51, -24.52, -19.74, 0.000, 0.000, 0.000, 15:35:20.364
23, -29.08, -21.86, -26.91, -19.89, -19.02, -25.55, -23.67, -20.47, -21.41, -19.67, -22.60, -23.34, -30.89, -23.51, -24.52, -19.74, 0.000, 0.000, 0.000, 15:35:20.364
24, -29.08, -21.86, -26.91, -19.89, -19.02, -25.55, -23.67, -20.47, -21.44, -19.69, -22.73, -23.29, -30.89, -23.63, -24.23, -19.51, 0.000, 0.000, 0.000, 15:35:20.364
25, -29.06, -21.64, -27.00, -19.74, -19.00, -25.32, -23.72, -20.43, -21.44, -19.69, -22.73, -23.29, -30.89, -23.63, -24.23, -19.51, 0.000, 0.000, 0.000, 15:35:20.364
26, -29.06, -21.64, -27.00, -19.74, -19.00, -25.32, -23.72, -20.43, -21.37, -19.78, -22.73, -23.36, -30.93, -23.65, -24.61, -19.78, -0.036, 0.948, -0.208, 15:35:20.364
27, -28.99, -21.75, -26.76, -19.98, -18.93, -25.39, -23.78, -20.50, -21.37, -19.78, -22.73, -23.36, -30.93, -23.65, -24.61, -19.78, 0.000, 0.000, 0.000, 15:35:20.364
28, -28.99, -21.75, -26.76, -19.98, -18.93, -25.39, -23.78, -20.50, -21.35, -19.69, -22.87, -23.13, -30.91, -23.51, -24.43, -19.80, 0.000, 0.000, 0.000, 15:35:20.365
29, -28.99, -21.68, -26.80, -19.87, -18.86, -25.28, -23.63, -20.38, -21.35, -19.69, -22.87, -23.13, -30.91, -23.51, -24.43, -19.80, 0.000, 0.000, 0.000, 15:35:20.365
30, -28.99, -21.68, -26.80, -19.87, -18.86, -25.28, -23.63, -20.38, -21.39, -19.85, -22.82, -23.40, -30.87, -23.51, -24.45, -20.03, 0.000, 0.000, 0.000, 15:35:20.365
31, -28.99, -21.97, -27.11, -19.89, -18.86, -25.28, -23.47, -20.54, -21.39, -19.85, -22.82, -23.40, -30.87, -23.51, -24.45, -20.03, 0.000, 0.000, 0.000, 15:35:20.365
32, -28.99, -21.97, -27.11, -19.89, -18.86, -25.28, -23.47, -20.54, -21.28, -19.85, -22.58, -23.49, -30.91, -23.34, -24.45, -20.03, 0.000, 0.000, 0.000, 15:35:20.365
33, -28.92, -22.04, -27.20, -19.83, -19.00, -25.17, -23.80, -20.45, -21.28, -19.85, -22.58, -23.49, -30.91, -23.34, -24.45, -20.03, 0.000, 0.000, 0.000, 15:35:20.366
34, -28.92, -22.04, -27.20, -19.83, -19.00, -25.17, -23.80, -20.45, -21.26, -19.74, -22.80, -23.29, -31.05, -23.49, -24.59, -20.09, 0.000, 0.000, 0.000, 15:35:20.366
35, -28.88, -21.77, -26.96, -19.74, -18.95, -25.24, -23.87, -20.41, -21.26, -19.74, -22.80, -23.29, -31.05, -23.49, -24.59, -20.09, 0.000, 0.000, 0.000, 15:35:20.366
36, -28.88, -21.77, -26.96, -19.74, -18.95, -25.24, -23.87, -20.41, -21.30, -19.67, -22.62, -23.34, -31.20, -23.54, -24.56, -19.96, -0.036, 0.942, -0.210, 15:35:20.366
37, -28.90, -21.82, -27.18, -19.94, -18.82, -25.44, -23.74, -20.45, -21.30, -19.67, -22.62, -23.34, -31.20, -23.54, -24.56, -19.96, 0.000, 0.000, 0.000, 15:35:20.366
38, -28.90, -21.82, -27.18, -19.94, -18.82, -25.44, -23.74, -20.45, -21.35, -19.74, -22.87, -23.47, -30.87, -23.67, -24.72, -20.25, 0.000, 0.000, 0.000, 15:35:20.366
39, -29.03, -21.93, -27.18, -19.85, -18.93, -25.19, -23.72, -20.43, -21.35, -19.74, -22.87, -23.47, -30.87, -23.67, -24.72, -20.25, 0.000, 0.000, 0.000, 15:35:20.367
40, -29.03, -21.93, -27.18, -19.85, -18.93, -25.19, -23.72, -20.43, -21.19, -19.71, -22.98, -23.31, -30.98, -23.96, -24.74, -19.98, 0.000, 0.000, 0.000, 15:35:20.367
41, -28.79, -21.97, -27.05, -20.16, -18.93, -25.24, -23.65, -20.52, -21.19, -19.71, -22.98, -23.31, -30.98, -23.96, -24.74, -19.98, 0.000, 0.000, 0.000, 15:35:20.367
42, -28.79, -21.97, -27.05, -20.16, -18.93, -25.24, -23.65, -20.52, -21.41, -19.62, -22.66, -23.22, -30.93, -23.72, -24.39, -19.96, 0.000, 0.000, 0.000, 15:35:20.367
43, -28.90, -21.75, -27.02, -19.98, -19.09, -25.19, -23.80, -20.50, -21.41, -19.62, -22.66, -23.22, -30.93, -23.72, -24.39, -19.96, 0.000, 0.000, 0.000, 15:35:20.368
44, -28.90, -21.75, -27.02, -19.98, -19.09, -25.19, -23.80, -20.50, -21.55, -19.83, -22.66, -23.29, -30.89, -23.54, -24.61, -20.14, 0.000, 0.000, 0.000, 15:35:20.368
45, -28.95, -21.70, -27.07, -19.96, -19.00, -24.99, -23.72, -20.21, -21.55, -19.83, -22.66, -23.29, -30.89, -23.54, -24.61, -20.14, 0.000, 0.000, 0.000, 15:35:20.368
46, -28.95, -21.70, -27.07, -19.96, -19.00, -24.99, -23.72, -20.21, -21.70, -19.78, -22.78, -23.36, -30.93, -23.76, -24.65, -19.83, -0.034, 0.936, -0.200, 15:35:20.368
47, -28.97, -21.73, -27.20, -20.14, -19.00, -25.35, -23.72, -20.43, -21.70, -19.78, -22.78, -23.36, -30.93, -23.76, -24.65, -19.83, 0.000, 0.000, 0.000, 15:35:20.369
48, -28.97, -21.73, -27.20, -20.14, -19.00, -25.35, -23.72, -20.43, -21.46, -19.89, -22.58, -23.38, -30.91, -23.42, -24.65, -19.98, 0.000, 0.000, 0.000, 15:35:20.369
49, -28.97, -21.99, -26.71, -19.94, -19.07, -25.28, -23.83, -20.25, -21.46, -19.89, -22.58, -23.38, -30.91, -23.42, -24.65, -19.98, 0.000, 0.000, 0.000, 15:35:20.369
50, -28.97, -21.99, -26.71, -19.94, -19.07, -25.28, -23.83, -20.25, -21.23, -19.62, -22.82, -23.29, -30.67, -23.60, -24.36, -19.98, 0.000, 0.000, 0.000, 15:35:20.370
51, -28.88, -21.99, -26.73, -20.09, -19.02, -25.17, -23.67, -20.27, -21.23, -19.62, -22.82, -23.29, -30.67, -23.60, -24.36, -19.98, 0.000, 0.000, 0.000, 15:35:20.370
52, -28.88, -21.99, -26.73, -20.09, -19.02, -25.17, -23.67, -20.27, -21.44, -19.76, -22.62, -23.31, -31.16, -23.29, -24.45, -19.94, 0.000, 0.000, 0.000, 15:35:20.370
53, -29.01, -21.93, -27.09, -19.87, -18.82, -25.35, -23.85, -20.43, -21.44, -19.76, -22.62, -23.31, -31.16, -23.29, -24.45, -19.94, 0.000, 0.000, 0.000, 15:35:20.371
54, -29.01, -21.93, -27.09, -19.87, -18.82, -25.35, -23.85, -20.43, -21.37, -19.65, -22.69, -23.22, -31.07, -23.40, -24.72, -20.00, 0.000, 0.000, 0.000, 15:35:20.371
55, -29.17, -21.88, -26.91, -19.98, -19.00, -25.26, -23.83, -20.41, -21.37, -19.65, -22.69, -23.22, -31.07, -23.40, -24.72, -20.00, 0.000, 0.000, 0.000, 15:35:20.372
56, -29.17, -21.88, -26.91, -19.98, -19.00, -25.26, -23.83, -20.41, -21.46, -19.42, -22.75, -23.18, -30.89, -23.54, -24.59, -19.89, -0.034, 0.942, -0.204, 15:35:20.372
57, -28.88, -21.79, -27.00, -19.98, -19.09, -25.28, -23.76, -20.56, -21.46, -19.42, -22.75, -23.18, -30.89, -23.54, -24.59, -19.89, 0.000, 0.000, 0.000, 15:35:20.372
58, -28.88, -21.79, -27.00, -19.98, -19.09, -25.28, -23.76, -20.56, -21.37, -19.49, -22.80, -23.22, -30.69, -23.51, -24.61, -20.09, 0.000, 0.000, 0.000, 15:35:20.373
59, -29.21, -21.90, -26.89, -19.96, -19.07, -25.19, -23.65, -20.54, -21.37, -19.49, -22.80, -23.22, -30.69, -23.51, -24.61, -20.09, 0.000, 0.000, 0.000, 15:35:20.373
60, -29.21, -21.90, -26.89, -19.96, -19.07, -25.19, -23.65, -20.54, -21.35, -19.83, -22.69, -23.31, -30.85, -23.69, -24.65, -19.83, 0.000, 0.000, 0.000, 15:35:20.373
61, -28.72, -21.68, -27.22, -19.98, -18.93, -25.17, -23.67, -20.65, -21.35, -19.83, -22.69, -23.31, -30.85, -23.69, -24.65, -19.83, 0.000, 0.000, 0.000, 15:35:20.373
62, -28.72, -21.68, -27.22, -19.98, -18.93, -25.17, -23.67, -20.65, -21.21, -19.76, -22.75, -23.34, -31.09, -23.63, -24.56, -20.00, 0.000, 0.000, 0.000, 15:35:20.373
63, -28.72, -21.84, -27.09, -20.03, -18.55, -25.17, -23.67, -20.41, -21.21, -19.76, -22.75, -23.34, -31.09, -23.63, -24.56, -20.00, 0.000, 0.000, 0.000, 15:35:20.373
64, -28.72, -21.84, -27.09, -20.03, -18.55, -25.17, -23.67, -20.41, -21.21, -19.62, -22.87, -23.18, -31.02, -23.58, -24.52, -19.96, 0.000, 0.000, 0.000, 15:35:20.374
65, -28.79, -21.88, -26.89, -19.92, -18.86, -25.44, -23.74, -20.54, -21.21, -19.62, -22.87, -23.18, -31.02, -23.58, -24.52, -19.96, 0.000, 0.000, 0.000, 15:35:20.374
66, -28.79, -21.88, -26.89, -19.92, -18.86, -25.44, -23.74, -20.54, -21.52, -19.60, -22.71, -23.25, -30.82, -23.69, -24.52, -20.12, -0.032, 0.938, -0.202, 15:35:20.374
67, -29.10, -21.77, -27.00, -20.03, -18.91, -25.48, -23.83, -20.34, -21.52, -19.60, -22.71, -23.25, -30.82, -23.69, -24.52, -20.12, 0.000, 0.000, 0.000, 15:35:20.374
68, -29.10, -21.77, -27.00, -20.03, -18.91, -25.48, -23.83, -20.34, -21.30, -19.62, -22.80, -23.13, -30.80, -23.47, -24.34, -20.09, 0.000, 0.000, 0.000, 15:35:20.374
69, -29.03, -21.88, -26.93, -20.23, -18.91, -25.30, -23.69, -20.45, -21.30, -19.62, -22.80, -23.13, -30.80, -23.47, -24.34, -20.09, 0.000, 0.000, 0.000, 15:35:20.374
70, -29.03, -21.88, -26.93, -20.23, -18.91, -25.30, -23.69, -20.45, -21.30, -19.51, -22.91, -23.40, -30.93, -23.54, -24.45, -20.07, 0.000, 0.000, 0.000, 15:35:20.375
71, -28.95, -21.79, -27.02, -20.03, -18.86, -25.53, -23.69, -20.50, -21.30, -19.51, -22.91, -23.40, -30.93, -23.54, -24.45, -20.07, 0.000, 0.000, 0.000, 15:35:20.375
72, -28.95, -21.79, -27.02, -20.03, -18.86, -25.53, -23.69, -20.50, -21.30, -19.76, -22.80, -23.34, -30.89, -23.47, -24.56, -19.92, 0.000, 0.000, 0.000, 15:35:20.375
73, -28.92, -21.90, -27.02, -19.94, -19.11, -25.44, -23.63, -20.50, -21.30, -19.76, -22.80, -23.34, -30.89, -23.47, -24.56, -19.92, 0.000, 0.000, 0.000, 15:35:20.376
74, -28.92, -21.90, -27.02, -19.94, -19.11, -25.44, -23.63, -20.50, -21.41, -19.74, -22.51, -23.42, -30.76, -23.49, -24.54, -19.83, 0.000, 0.000, 0.000, 15:35:20.376
75, -28.90, -21.79, -26.89, -20.16, -18.93, -25.28, -23.74, -20.27, -21.41, -19.74, -22.51, -23.42, -30.76, -23.49, -24.54, -19.83, 0.000, 0.000, 0.000, 15:35:20.376
76, -28.90, -21.79, -26.89, -20.16, -18.93, -25.28, -23.74, -20.27, -21.28, -19.71, -22.62, -23.20, -30.58, -23.34, -24.54, -20.00, -0.030, 0.940, -0.204, 15:35:20.376
77, -28.88, -22.02, -26.89, -19.98, -19.11, -25.39, -23.76, -20.41, -21.28, -19.71, -22.62, -23.20, -30.58, -23.34, -24.54, -20.00, 0.000, 0.000, 0.000, 15:35:20.376
78, -28.88, -22.02, -26.89, -19.98, -19.11, -25.39, -23.76, -20.41, -21.37, -19.45, -22.62, -23.13, -30.91, -23.56, -24.70, -19.92, 0.000, 0.000, 0.000, 15:35:20.376
79, -28.92, -21.97, -27.14, -19.94, -18.98, -25.35, -23.78, -20.52, -21.37, -19.45, -22.62, -23.13, -30.91, -23.56, -24.70, -19.92, 0.000, 0.000, 0.000, 15:35:20.377
80, -28.92, -21.97, -27.14, -19.94, -18.98, -25.35, -23.78, -20.52, -21.37, -19.78, -23.04, -23.29, -30.89, -23.42, -24.50, -19.85, 0.000, 0.000, 0.000, 15:35:20.377
81, -29.15, -21.88, -27.11, -19.94, -19.02, -25.41, -23.65, -20.54, -21.37, -19.78, -23.04, -23.29, -30.89, -23.42, -24.50, -19.85, 0.000, 0.000, 0.000, 15:35:20.377
82, -29.15, -21.88, -27.11, -19.94, -19.02, -25.41, -23.65, -20.54, -21.44, -19.58, -22.75, -23.34, -30.69, -23.63, -24.43, -19.94, 0.000, 0.000, 0.000, 15:35:20.377
83, -28.97, -21.82, -26.98, -20.03, -18.89, -25.26, -23.92, -20.52, -21.44, -19.58, -22.75, -23.34, -30.69, -23.63, -24.43, -19.94, 0.000, 0.000, 0.000, 15:35:20.377
84, -28.97, -21.82, -26.98, -20.03, -18.89, -25.26, -23.92, -20.52, -21.26, -19.60, -22.89, -23.42, -30.80, -23.49, -24.56, -19.87, 0.000, 0.000, 0.000, 15:35:20.377
85, -28.81, -21.90, -27.16, -20.03, -18.91, -25.26, -23.85, -20.30, -21.26, -19.60, -22.89, -23.42, -30.80, -23.49, -24.56, -19.87, -0.026, 0.940, -0.206, 15:35:20.378
86, -28.81, -21.90, -27.16, -20.03, -18.91, -25.26, -23.85, -20.30, -21.61, -19.65, -22.87, -23.45, -31.02, -23.65, -24.50, -19.89, 0.000, 0.000, 0.000, 15:35:20.378
87, -28.79, -21.95, -27.09, -20.09, -18.98, -25.46, -23.85, -20.25, -21.61, -19.65, -22.87, -23.45, -31.02, -23.65, -24.50, -19.89, 0.000, 0.000, 0.000, 15:35:20.378
88, -28.79, -21.95, -27.09, -20.09, -18.98, -25.46, -23.85, -20.25, -21.59, -19.71, -22.84, -23.38, -30.73, -23.56, -24.56, -20.05, 0.000, 0.000, 0.000, 15:35:20.378
89, -28.92, -21.70, -27.27, -19.94, -18.78, -25.46, -23.83, -20.21, -21.59, -19.71, -22.84, -23.38, -30.73, -23.56, -24.56, -20.05, 0.000, 0.000, 0.000, 15:35:20.378
90, -28.92, -21.70, -27.27, -19.94, -18.78, -25.46, -23.83, -20.21, -21.35, -19.85, -22.73, -23.31, -31.05, -23.65, -24.39, -19.92, 0.000, 0.000, 0.000, 15:35:20.378
91, -29.06, -21.68, -26.93, -19.78, -18.95, -25.39, -23.60, -20.23, -21.35, -19.85, -22.73, -23.31, -31.05, -23.65, -24.39, -19.92, 0.000, 0.000, 0.000, 15:35:20.379
92, -29.06, -21.68, -26.93, -19.78, -18.95, -25.39, -23.60, -20.23, -21.32, -19.71, -22.84, -23.18, -30.96, -23.54, -24.43, -19.87, 0.000, 0.000, 0.000, 15:35:20.379
93, -28.92, -21.68, -27.11, -20.03, -18.95, -25.35, -23.87, -20.34, -21.32, -19.71, -22.84, -23.18, -30.96, -23.54, -24.43, -19.87, 0.000, 0.000, 0.000, 15:35:20.379
94, -28.92, -21.68, -27.11, -20.03, -18.95, -25.35, -23.87, -20.34, -21.28, -19.69, -22.84, -23.40, -30.78, -23.58, -24.54, -20.00, 0.000, 0.000, 0.000, 15:35:20.379
95, -28.77, -21.99, -27.14, -20.14, -18.89, -25.35, -23.72, -20.61, -21.28, -19.69, -22.84, -23.40, -30.78, -23.58, -24.54, -20.00, -0.040, 0.950, -0.206, 15:35:20.380
96, -28.77, -21.99, -27.14, -20.14, -18.89, -25.35, -23.72, -20.61, -21.48, -19.65, -22.71, -23.45, -30.78, -23.56, -24.63, -19.80, 0.000, 0.000, 0.000, 15:35:20.380
97, -28.81, -21.77, -26.98, -20.16, -18.95, -25.26, -23.72, -20.52, -21.48, -19.65, -22.71, -23.45, -30.78, -23.56, -24.63, -19.80, 0.000, 0.000, 0.000, 15:35:20.380
98, -28.81, -21.77, -26.98, -20.16, -18.95, -25.26, -23.72, -20.52, -21.46, -19.49, -22.64, -23.22, -30.89, -23.63, -24.65, -19.94, 0.000, 0.000, 0.000, 15:35:20.380
99, -28.77, -21.77, -27.20, -19.98, -18.89, -25.37, -23.67, -20.43, -21.46, -19.49, -22.64, -23.22, -30.89, -23.63, -24.65, -19.94, 0.000, 0.000, 0.000, 15:35:20.380
100, -28.77, -21.77, -27.20, -19.98, -18.89, -25.37, -23.67, -20.43, -21.26, -19.56, -22.73, -23.51, -30.93, -23.51, -24.52, -20.03, 0.000, 0.000, 0.000, 15:35:20.381
101, -29.10, -21.75, -27.02, -20.23, -18.69, -25.44, -23.51, -20.61, -21.26, -19.56, -22.73, -23.51, -30.93, -23.51, -24.52, -20.03, 0.000, 0.000, 0.000, 15:35:20.381
102, -29.10, -21.75, -27.02, -20.23, -18.69, -25.44, -23.51, -20.61, -21.26, -19.56, -22.93, -23.34, -30.73, -23.47, -24.41, -19.78, 0.000, 0.000, 0.000, 15:35:20.381
103, -29.06, -21.70, -26.98, -19.96, -18.66, -25.37, -23.60, -20.38, -21.26, -19.56, -22.93, -23.34, -30.73, -23.47, -24.41, -19.78, 0.000, 0.000, 0.000, 15:35:20.381
104, -29.06, -21.70, -26.98, -19.96, -18.66, -25.37, -23.60, -20.38, -21.44, -19.76, -22.62, -23.40, -30.87, -23.20, -24.43, -19.98, 0.000, 0.000, 0.000, 15:35:20.381
105, -28.92, -21.82, -27.02, -20.27, -18.69, -25.21, -23.69, -20.63, -21.44, -19.76, -22.62, -23.40, -30.87, -23.20, -24.43, -19.98, -0.044, 0.950, -0.208, 15:35:20.837
106, -28.92, -21.82, -27.02, -20.27, -18.69, -25.21, -23.69, -20.63, -21.32, -19.67, -22.44, -23.29, -31.00, -23.47, -24.56, -20.03, 0.000, 0.000, 0.000, 15:35:20.838
107, -28.77, -21.86, -27.14, -19.89, -18.89, -25.21, -23.83, -20.50, -21.32, -19.67, -22.44, -23.29, -31.00, -23.47, -24.56, -20.03, 0.000, 0.000, 0.000, 15:35:20.838
108, -28.77, -21.86, -27.14, -19.89, -18.89, -25.21, -23.83, -20.50, -21.30, -19.67, -22.98, -23.31, -31.02, -23.60, -24.61, -19.87, 0.000, 0.000, 0.000, 15:35:20.838
109, -28.97, -21.77, -27.05, -19.94, -19.09, -25.32, -23.60, -20.63, -21.30, -19.67, -22.98, -23.31, -31.02, -23.60, -24.61, -19.87, 0.000, 0.000, 0.000, 15:35:20.839
110, -28.97, -21.77, -27.05, -19.94, -19.09, -25.32, -23.60, -20.63, -21.39, -19.69, -22.87, -23.16, -30.80, -23.72, -24.39, -20.07, 0.000, 0.000, 0.000, 15:35:20.839
111, -28.83, -21.93, -26.93, -19.98, -19.13, -25.30, -23.63, -20.32, -21.39, -19.69, -22.87, -23.16, -30.80, -23.72, -24.39, -20.07, 0.000, 0.000, 0.000, 15:35:20.839
112, -28.83, -21.93, -26.93, -19.98, -19.13, -25.30, -23.63, -20.32, -21.50, -19.76, -22.62, -23.27, -30.85, -23.54, -24.50, -19.87, 0.000, 0.000, 0.000, 15:35:20.839
113, -28.88, -21.99, -27.11, -19.96, -19.04, -25.30, -23.69, -20.50, -21.50, -19.76, -22.62, -23.27, -30.85, -23.54, -24.50, -19.87, 0.000, 0.000, 0.000, 15:35:20.839
114, -28.88, -21.99, -27.11, -19.96, -19.04, -25.30, -23.69, -20.50, -21.39, -19.89, -22.89, -23.38, -30.85, -23.58, -24.50, -19.87, 0.000, 0.000, 0.000, 15:35:20.840
115, -28.97, -22.04, -27.14, -20.03, -19.09, -25.28, -23.65, -20.41, -21.39, -19.89, -22.89, -23.38, -30.85, -23.58, -24.50, -19.87, -0.042, 0.946, -0.208, 15:35:20.840
116, -28.97, -22.04, -27.14, -20.03, -19.09, -25.28, -23.65, -20.41, -21.44, -19.69, -22.93, -23.36, -30.69, -23.58, -24.59, -19.85, 0.000, 0.000, 0.000, 15:35:20.840
117, -28.99, -21.86, -27.07, -19.89, -19.02, -25.46, -23.63, -20.32, -21.44, -19.69, -22.93, -23.36, -30.69, -23.58, -24.59, -19.85, 0.000, 0.000, 0.000, 15:35:20.840
118, -28.99, -21.86, -27.07, -19.89, -19.02, -25.46, -23.63, -20.32, -21.64, -19.69, -22.78, -23.00, -31.02, -23.34, -24.34, -20.05, 0.000, 0.000, 0.000, 15:35:20.841
119, -29.01, -21.82, -26.96, -20.05, -18.98, -25.28, -23.74, -20.36, -21.64, -19.69, -22.78, -23.00, -31.02, -23.34, -24.34, -20.05, 0.000, 0.000, 0.000, 15:35:20.841
120, -29.01, -21.82, -26.96, -20.05, -18.98, -25.28, -23.74, -20.36, -21.23, -19.71, -22.75, -23.20, -30.93, -23.54, -24.54, -19.85, 0.000, 0.000, 0.000, 15:35:20.841
121, -28.95, -21.99, -26.93, -20.16, -18.84, -25.24, -23.47, -20.30, -21.23, -19.71, -22.75, -23.20, -30.93, -23.54, -24.54, -19.85, 0.000, 0.000, 0.000, 15:35:20.841
122, -28.95, -21.99, -26.93, -20.16, -18.84, -25.24, -23.47, -20.30, -21.32, -19.78, -22.62, -23.36, -30.73, -23.58, -24.59, -19.94, 0.000, 0.000, 0.000, 15:35:20.841
123, -29.01, -21.77, -27.09, -20.07, -18.98, -25.08, -23.72, -20.27, -21.32, -19.78, -22.62, -23.36, -30.73, -23.58, -24.59, -19.94, 0.000, 0.000, 0.000, 15:35:20.841
124, -29.01, -21.77, -27.09, -20.07, -18.98, -25.08, -23.72, -20.27, -21.55, -19.71, -22.91, -23.29, -31.00, -23.69, -24.54, -19.76, 0.000, 0.000, 0.000, 15:35:20.842
125, -28.92, -21.93, -27.16, -20.14, -18.75, -25.35, -23.58, -20.32, -21.55, -19.71, -22.91, -23.29, -31.00, -23.69, -24.54, -19.76, -0.034, 0.944, -0.204, 15:35:20.842
126, -28.92, -21.93, -27.16, -20.14, -18.75, -25.35, -23.58, -20.32, -21.39, -19.71, -22.73, -23.18, -30.98, -23.38, -24.54, -19.83, 0.000, 0.000, 0.000, 15:35:20.842
127, -28.95, -21.93, -27.05, -20.09, -18.89, -25.35, -23.76, -20.18, -21.39, -19.71, -22.73, -23.18, -30.98, -23.38, -24.54, -19.83, 0.000, 0.000, 0.000, 15:35:20.842
128, -28.95, -21.93, -27.05, -20.09, -18.89, -25.35, -23.76, -20.18, -21.32, -19.67, -22.75, -23.38, -31.11, -23.34, -24.52, -19.96, 0.000, 0.000, 0.000, 15:35:20.843
129, -29.10, -21.97, -26.98, -19.92, -18.93, -25.17, -23.72, -20.18, -21.32, -19.67, -22.75, -23.38, -31.11, -23.34, -24.52, -19.96, 0.000, 0.000, 0.000, 15:35:20.843
130, -29.10, -21.97, -26.98, -19.92, -18.93, -25.17, -23.72, -20.18, -21.28, -19.74, -22.71, -23.49, -31.05, -23.49, -24.61, -19.94, 0.000, 0.000, 0.000, 15:35:20.843
131, -28.90, -22.02, -27.09, -19.85, -18.89, -25.17, -23.80, -20.54, -21.28, -19.74, -22.71, -23.49, -31.05, -23.49, -24.61, -19.94, 0.000, 0.000, 0.000, 15:35:20.844
132, -28.90, -22.02, -27.09, -19.85, -18.89, -25.17, -23.80, -20.54, -21.37, -19.60, -22.91, -23.38, -30.89, -23.54, -24.39, -19.94, 0.000, 0.000, 0.000, 15:35:20.844
133, -28.79, -21.88, -27.07, -19.87, -18.98, -25.37, -23.92, -20.41, -21.37, -19.60, -22.91, -23.38, -30.89, -23.54, -24.39, -19.94, 0.000, 0.000, 0.000, 15:35:20.844
134, -28.79, -21.88, -27.07, -19.87, -18.98, -25.37, -23.92, -20.41, -21.48, -19.56, -22.53, -23.36, -30.87, -23.69, -24.48, -20.07, 0.000, 0.000, 0.000, 15:35:20.844
135, -29.06, -22.02, -27.29, -20.18, -18.98, -25.19, -23.69, -20.34, -21.48, -19.56, -22.53, -23.36, -30.87, -23.69, -24.48, -20.07, -0.034, 0.944, -0.214, 15:35:20.844
136, -29.06, -22.02, -27.29, -20.18, -18.98, -25.19, -23.69, -20.34, -21.37, -19.76, -22.89, -23.27, -30.80, -23.65, -24.48, -20.03, 0.000, 0.000, 0.000, 15:35:20.844
137, -28.77, -21.84, -27.00, -20.00, -18.82, -25.32, -23.60, -20.45, -21.37, -19.76, -22.89, -23.27, -30.80, -23.65, -24.48, -20.03, 0.000, 0.000, 0.000, 15:35:20.845
138, -28.77, -21.84, -27.00, -20.00, -18.82, -25.32, -23.60, -20.45, -21.41, -19.58, -22.80, -23.34, -31.02, -23.47, -24.61, -19.98, 0.000, 0.000, 0.000, 15:35:20.845
139, -28.79, -22.04, -26.96, -19.85, -18.80, -25.12, -23.74, -20.45, -21.41, -19.58, -22.80, -23.34, -31.02, -23.47, -24.61, -19.98, 0.000, 0.000, 0.000, 15:35:20.845
140, -28.79, -22.04, -26.96, -19.85, -18.80, -25.12, -23.74, -20.45, -21.23, -19.54, -22.60, -23.34, -31.05, -23.42, -24.59, -19.80, 0.000, 0.000, 0.000, 15:35:20.845
141, -28.86, -21.88, -26.93, -19.98, -18.86, -25.32, -23.78, -20.61, -21.23, -19.54, -22.60, -23.34, -31.05, -23.42, -24.59, -19.80, 0.000, 0.000, 0.000, 15:35:20.845
142, -28.86, -21.88, -26.93, -19.98, -18.86, -25.32, -23.78, -20.61, -21.12, -19.56, -22.96, -23.25, -30.87, -23.65, -24.45, -19.96, 0.000, 0.000, 0.000, 15:35:20.845
143, -28.95, -21.86, -26.98, -19.87, -18.93, -25.10, -23.92, -20.18, -21.12, -19.56, -22.96, -23.25, -30.87, -23.65, -24.45, -19.96, 0.000, 0.000, 0.000, 15:35:20.846
144, -28.95, -21.86, -26.98, -19.87, -18.93, -25.10, -23.92, -20.18, -21.17, -19.60, -23.04, -23.18, -30.89, -23.60, -24.68, -20.00, -0.030, 0.946, -0.208, 15:35:20.846
145, -28.90, -22.08, -27.00, -19.85, -18.91, -25.35, -23.78, -20.68, -21.17, -19.60, -23.04, -23.18, -30.89, -23.60, -24.68, -20.00, 0.000, 0.000, 0.000, 15:35:20.846
146, -28.90, -22.08, -27.00, -19.85, -18.91, -25.35, -23.78, -20.68, -21.48, -19.74, -22.87, -23.29, -30.76, -23.34, -24.54, -19.89, 0.000, 0.000, 0.000, 15:35:20.846
147, -28.99, -21.86, -27.02, -19.76, -18.84, -25.08, -23.87, -20.36, -21.48, -19.74, -22.87, -23.29, -30.76, -23.34, -24.54, -19.89, 0.000, 0.000, 0.000, 15:35:20.846
148, -28.99, -21.86, -27.02, -19.76, -18.84, -25.08, -23.87, -20.36, -21.46, -19.62, -22.73, -23.18, -30.78, -23.63, -24.70, -19.80, 0.000, 0.000, 0.000, 15:35:20.846
149, -28.74, -21.70, -27.02, -20.00, -18.82, -25.17, -23.94, -20.52, -21.46, -19.62, -22.73, -23.18, -30.78, -23.63, -24.70, -19.80, 0.000, 0.000, 0.000, 15:35:20.847
150, -28.74, -21.70, -27.02, -20.00, -18.82, -25.17, -23.94, -20.52, -21.44, -19.71, -22.84, -23.29, -30.96, -23.51, -24.68, -20.18, 0.000, 0.000, 0.000, 15:35:20.847
151, -28.77, -21.84, -27.00, -19.94, -18.93, -25.10, -23.87, -20.47, -21.44, -19.71, -22.84, -23.29, -30.96, -23.51, -24.68, -20.18, 0.000, 0.000, 0.000, 15:35:20.847
152, -28.77, -21.84, -27.00, -19.94, -18.93, -25.10, -23.87, -20.47, -21.46, -19.87, -22.80, -23.38, -30.93, -23.72, -24.52, -19.87, 0.000, 0.000, 0.000, 15:35:20.847
153, -28.86, -21.57, -26.87, -19.92, -18.95, -25.19, -23.94, -20.38, -21.46, -19.87, -22.80, -23.38, -30.93, -23.72, -24.52, -19.87, 0.000, 0.000, 0.000, 15:35:20.847
154, -28.86, -21.57, -26.87, -19.92, -18.95, -25.19, -23.94, -20.38, -21.28, -19.92, -22.69, -23.31, -30.85, -23.69, -24.48, -19.76, -0.038, 0.950, -0.210, 15:35:20.847
155, -28.63, -21.86, -26.98, -19.83, -18.91, -25.12, -23.92, -20.27, -21.28, -19.92, -22.69, -23.31, -30.85, -23.69, -24.48, -19.76, 0.000, 0.000, 0.000, 15:35:20.848
156, -28.63, -21.86, -26.98, -19.83, -18.91, -25.12, -23.92, -20.27, -21.21, -19.78, -22.69, -23.47, -31.00, -23.65, -24.70, -19.96, 0.000, 0.000, 0.000, 15:35:20.848
157, -28.83, -21.79, -26.96, -19.92, -18.84, -25.24, -23.67, -20.54, -21.21, -19.78, -22.69, -23.47, -31.00, -23.65, -24.70, -19.96, 0.000, 0.000, 0.000, 15:35:20.848
158, -28.83, -21.79, -26.96, -19.92, -18.84, -25.24, -23.67, -20.54, -21.39, -19.69, -22.96, -23.34, -30.87, -23.51, -24.61, -19.89, 0.000, 0.000, 0.000, 15:35:20.848
159, -28.79, -21.77, -27.18, -19.74, -19.00, -25.35, -23.85, -20.27, -21.39, -19.69, -22.96, -23.34, -30.87, -23.51, -24.61, -19.89, 0.000, 0.000, 0.000, 15:35:20.848
160, -28.79, -21.77, -27.18, -19.74, -19.00, -25.35, -23.85, -20.27, -21.21, -20.05, -23.00, -23.27, -30.80, -23.54, -24.59, -19.80, 0.000, 0.000, 0.000, 15:35:20.849
161, -28.81, -21.93, -26.98, -20.07, -19.00, -25.50, -23.78, -20.38, -21.21, -20.05, -23.00, -23.27, -30.80, -23.54, -24.59, -19.80, 0.000, 0.000, 0.000, 15:35:20.849
162, -28.81, -21.93, -26.98, -20.07, -19.00, -25.50, -23.78, -20.38, -21.28, -19.83, -22.69, -23.20, -31.14, -23.54, -24.36, -19.85, 0.000, 0.000, 0.000, 15:35:20.849
163, -28.86, -22.08, -27.14, -19.92, -18.73, -25.26, -23.80, -20.27, -21.28, -19.83, -22.69, -23.20, -31.14, -23.54, -24.36, -19.85, 0.000, 0.000, 0.000, 15:35:20.849
164, -28.86, -22.08, -27.14, -19.92, -18.73, -25.26, -23.80, -20.27, -21.32, -19.60, -22.66, -23.20, -31.02, -23.65, -24.56, -19.92, -0.034, 0.952, -0.210, 15:35:20.849
165, -28.83, -21.86, -26.98, -20.14, -19.02, -25.15, -23.72, -20.61, -21.32, -19.60, -22.66, -23.20, -31.02, -23.65, -24.56, -19.92, 0.000, 0.000, 0.000, 15:35:20.849
166, -28.83, -21.86, -26.98, -20.14, -19.02, -25.15, -23.72, -20.61, -21.19, -19.62, -22.84, -23.45, -31.09, -23.72, -24.68, -19.89, 0.000, 0.000, 0.000, 15:35:20.850
167, -28.92, -21.66, -26.98, -20.00, -18.75, -25.46, -23.74, -20.32, -21.19, -19.62, -22.84, -23.45, -31.09, -23.72, -24.68, -19.89, 0.000, 0.000, 0.000, 15:35:20.850
168, -28.92, -21.66, -26.98, -20.00, -18.75, -25.46, -23.74, -20.32, -21.37, -19.78, -22.87, -23.45, -30.64, -23.63, -24.50, -19.98, 0.000, 0.000, 0.000, 15:35:20.850
169, -28.81, -21.79, -27.20, -19.98, -18.57, -25.30, -23.92, -20.34, -21.37, -19.78, -22.87, -23.45, -30.64, -23.63, -24.50, -19.98, 0.000, 0.000, 0.000, 15:35:20.850
170, -28.81, -21.79, -27.20, -19.98, -18.57, -25.30, -23.92, -20.34, -21.41, -19.60, -22.82, -23.27, -31.09, -23.65, -24.72, -19.80, 0.000, 0.000, 0.000, 15:35:20.850
171, -28.90, -21.77, -27.25, -19.85, -18.84, -25.28, -23.51, -20.25, -21.41, -19.60, -22.82, -23.27, -31.09, -23.65, -24.72, -19.80, 0.000, 0.000, 0.000, 15:35:20.851
172, -28.90, -21.77, -27.25, -19.85, -18.84, -25.28, -23.51, -20.25, -21.39, -19.74, -22.82, -23.22, -30.87, -23.47, -24.59, -20.00, 0.000, 0.000, 0.000, 15:35:20.851
173, -28.72, -21.95, -27.16, -19.98, -18.89, -25.32, -23.78, -20.32, -21.39, -19.74, -22.82, -23.22, -30.87, -23.47, -24.59, -20.00, 0.000, 0.000, 0.000, 15:35:20.851
174, -28.72, -21.95, -27.16, -19.98, -18.89, -25.32, -23.78, -20.32, -21.41, -19.65, -22.84, -23.18, -30.87, -23.74, -24.59, -19.65, -0.036, 0.944, -0.210, 15:35:20.851
175, -28.81, -21.86, -26.96, -20.12, -18.95, -25.44, -23.65, -20.41, -21.41, -19.65, -22.84, -23.18, -30.87, -23.74, -24.59, -19.65, 0.000, 0.000, 0.000, 15:35:20.851
176, -28.81, -21.86, -26.96, -20.12, -18.95, -25.44, -23.65, -20.41, -21.37, -19.69, -22.66, -23.29, -30.96, -23.36, -24.59, -19.78, 0.000, 0.000, 0.000, 15:35:20.851
177, -28.97, -21.82, -27.25, -19.96, -18.71, -25.57, -23.58, -20.41, -21.37, -19.69, -22.66, -23.29, -30.96, -23.36, -24.59, -19.78, 0.000, 0.000, 0.000, 15:35:20.851
178, -28.97, -21.82, -27.25, -19.96, -18.71, -25.57, -23.58, -20.41, -21.26, -19.65, -22.71, -23.22, -30.96, -23.67, -24.54, -20.09, 0.000, 0.000, 0.000, 15:35:20.852
179, -28.97, -21.77, -26.91, -19.89, -18.71, -25.26, -23.87, -20.50, -21.26, -19.65, -22.71, -23.22, -30.96, -23.67, -24.54, -20.09, 0.000, 0.000, 0.000, 15:35:20.852
180, -28.97, -21.77, -26.91, -19.89, -18.71, -25.26, -23.87, -20.50, -21.30, -19.56, -22.75, -23.34, -30.91, -23.42, -24.52, -19.94, 0.000, 0.000, 0.000, 15:35:20.852
181, -28.88, -21.90, -26.93, -19.78, -18.73, -25.26, -23.60, -20.54, -21.30, -19.56, -22.75, -23.34, -30.91, -23.42, -24.52, -19.94, 0.000, 0.000, 0.000, 15:35:20.852
182, -28.88, -21.90, -26.93, -19.78, -18.73, -25.26, -23.60, -20.54, -21.57, -19.58, -22.66, -23.18, -30.76, -23.74, -24.61, -19.85, 0.000, 0.000, 0.000, 15:35:20.852
183, -28.79, -21.88, -27.07, -19.94, -18.93, -25.39, -23.92, -20.50, -21.57, -19.58, -22.66, -23.18, -30.76, -23.74, -24.61, -19.85, 0.000, 0.000, 0.000, 15:35:20.852
184, -28.79, -21.88, -27.07, -19.94, -18.93, -25.39, -23.92, -20.50, -21.48, -19.62, -22.82, -23.36, -30.98, -23.49, -24.61, -19.98, -0.032, 0.940, -0.208, 15:35:20.853
185, -28.79, -22.04, -27.02, -19.92, -18.89, -25.37, -23.92, -20.34, -21.48, -19.62, -22.82, -23.36, -30.98, -23.49, -24.61, -19.98, 0.000, 0.000, 0.000, 15:35:20.853
186, -28.79, -22.04, -27.02, -19.92, -18.89, -25.37, -23.92, -20.34, -21.41, -19.85, -22.98, -23.22, -30.89, -23.63, -24.65, -19.98, 0.000, 0.000, 0.000, 15:35:20.853
187, -28.86, -21.82, -26.91, -20.12, -19.11, -25.30, -23.58, -20.52, -21.41, -19.85, -22.98, -23.22, -30.89, -23.63, -24.65, -19.98, 0.000, 0.000, 0.000, 15:35:20.853
188, -28.86, -21.82, -26.91, -20.12, -19.11, -25.30, -23.58, -20.52, -21.28, -19.78, -22.73, -23.25, -30.76, -23.47, -24.45, -19.71, 0.000, 0.000, 0.000, 15:35:20.854
189, -28.97, -21.99, -27.00, -20.12, -18.84, -25.26, -23.47, -20.59, -21.28, -19.78, -22.73, -23.25, -30.76, -23.47, -24.45, -19.71, 0.000, 0.000, 0.000, 15:35:20.854
190, -28.97, -21.99, -27.00, -20.12, -18.84, -25.26, -23.47, -20.59, -21.48, -19.71, -22.75, -23.45, -31.02, -23.63, -24.41, -19.87, 0.000, 0.000, 0.000, 15:35:20.854
191, -28.99, -22.02, -27.05, -19.83, -18.91, -25.30, -23.89, -20.54, -21.48, -19.71, -22.75, -23.45, -31.02, -23.63, -24.41, -19.87, 0.000, 0.000, 0.000, 15:35:20.854
192, -28.99, -22.02, -27.05, -19.83, -18.91, -25.30, -23.89, -20.54, -21.41, -19.62, -22.71, -23.36, -31.05, -23.63, -24.36, -19.85, 0.000, 0.000, 0.000, 15:35:20.854
193, -28.95, -21.86, -27.02, -20.14, -18.91, -25.17, -23.74, -20.45, -21.41, -19.62, -22.71, -23.36, -31.05, -23.63, -24.36, -19.85, -0.032, 0.940, -0.204, 15:35:20.854
194, -28.95, -21.86, -27.02, -20.14, -18.91, -25.17, -23.74, -20.45, -21.64, -19.62, -22.84, -23.29, -30.96, -23.63, -24.50, -19.74, 0.000, 0.000, 0.000, 15:35:20.855
195, -28.99, -21.95, -26.98, -20.14, -18.89, -25.06, -23.67, -20.45, -21.64, -19.62, -22.84, -23.29, -30.96, -23.63, -24.50, -19.74, 0.000, 0.000, 0.000, 15:35:20.855
196, -28.99, -21.95, -26.98, -20.14, -18.89, -25.06, -23.67, -20.45, -21.46, -19.58, -22.82, -23.42, -30.80, -23.51, -24.50, -19.80, 0.000, 0.000, 0.000, 15:35:20.855
197, -29.19, -21.77, -26.98, -20.09, -18.84, -25.12, -23.80, -20.21, -21.46, -19.58, -22.82, -23.42, -30.80, -23.51, -24.50, -19.80, 0.000, 0.000, 0.000, 15:35:20.855
198, -29.19, -21.77, -26.98, -20.09, -18.84, -25.12, -23.80, -20.21, -21.39, -19.76, -22.75, -23.56, -30.89, -23.67, -24.70, -19.83, 0.000, 0.000, 0.000, 15:35:20.856
199, -28.83, -21.70, -26.96, -20.14, -18.91, -25.46, -23.80, -20.16, -21.39, -19.76, -22.75, -23.56, -30.89, -23.67, -24.70, -19.83, 0.000, 0.000, 0.000, 15:35:20.856
200, -28.83, -21.70, -26.96, -20.14, -18.91, -25.46, -23.80, -20.16, -21.39, -19.89, -22.82, -23.51, -31.02, -23.60, -24.52, -19.87, 0.000, 0.000, 0.000, 15:35:20.856
201, -28.97, -21.66, -26.93, -19.89, -18.78, -25.48, -23.76, -20.25, -21.39, -19.89, -22.82, -23.51, -31.02, -23.60, -24.52, -19.87, 0.000, 0.000, 0.000, 15:35:20.856
202, -28.97, -21.66, -26.93, -19.89, -18.78, -25.48, -23.76, -20.25, -21.35, -19.83, -22.93, -23.40, -30.78, -23.51, -24.59, -20.07, 0.000, 0.000, 0.000, 15:35:20.856
203, -28.86, -21.84, -26.87, -19.85, -18.82, -25.28, -23.54, -20.43, -21.35, -19.83, -22.93, -23.40, -30.78, -23.51, -24.59, -20.07, -0.028, 0.942, -0.210, 15:35:20.857
204, -28.86, -21.84, -26.87, -19.85, -18.82, -25.28, -23.54, -20.43, -21.46, -20.00, -22.89, -23.29, -30.91, -23.56, -24.50, -19.89, 0.000, 0.000, 0.000, 15:35:20.857
205, -28.86, -21.79, -26.93, -19.83, -18.86, -25.50, -23.69, -20.32, -21.46, -20.00, -22.89, -23.29, -30.91, -23.56, -24.50, -19.89, 0.000, 0.000, 0.000, 15:35:20.857
206, -28.86, -21.79, -26.93, -19.83, -18.86, -25.50, -23.69, -20.32, -21.39, -19.65, -22.60, -23.49, -30.85, -23.47, -24.45, -20.05, 0.000, 0.000, 0.000, 15:35:20.857
207, -28.88, -21.84, -26.87, -19.98, -19.20, -25.39, -23.72, -20.52, -21.39, -19.65, -22.60, -23.49, -30.85, -23.47, -24.45, -20.05, 0.000, 0.000, 0.000, 15:35:20.857
208, -28.88, -21.84, -26.87, -19.98, -19.20, -25.39, -23.72, -20.52, -21.17, -19.60, -22.80, -23.13, -31.11, -23.72, -24.30, -19.89, 0.000, 0.000, 0.000, 15:35:20.857
209, -29.19, -21.88, -27.14, -19.80, -18.93, -25.46, -23.94, -20.43, -21.17, -19.60, -22.80, -23.13, -31.11, -23.72, -24.30, -19.89, 0.000, 0.000, 0.000, 15:35:20.858
210, -29.19, -21.88, -27.14, -19.80, -18.93, -25.46, -23.94, -20.43, -21.19, -19.80, -22.89, -23.27, -31.02, -23.47, -24.43, -20.03, 0.000, 0.000, 0.000, 15:35:20.858
211, -28.86, -21.90, -26.93, -19.92, -18.91, -25.35, -23.47, -20.47, -21.19, -19.80, -22.89, -23.27, -31.02, -23.47, -24.43, -20.03, 0.000, 0.000, 0.000, 15:35:20.858
212, -28.86, -21.90, -26.93, -19.92, -18.91, -25.35, -23.47, -20.47, -21.57, -19.78, -22.71, -23.22, -30.80, -23.25, -24.48, -20.07, 0.000, 0.000, 0.000, 15:35:20.859
213, -29.01, -21.95, -26.93, -19.87, -18.98, -25.41, -23.76, -20.32, -21.57, -19.78, -22.71, -23.22, -30.80, -23.25, -24.48, -20.07, -0.026, 0.940, -0.208, 15:35:20.859
214, -29.01, -21.95, -26.93, -19.87, -18.98, -25.41, -23.76, -20.32, -21.46, -19.56, -22.73, -23.34, -30.96, -23.58, -24.54, -19.92, 0.000, 0.000, 0.000, 15:35:20.859
215, -28.95, -21.84, -26.91, -19.80, -19.00, -25.39, -23.60, -20.56, -21.46, -19.56, -22.73, -23.34, -30.96, -23.58, -24.54, -19.92, 0.000, 0.000, 0.000, 15:35:20.860
216, -28.95, -21.84, -26.91, -19.80, -19.00, -25.39, -23.60, -20.56, -21.35, -19.62, -22.71, -23.22, -31.09, -23.74, -24.56, -20.05, 0.000, 0.000, 0.000, 15:35:20.860
217, -29.01, -22.06, -27.02, -19.98, -18.91, -25.24, -23.60, -20.23, -21.35, -19.62, -22.71, -23.22, -31.09, -23.74, -24.56, -20.05, 0.000, 0.000, 0.000, 15:35:20.860
218, -29.01, -22.06, -27.02, -19.98, -18.91, -25.24, -23.60, -20.23, -21.30, -19.67, -22.78, -23.45, -30.96, -23.51, -24.48, -20.05, 0.000, 0.000, 0.000, 15:35:20.860
219, -29.17, -21.82, -26.76, -19.76, -18.80, -25.21, -23.78, -20.54, -21.30, -19.67, -22.78, -23.45, -30.96, -23.51, -24.48, -20.05, 0.000, 0.000, 0.000, 15:35:20.860
220, -29.17, -21.82, -26.76, -19.76, -18.80, -25.21, -23.78, -20.54, -21.28, -19.71, -22.75, -23.63, -30.96, -23.58, -24.34, -19.76, 0.000, 0.000, 0.000, 15:35:20.860
221, -28.68, -21.97, -26.89, -19.80, -18.89, -25.28, -23.78, -20.54, -21.28, -19.71, -22.75, -23.63, -30.96, -23.58, -24.34, -19.76, 0.000, 0.000, 0.000, 15:35:20.861
222, -28.68, -21.97, -26.89, -19.80, -18.89, -25.28, -23.78, -20.54, -21.46, -19.83, -22.82, -23.22, -30.93, -23.36, -24.48, -19.76, 0.000, 0.000, 0.000, 15:35:20.861
223, -28.68, -21.95, -26.89, -20.03, -18.98, -25.41, -23.74, -20.61, -21.46, -19.83, -22.82, -23.22, -30.93, -23.36, -24.48, -19.76, -0.024, 0.944, -0.212, 15:35:20.861
224, -28.68, -21.95, -26.89, -20.03, -18.98, -25.41, -23.74, -20.61, -21.37, -19.71, -22.78, -23.20, -30.82, -23.40, -24.52, -19.94, 0.000, 0.000, 0.000, 15:35:20.861
225, -28.95, -22.11, -26.91, -20.03, -18.91, -25.39, -23.96, -20.47, -21.37, -19.71, -22.78, -23.20, -30.82, -23.40, -24.52, -19.94, 0.000, 0.000, 0.000, 15:35:21.319
226, -28.95, -22.11, -26.91, -20.03, -18.91, -25.39, -23.96, -20.47, -21.46, -19.60, -23.02, -23.38, -30.78, -23.49, -24.41, -19.92, 0.000, 0.000, 0.000, 15:35:21.319
227, -29.01, -21.73, -27.07, -19.98, -18.93, -25.37, -23.60, -20.56, -21.46, -19.60, -23.02, -23.38, -30.78, -23.49, -24.41, -19.92, 0.000, 0.000, 0.000, 15:35:21.319
228, -29.01, -21.73, -27.07, -19.98, -18.93, -25.37, -23.60, -20.56, -21.41, -19.49, -22.84, -23.27, -31.07, -23.47, -24.63, -20.05, 0.000, 0.000, 0.000, 15:35:21.320
229, -28.99, -21.79, -27.02, -19.98, -19.11, -25.24, -23.56, -20.43, -21.41, -19.49, -22.84, -23.27, -31.07, -23.47, -24.63, -20.05, 0.000, 0.000, 0.000, 15:35:21.320
230, -28.99, -21.79, -27.02, -19.98, -19.11, -25.24, -23.56, -20.43, -21.55, -19.54, -22.78, -23.18, -30.69, -23.36, -24.45, -19.83, 0.000, 0.000, 0.000, 15:35:21.320
231, -28.81, -21.88, -27.20, -19.94, -18.80, -25.41, -23.80, -20.27, -21.55, -19.54, -22.78, -23.18, -30.69, -23.36, -24.45, -19.83, 0.000, 0.000, 0.000, 15:35:21.320
232, -28.81, -21.88, -27.20, -19.94, -18.80, -25.41, -23.80, -20.27, -21.39, -19.87, -22.73, -23.18, -30.89, -23.74, -24.32, -19.96, 0.000, 0.000, 0.000, 15:35:21.321
233, -28.95, -21.82, -27.05, -20.05, -19.11, -25.30, -23.76, -20.54, -21.39, -19.87, -22.73, -23.18, -30.89, -23.74, -24.32, -19.96, -0.030, 0.944, -0.210, 15:35:21.321
234, -28.95, -21.82, -27.05, -20.05, -19.11, -25.30, -23.76, -20.54, -21.41, -19.83, -22.69, -23.56, -30.93, -23.78, -24.72, -19.94, 0.000, 0.000, 0.000, 15:35:21.321
235, -28.99, -21.97, -27.14, -19.96, -18.89, -25.30, -23.80, -20.27, -21.41, -19.83, -22.69, -23.56, -30.93, -23.78, -24.72, -19.94, 0.000, 0.000, 0.000, 15:35:21.322
236, -28.99, -21.97, -27.14, -19.96, -18.89, -25.30, -23.80, -20.27, -21.30, -19.74, -22.91, -23.38, -30.96, -23.80, -24.54, -19.89, 0.000, 0.000, 0.000, 15:35:21.322
237, -29.06, -21.75, -27.20, -19.87, -18.80, -25.59, -23.80, -20.25, -21.30, -19.74, -22.91, -23.38, -30.96, -23.80, -24.54, -19.89, 0.000, 0.000, 0.000, 15:35:21.322
238, -29.06, -21.75, -27.20, -19.87, -18.80, -25.59, -23.80, -20.25, -21.50, -19.62, -22.71, -23.38, -31.16, -23.78, -24.45, -19.89, 0.000, 0.000, 0.000, 15:35:21.322
239, -28.92, -21.86, -27.11, -20.21, -18.91, -25.26, -23.63, -20.21, -21.50, -19.62, -22.71, -23.38, -31.16, -23.78, -24.45, -19.89, 0.000, 0.000, 0.000, 15:35:21.322
240, -28.92, -21.86, -27.11, -20.21, -18.91, -25.26, -23.63, -20.21, -21.28, -19.69, -22.89, -23.22, -30.91, -23.40, -24.59, -20.00, 0.000, 0.000, 0.000, 15:35:21.323
241, -29.01, -21.90, -26.87, -19.83, -19.16, -25.17, -23.63, -20.50, -21.28, -19.69, -22.89, -23.22, -30.91, -23.40, -24.59, -20.00, 0.000, 0.000, 0.000, 15:35:21.323
242, -29.01, -21.90, -26.87, -19.83, -19.16, -25.17, -23.63, -20.50, -21.52, -19.74, -22.89, -23.22, -30.87, -23.58, -24.43, -19.76, 0.000, 0.000, 0.000, 15:35:21.323
243, -28.83, -21.93, -27.14, -19.89, -18.91, -25.19, -23.56, -20.54, -21.52, -19.74, -22.89, -23.22, -30.87, -23.58, -24.43, -19.76, -0.028, 0.946, -0.206, 15:35:21.323
244, -28.83, -21.93, -27.14, -19.89, -18.91, -25.19, -23.56, -20.54, -21.23, -19.60, -22.64, -23.20, -30.78, -23.54, -24.59, -19.62, 0.000, 0.000, 0.000, 15:35:21.323
245, -28.70, -22.02, -27.09, -20.16, -18.95, -25.24, -23.58, -20.41, -21.23, -19.60, -22.64, -23.20, -30.78, -23.54, -24.59, -19.62, 0.000, 0.000, 0.000, 15:35:21.324
246, -28.70, -22.02, -27.09, -20.16, -18.95, -25.24, -23.58, -20.41, -21.41, -19.76, -22.62, -23.20, -30.76, -23.54, -24.52, -20.12, 0.000, 0.000, 0.000, 15:35:21.324
247, -28.97, -21.84, -27.18, -19.83, -18.75, -25.28, -23.65, -20.52, -21.41, -19.76, -22.62, -23.20, -30.76, -23.54, -24.52, -20.12, 0.000, 0.000, 0.000, 15:35:21.324
248, -28.97, -21.84, -27.18, -19.83, -18.75, -25.28, -23.65, -20.52, -21.37, -19.54, -22.80, -23.38, -30.98, -23.60, -24.56, -19.89, 0.000, 0.000, 0.000, 15:35:21.324
249, -29.06, -21.86, -26.93, -20.23, -19.02, -25.26, -23.72, -20.47, -21.37, -19.54, -22.80, -23.38, -30.98, -23.60, -24.56, -19.89, 0.000, 0.000, 0.000, 15:35:21.324
250, -29.06, -21.86, -26.93, -20.23, -19.02, -25.26, -23.72, -20.47, -21.46, -19.69, -22.55, -23.45, -30.85, -23.60, -24.63, -19.85, 0.000, 0.000, 0.000, 15:35:21.325
251, -28.99, -21.88, -26.96, -20.14, -19.07, -25.39, -23.54, -20.36, -21.46, -19.69, -22.55, -23.45, -30.85, -23.60, -24.63, -19.85, 0.000, 0.000, 0.000, 15:35:21.325
252, -28.99, -21.88, -26.96, -20.14, -19.07, -25.39, -23.54, -20.36, -21.19, -19.62, -22.64, -23.51, -31.05, -23.54, -24.39, -19.83, -0.030, 0.946, -0.202, 15:35:21.325
253, -28.95, -21.88, -27.07, -19.94, -18.53, -25.28, -23.67, -20.45, -21.19, -19.62, -22.64, -23.51, -31.05, -23.54, -24.39, -19.83, 0.000, 0.000, 0.000, 15:35:21.325
254, -28.95, -21.88, -27.07, -19.94, -18.53, -25.28, -23.67, -20.45, -21.32, -19.80, -22.78, -23.22, -30.73, -23.42, -24.36, -19.96, 0.000, 0.000, 0.000, 15:35:21.325
255, -28.79, -21.70, -27.07, -19.89, -18.93, -25.41, -23.83, -20.30, -21.32, -19.80, -22.78, -23.22, -30.73, -23.42, -24.36, -19.96, 0.000, 0.000, 0.000, 15:35:21.326
0, -28.79, -21.70, -27.07, -19.89, -18.93, -25.41, -23.83, -20.30, -21.30, -19.62, -22.73, -23.36, -30.69, -23.69, -24.48, -19.80, 0.000, 0.000, 0.000, 15:35:21.326
1, -28.99, -21.90, -26.96, -19.98, -18.78, -25.48, -23.72, -20.50, -21.30, -19.62, -22.73, -23.36, -30.69, -23.69, -24.48, -19.80, 0.000, 0.000, 0.000, 15:35:21.326
2, -28.99, -21.90, -26.96, -19.98, -18.78, -25.48, -23.72, -20.50, -21.46, -19.69, -22.69, -23.34, -30.98, -23.51, -24.43, -20.03, 0.000, 0.000, 0.000, 15:35:21.326
3, -28.97, -21.82, -27.18, -19.89, -18.86, -25.53, -23.58, -20.30, -21.46, -19.69, -22.69, -23.34, -30.98, -23.51, -24.43, -20.03, 0.000, 0.000, 0.000, 15:35:21.326
4, -28.97, -21.82, -27.18, -19.89, -18.86, -25.53, -23.58, -20.30, -21.26, -19.78, -23.02, -23.36, -30.98, -23.49, -24.70, -20.09, 0.000, 0.000, 0.000, 15:35:21.327
5, -28.97, -21.77, -27.07, -20.16, -18.86, -25.24, -23.67, -20.41, -21.26, -19.78, -23.02, -23.36, -30.98, -23.49, -24.70, -20.09, 0.000, 0.000, 0.000, 15:35:21.327
6, -28.97, -21.77, -27.07, -20.16, -18.86, -25.24, -23.67, -20.41, -21.32, -19.71, -22.89, -23.49, -30.76, -23.47, -24.54, -20.00, -0.028, 0.948, -0.198, 15:35:21.327
7, -28.92, -21.84, -27.00, -20.12, -19.09, -25.32, -23.65, -20.23, -21.32, -19.71, -22.89, -23.49, -30.76, -23.47, -24.54, -20.00, 0.000, 0.000, 0.000, 15:35:21.327
8, -28.92, -21.84, -27.00, -20.12, -19.09, -25.32, -23.65, -20.23, -21.66, -19.45, -22.80, -23.31, -30.85, -23.42, -24.41, -20.05, 0.000, 0.000, 0.000, 15:35:21.327
9, -28.88, -21.97, -27.14, -20.14, -19.07, -25.28, -23.78, -20.38, -21.66, -19.45, -22.80, -23.31, -30.85, -23.42, -24.41, -20.05, 0.000, 0.000, 0.000, 15:35:21.328
10, -28.88, -21.97, -27.14, -20.14, -19.07, -25.28, -23.78, -20.38, -21.35, -19.54, -22.75, -23.18, -30.96, -23.60, -24.59, -19.92, 0.000, 0.000, 0.000, 15:35:21.328
11, -28.88, -22.04, -27.14, -19.92, -18.98, -25.37, -23.60, -20.41, -21.35, -19.54, -22.75, -23.18, -30.96, -23.60, -24.59, -19.92, 0.000, 0.000, 0.000, 15:35:21.328
12, -28.88, -22.04, -27.14, -19.92, -18.98, -25.37, -23.60, -20.41, -21.39, -19.74, -22.89, -23.18, -31.09, -23.27, -24.36, -19.85, 0.000, 0.000, 0.000, 15:35:21.328
13, -28.99, -21.84, -27.22, -20.14, -19.07, -25.10, -23.63, -20.41, -21.39, -19.74, -22.89, -23.18, -31.09, -23.27, -24.36, -19.85, 0.000, 0.000, 0.000, 15:35:21.328
14, -28.99, -21.84, -27.22, -20.14, -19.07, -25.10, -23.63, -20.41, -21.57, -19.89, -22.75, -23.38, -30.98, -23.56, -24.39, -19.71, 0.000, 0.000, 0.000, 15:35:21.328
15, -29.01, -21.70, -27.07, -20.12, -19.07, -25.41, -23.72, -20.21, -21.57, -19.89, -22.75, -23.38, -30.98, -23.56, -24.39, -19.71, 0.000, 0.000, 0.000, 15:35:21.329
16, -29.01, -21.70, -27.07, -20.12, -19.07, -25.41, -23.72, -20.21, -21.41, -19.76, -22.75, -23.40, -30.78, -23.58, -24.59, -19.83, -0.028, 0.950, -0.200, 15:35:21.329
17, -29.10, -21.88, -26.78, -20.32, -18.91, -25.24, -23.74, -20.52, -21.41, -19.76, -22.75, -23.40, -30.78, -23.58, -24.59, -19.83, 0.000, 0.000, 0.000, 15:35:21.329
18, -29.10, -21.88, -26.78, -20.32, -18.91, -25.24, -23.74, -20.52, -21.46, -19.62, -22.64, -23.42, -30.89, -23.56, -24.54, -19.78, 0.000, 0.000, 0.000, 15:35:21.329
19, -28.81, -21.86, -26.98, -20.05, -19.00, -25.28, -23.72, -20.47, -21.46, -19.62, -22.64, -23.42, -30.89, -23.56, -24.54, -19.78, 0.000, 0.000, 0.000, 15:35:21.329
20, -28.81, -21.86, -26.98, -20.05, -19.00, -25.28, -23.72, -20.47, -21.26, -19.60, -22.75, -23.29, -30.91, -23.51, -24.43, -19.76, 0.000, 0.000, 0.000, 15:35:21.329
21, -28.99, -21.99, -27.02, -19.85, -18.98, -25.46, -23.58, -20.27, -21.26, -19.60, -22.75, -23.29, -30.91, -23.51, -24.43, -19.76, 0.000, 0.000, 0.000, 15:35:21.330
22, -28.99, -21.99, -27.02, -19.85, -18.98, -25.46, -23.58, -20.27, -21.46, -19.71, -22.49, -23.22, -30.82, -23.56, -24.59, -19.89, 0.000, 0.000, 0.000, 15:35:21.330
23, -28.99, -21.84, -26.96, -19.78, -18.98, -25.26, -23.80, -20.50, -21.46, -19.71, -22.49, -23.22, -30.82, -23.56, -24.59, -19.89, 0.000, 0.000, 0.000, 15:35:21.330
24, -28.99, -21.84, -26.96, -19.78, -18.98, -25.26, -23.80, -20.50, -21.55, -19.80, -22.75, -23.11, -31.09, -23.65, -24.50, -19.83, 0.000, 0.000, 0.000, 15:35:21.330
25, -29.10, -21.95, -27.09, -19.98, -19.04, -25.48, -23.78, -20.59, -21.55, -19.80, -22.75, -23.11, -31.09, -23.65, -24.50, -19.83, 0.000, 0.000, 0.000, 15:35:21.330
26, -29.10, -21.95, -27.09, -19.98, -19.04, -25.48, -23.78, -20.59, -21.52, -19.76, -22.84, -23.18, -30.87, -23.67, -24.45, -20.03, -0.032, 0.950, -0.198, 15:35:21.331
27, -28.92, -21.88, -27.00, -20.07, -18.91, -25.30, -23.89, -20.61, -21.52, -19.76, -22.84, -23.18, -30.87, -23.67, -24.45, -20.03, 0.000, 0.000, 0.000, 15:35:21.331
28, -28.92, -21.88, -27.00, -20.07, -18.91, -25.30, -23.89, -20.61, -21.41, -19.51, -22.80, -23.22, -30.80, -23.45, -24.61, -19.89, 0.000, 0.000, 0.000, 15:35:21.331
29, -29.21, -21.90, -27.05, -20.14, -19.07, -25.30, -23.80, -20.38, -21.41, -19.51, -22.80, -23.22, -30.80, -23.45, -24.61, -19.89, 0.000, 0.000, 0.000, 15:35:21.331
30, -29.21, -21.90, -27.05, -20.14, -19.07, -25.30, -23.80, -20.38, -21.35, -19.56, -22.87, -23.60, -30.93, -23.40, -24.54, -19.85, 0.000, 0.000, 0.000, 15:35:21.331
31, -28.97, -21.64, -26.91, -19.98, -18.91, -25.26, -23.56, -20.56, -21.35, -19.56, -22.87, -23.60, -30.93, -23.40, -24.54, -19.85, 0.000, 0.000, 0.000, 15:35:21.331
32, -28.97, -21.64, -26.91, -19.98, -18.91, -25.26, -23.56, -20.56, -21.44, -19.71, -22.66, -23.54, -30.78, -23.65, -24.70, -19.96, 0.000, 0.000, 0.000, 15:35:21.332
33, -28.74, -21.75, -26.89, -20.03, -18.98, -25.19, -23.67, -20.74, -21.44, -19.71, -22.66, -23.54, -30.78, -23.65, -24.70, -19.96, 0.000, 0.000, 0.000, 15:35:21.332
34, -28.74, -21.75, -26.89, -20.03, -18.98, -25.19, -23.67, -20.74, -21.57, -19.58, -22.66, -23.36, -31.18, -23.51, -24.32, -19.92, 0.000, 0.000, 0.000, 15:35:21.332
35, -29.12, -21.82, -26.98, -19.92, -18.89, -25.10, -23.87, -20.41, -21.57, -19.58, -22.66, -23.36, -31.18, -23.51, -24.32, -19.92, 0.000, 0.000, 0.000, 15:35:21.333
36, -29.12, -21.82, -26.98, -19.92, -18.89, -25.10, -23.87, -20.41, -21.52, -19.62, -22.75, -23.40, -30.93, -23.56, -24.68, -20.00, -0.036, 0.944, -0.194, 15:35:21.333
37, -28.90, -21.88, -26.93, -20.12, -18.89, -25.10, -23.40, -20.23, -21.52, -19.62, -22.75, -23.40, -30.93, -23.56, -24.68, -20.00, 0.000, 0.000, 0.000, 15:35:21.333
38, -28.90, -21.88, -26.93, -20.12, -18.89, -25.10, -23.40, -20.23, -21.41, -19.69, -22.80, -23.29, -30.91, -23.51, -24.30, -19.96, 0.000, 0.000, 0.000, 15:35:21.333
39, -29.03, -22.04, -26.73, -19.80, -18.82, -25.32, -23.74, -20.72, -21.41, -19.69, -22.80, -23.29, -30.91, -23.51, -24.30, -19.96, 0.000, 0.000, 0.000, 15:35:21.334
40, -29.03, -22.04, -26.73, -19.80, -18.82, -25.32, -23.74, -20.72, -21.35, -19.65, -22.82, -23.45, -30.93, -23.56, -24.59, -19.92, 0.000, 0.000, 0.000, 15:35:21.334
41, -28.90, -21.93, -27.07, -20.00, -18.98, -25.19, -23.78, -20.63, -21.35, -19.65, -22.82, -23.45, -30.93, -23.56, -24.59, -19.92, 0.000, 0.000, 0.000, 15:35:21.334
42, -28.90, -21.93, -27.07, -20.00, -18.98, -25.19, -23.78, -20.63, -21.52, -19.76, -22.73, -22.98, -30.93, -23.76, -24.70, -19.98, 0.000, 0.000, 0.000, 15:35:21.334
43, -28.59, -21.59, -27.16, -19.87, -18.86, -25.24, -23.54, -20.50, -21.52, -19.76, -22.73, -22.98, -30.93, -23.76, -24.70, -19.98, 0.000, 0.000, 0.000, 15:35:21.335
44, -28.59, -21.59, -27.16, -19.87, -18.86, -25.24, -23.54, -20.50, -21.30, -19.98, -22.73, -23.29, -30.93, -23.74, -24.25, -19.76, 0.000, 0.000, 0.000, 15:35:21.335
45, -28.97, -21.70, -26.93, -20.12, -18.98, -25.06, -23.65, -20.41, -21.30, -19.98, -22.73, -23.29, -30.93, -23.74, -24.25, -19.76, -0.034, 0.944, -0.194, 15:35:21.335
46, -28.97, -21.70, -26.93, -20.12, -18.98, -25.06, -23.65, -20.41, -21.32, -19.76, -22.96, -23.16, -30.96, -23.63, -24.45, -19.76, 0.000, 0.000, 0.000, 15:35:21.335
47, -29.08, -21.73, -27.16, -19.98, -19.09, -25.32, -23.74, -20.07, -21.32, -19.76, -22.96, -23.16, -30.96, -23.63, -24.45, -19.76, 0.000, 0.000, 0.000, 15:35:21.336
48, -29.08, -21.73, -27.16, -19.98, -19.09, -25.32, -23.74, -20.07, -21.12, -19.49, -22.84, -23.38, -30.82, -23.58, -24.45, -20.00, 0.000, 0.000, 0.000, 15:35:21.336
49, -28.97, -21.77, -27.07, -20.03, -19.07, -25.32, -23.65, -20.45, -21.12, -19.49, -22.84, -23.38, -30.82, -23.58, -24.45, -20.00, 0.000, 0.000, 0.000, 15:35:21.336
50, -28.97, -21.77, -27.07, -20.03, -19.07, -25.32, -23.65, -20.45, -21.19, -19.74, -22.87, -23.18, -30.91, -23.63, -24.63, -19.87, 0.000, 0.000, 0.000, 15:35:21.337
51, -29.10, -21.90, -26.89, -19.98, -18.80, -25.24, -23.85, -20.45, -21.19, -19.74, -22.87, -23.18, -30.91, -23.63, -24.63, -19.87, 0.000, 0.000, 0.000, 15:35:21.337
52, -29.10, -21.90, -26.89, -19.98, -18.80, -25.24, -23.85, -20.45, -21.46, -19.62, -22.89, -23.25, -30.87, -23.47, -24.45, -19.96, 0.000, 0.000, 0.000, 15:35:21.337
53, -28.92, -21.99, -26.82, -19.98, -18.91, -25.19, -23.78, -20.36, -21.46, -19.62, -22.89, -23.25, -30.87, -23.47, -24.45, -19.96, 0.000, 0.000, 0.000, 15:35:21.337
54, -28.92, -21.99, -26.82, -19.98, -18.91, -25.19, -23.78, -20.36, -21.39, -19.67, -22.84, -23.29, -31.07, -23.74, -24.68, -19.85, 0.000, 0.000, 0.000, 15:35:21.338
55, -29.10, -21.86, -27.07, -20.30, -19.04, -25.44, -23.89, -20.32, -21.39, -19.67, -22.84, -23.29, -31.07, -23.74, -24.68, -19.85, -0.032, 0.944, -0.192, 15:35:21.338
56, -29.10, -21.86, -27.07, -20.30, -19.04, -25.44, -23.89, -20.32, -21.21, -19.89, -22.60, -23.07, -30.82, -23.51, -24.72, -19.80, 0.000, 0.000, 0.000, 15:35:21.338
57, -29.08, -21.84, -26.87, -19.96, -18.98, -25.59, -23.69, -20.38, -21.21, -19.89, -22.60, -23.07, -30.82, -23.51, -24.72, -19.80, 0.000, 0.000, 0.000, 15:35:21.339
58, -29.08, -21.84, -26.87, -19.96, -18.98, -25.59, -23.69, -20.38, -21.30, -19.85, -22.75, -23.13, -30.76, -23.38, -24.50, -19.76, 0.000, 0.000, 0.000, 15:35:21.339
59, -28.99, -21.68, -26.93, -20.00, -18.71, -25.17, -23.72, -20.41, -21.30, -19.85, -22.75, -23.13, -30.76, -23.38, -24.50, -19.76, 0.000, 0.000, 0.000, 15:35:21.339
60, -28.99, -21.68, -26.93, -20.00, -18.71, -25.17, -23.72, -20.41, -21.03, -19.71, -22.93, -23.29, -31.09, -23.60, -24.56, -19.78, 0.000, 0.000, 0.000, 15:35:21.339
61, -28.72, -21.75, -27.14, -19.89, -18.95, -25.24, -23.74, -20.54, -21.03, -19.71, -22.93, -23.29, -31.09, -23.60, -24.56, -19.78, 0.000, 0.000, 0.000, 15:35:21.340
62, -28.72, -21.75, -27.14, -19.89, -18.95, -25.24, -23.74, -20.54, -21.14, -19.74, -22.80, -23.11, -30.91, -23.72, -24.50, -19.74, 0.000, 0.000, 0.000, 15:35:21.340
63, -28.99, -21.79, -27.07, -19.76, -18.98, -25.12, -23.72, -20.34, -21.14, -19.74, -22.80, -23.11, -30.91, -23.72, -24.50, -19.74, 0.000, 0.000, 0.000, 15:35:21.340
64, -28.99, -21.79, -27.07, -19.76, -18.98, -25.12, -23.72, -20.34, -21.19, -19.65, -22.75, -23.25, -30.96, -23.69, -24.43, -19.96, 0.000, 0.000, 0.000, 15:35:21.340
65, -29.01, -21.48, -27.02, -20.09, -18.69, -25.19, -23.54, -20.34, -21.19, -19.65, -22.75, -23.25, -30.96, -23.69, -24.43, -19.96, -0.036, 0.934, -0.202, 15:35:21.341
66, -29.01, -21.48, -27.02, -20.09, -18.69, -25.19, -23.54, -20.34, -21.41, -19.76, -22.69, -23.34, -30.73, -23.63, -24.59, -19.92, 0.000, 0.000, 0.000, 15:35:21.341
67, -28.95, -21.88, -27.09, -19.98, -18.84, -25.35, -23.78, -20.56, -21.41, -19.76, -22.69, -23.34, -30.73, -23.63, -24.59, -19.92, 0.000, 0.000, 0.000, 15:35:21.341
68, -28.95, -21.88, -27.09, -19.98, -18.84, -25.35, -23.78, -20.56, -21.35, -19.76, -22.82, -23.31, -30.93, -23.40, -24.50, -19.96, 0.000, 0.000, 0.000, 15:35:21.341
69, -28.83, -21.86, -26.93, -20.18, -19.07, -25.57, -23.69, -20.43, -21.35, -19.76, -22.82, -23.31, -30.93, -23.40, -24.50, -19.96, 0.000, 0.000, 0.000, 15:35:21.341
70, -28.83, -21.86, -26.93, -20.18, -19.07, -25.57, -23.69, -20.43, -21.61, -19.67, -23.09, -23.40, -31.00, -23.51, -24.56, -19.92, 0.000, 0.000, 0.000, 15:35:21.341
71, -28.86, -21.77, -26.84, -19.94, -18.89, -25.32, -23.78, -20.43, -21.61, -19.67, -23.09, -23.40, -31.00, -23.51, -24.56, -19.92, 0.000, 0.000, 0.000, 15:35:21.342
72, -28.86, -21.77, -26.84, -19.94, -18.89, -25.32, -23.78, -20.43, -21.39, -19.69, -22.84, -23.63, -30.91, -23.38, -24.41, -20.05, 0.000, 0.000, 0.000, 15:35:21.342
73, -29.06, -21.90, -27.07, -20.00, -18.75, -25.41, -23.80, -20.30, -21.39, -19.69, -22.84, -23.63, -30.91, -23.38, -24.41, -20.05, 0.000, 0.000, 0.000, 15:35:21.342
74, -29.06, -21.90, -27.07, -20.00, -18.75, -25.41, -23.80, -20.30, -21.57, -19.87, -22.80, -23.38, -30.71, -23.49, -24.61, -20.09, 0.000, 0.000, 0.000, 15:35:21.342
75, -29.01, -21.97, -26.91, -20.05, -18.86, -25.48, -23.76, -20.34, -21.57, -19.87, -22.80, -23.38, -30.71, -23.49, -24.61, -20.09, -0.032, 0.942, -0.204, 15:35:21.342
76, -29.01, -21.97, -26.91, -20.05, -18.86, -25.48, -23.76, -20.34, -21.55, -19.62, -22.64, -23.29, -31.07, -23.54, -24.56, -20.09, 0.000, 0.000, 0.000, 15:35:21.343
77, -28.86, -21.68, -27.05, -20.12, -18.95, -25.30, -24.01, -20.23, -21.55, -19.62, -22.64, -23.29, -31.07, -23.54, -24.56, -20.09, 0.000, 0.000, 0.000, 15:35:21.343
78, -28.86, -21.68, -27.05, -20.12, -18.95, -25.30, -24.01, -20.23, -21.52, -19.74, -22.78, -23.36, -30.89, -23.56, -24.68, -20.03, 0.000, 0.000, 0.000, 15:35:21.343
79, -29.01, -21.93, -27.11, -19.85, -19.00, -25.46, -23.98, -20.43, -21.52, -19.74, -22.78, -23.36, -30.89, -23.56, -24.68, -20.03, 0.000, 0.000, 0.000, 15:35:21.343
80, -29.01, -21.93, -27.11, -19.85, -19.00, -25.46, -23.98, -20.43, -21.23, -19.85, -22.84, -23.18, -30.89, -23.56, -24.45, -19.94, 0.000, 0.000, 0.000, 15:35:21.343
81, -28.97, -21.75, -26.93, -20.05, -18.86, -25.26, -23.89, -20.34, -21.23, -19.85, -22.84, -23.18, -30.89, -23.56, -24.45, -19.94, 0.000, 0.000, 0.000, 15:35:21.343
82, -28.97, -21.75, -26.93, -20.05, -18.86, -25.26, -23.89, -20.34, -21.39, -19.80, -22.69, -23.31, -30.96, -23.63, -24.59, -19.85, 0.000, 0.000, 0.000, 15:35:21.344
83, -28.88, -21.84, -27.18, -20.05, -18.93, -24.99, -23.78, -20.47, -21.39, -19.80, -22.69, -23.31, -30.96, -23.63, -24.59, -19.85, 0.000, 0.000, 0.000, 15:35:21.344
84, -28.88, -21.84, -27.18, -20.05, -18.93, -24.99, -23.78, -20.47, -21.46, -19.67, -22.78, -23.38, -30.87, -23.67, -24.56, -19.78, 0.000, 0.000, 0.000, 15:35:21.344
85, -28.97, -21.82, -27.20, -19.80, -18.95, -25.24, -23.83, -20.41, -21.46, -19.67, -22.78, -23.38, -30.87, -23.67, -24.56, -19.78, -0.030, 0.958, -0.206, 15:35:21.344
86, -28.97, -21.82, -27.20, -19.80, -18.95, -25.24, -23.83, -20.41, -21.46, -19.45, -22.80, -23.11, -30.71, -23.67, -24.65, -19.69, 0.000, 0.000, 0.000, 15:35:21.344
87, -28.97, -21.99, -27.14, -19.78, -18.82, -25.48, -23.60, -20.16, -21.46, -19.45, -22.80, -23.11, -30.71, -23.67, -24.65, -19.69, 0.000, 0.000, 0.000, 15:35:21.344
88, -28.97, -21.99, -27.14, -19.78, -18.82, -25.48, -23.60, -20.16, -21.41, -19.58, -22.78, -23.40, -30.78, -23.69, -24.63, -19.85, 0.000, 0.000, 0.000, 15:35:21.345
89, -28.86, -21.84, -27.00, -19.94, -18.89, -25.28, -23.45, -20.36, -21.41, -19.58, -22.78, -23.40, -30.78, -23.69, -24.63, -19.85, 0.000, 0.000, 0.000, 15:35:21.345
90, -28.86, -21.84, -27.00, -19.94, -18.89, -25.28, -23.45, -20.36, -21.35, -19.54, -22.89, -23.34, -31.00, -23.36, -24.74, -19.74, 0.000, 0.000, 0.000, 15:35:21.799
91, -28.99, -21.86, -27.05, -19.94, -18.95, -25.30, -23.83, -20.34, -21.35, -19.54, -22.89, -23.34, -31.00, -23.36, -24.74, -19.74, 0.000, 0.000, 0.000, 15:35:21.799
92, -28.99, -21.86, -27.05, -19.94, -18.95, -25.30, -23.83, -20.34, -21.52, -19.60, -22.78, -23.18, -30.69, -23.56, -24.63, -19.74, 0.000, 0.000, 0.000, 15:35:21.799
93, -28.61, -21.79, -26.91, -19.96, -19.22, -25.32, -23.69, -20.47, -21.52, -19.60, -22.78, -23.18, -30.69, -23.56, -24.63, -19.74, 0.000, 0.000, 0.000, 15:35:21.799
94, -28.61, -21.79, -26.91, -19.96, -19.22, -25.32, -23.69, -20.47, -21.50, -19.51, -22.71, -23.27, -30.87, -23.65, -24.50, -20.14, 0.000, 0.000, 0.000, 15:35:21.799
95, -28.92, -21.88, -26.98, -19.98, -18.82, -25.21, -23.76, -20.21, -21.50, -19.51, -22.71, -23.27, -30.87, -23.65, -24.50, -20.14, -0.030, 0.950, -0.206, 15:35:21.800
96, -28.92, -21.88, -26.98, -19.98, -18.82, -25.21, -23.76, -20.21, -21.39, -19.58, -22.69, -23.25, -30.91, -23.42, -24.43, -19.94, 0.000, 0.000, 0.000, 15:35:21.800
97, -28.90, -21.84, -26.93, -19.92, -19.04, -24.94, -23.49, -20.41, -21.39, -19.58, -22.69, -23.25, -30.91, -23.42, -24.43, -19.94, 0.000, 0.000, 0.000, 15:35:21.800
98, -28.90, -21.84, -26.93, -19.92, -19.04, -24.94, -23.49, -20.41, -21.39, -19.51, -22.73, -23.34, -30.96, -23.51, -24.68, -20.18, 0.000, 0.000, 0.000, 15:35:21.800
99, -29.08, -22.04, -26.96, -19.98, -18.98, -25.37, -23.58, -20.61, -21.39, -19.51, -22.73, -23.34, -30.96, -23.51, -24.68, -20.18, 0.000, 0.000, 0.000, 15:35:21.800
100, -29.08, -22.04, -26.96, -19.98, -18.98, -25.37, -23.58, -20.61, -21.32, -19.89, -22.73, -23.27, -31.07, -23.58, -24.63, -19.89, 0.000, 0.000, 0.000, 15:35:21.801
101, -28.72, -21.93, -27.18, -20.00, -18.93, -25.21, -23.92, -20.45, -21.32, -19.89, -22.73, -23.27, -31.07, -23.58, -24.63, -19.89, 0.000, 0.000, 0.000, 15:35:21.801
102, -28.72, -21.93, -27.18, -20.00, -18.93, -25.21, -23.92, -20.45, -21.64, -19.80, -22.78, -23.47, -31.02, -23.63, -24.54, -19.87, 0.000, 0.000, 0.000, 15:35:21.801
103, -28.86, -21.90, -27.07, -20.30, -19.00, -25.24, -23.87, -20.50, -21.64, -19.80, -22.78, -23.47, -31.02, -23.63, -24.54, -19.87, 0.000, 0.000, 0.000, 15:35:21.801
104, -28.86, -21.90, -27.07, -20.30, -19.00, -25.24, -23.87, -20.50, -21.39, -19.78, -22.73, -23.25, -30.96, -23.40, -24.61, -19.76, -0.032, 0.948, -0.208, 15:35:21.801
105, -28.90, -21.82, -27.11, -20.12, -18.93, -25.17, -23.69, -20.21, -21.39, -19.78, -22.73, -23.25, -30.96, -23.40, -24.61, -19.76, 0.000, 0.000, 0.000, 15:35:21.801
106, -28.90, -21.82, -27.11, -20.12, -18.93, -25.17, -23.69, -20.21, -21.32, -19.71, -22.89, -23.20, -30.96, -23.51, -24.68, -19.94, 0.000, 0.000, 0.000, 15:35:21.802
107, -28.90, -21.84, -27.07, -19.98, -18.95, -25.53, -23.69, -20.56, -21.32, -19.71, -22.89, -23.20, -30.96, -23.51, -24.68, -19.94, 0.000, 0.000, 0.000, 15:35:21.802
108, -28.90, -21.84, -27.07, -19.98, -18.95, -25.53, -23.69, -20.56, -21.30, -19.85, -22.62, -23.29, -30.91, -23.76, -24.63, -19.87, 0.000, 0.000, 0.000, 15:35:21.802
109, -28.79, -21.70, -27.05, -19.96, -18.91, -25.21, -23.76, -20.23, -21.30, -19.85, -22.62, -23.29, -30.91, -23.76, -24.63, -19.87, 0.000, 0.000, 0.000, 15:35:21.802
110, -28.79, -21.70, -27.05, -19.96, -18.91, -25.21, -23.76, -20.23, -21.35, -19.76, -22.89, -23.49, -30.96, -23.56, -24.50, -19.58, 0.000, 0.000, 0.000, 15:35:21.802
111, -28.79, -21.95, -27.11, -19.87, -19.02, -25.24, -23.85, -20.38, -21.35, -19.76, -22.89, -23.49, -30.96, -23.56, -24.50, -19.58, 0.000, 0.000, 0.000, 15:35:21.802
112, -28.79, -21.95, -27.11, -19.87, -19.02, -25.24, -23.85, -20.38, -21.50, -19.85, -22.73, -23.29, -30.80, -23.54, -24.41, -19.69, 0.000, 0.000, 0.000, 15:35:21.803
113, -28.99, -21.77, -27.16, -20.12, -19.02, -25.30, -23.80, -20.27, -21.50, -19.85, -22.73, -23.29, -30.80, -23.54, -24.41, -19.69, 0.000, 0.000, 0.000, 15:35:21.803
114, -28.99, -21.77, -27.16, -20.12, -19.02, -25.30, -23.80, -20.27, -21.46, -19.54, -22.71, -23.13, -30.93, -23.49, -24.59, -20.00, -0.034, 0.950, -0.202, 15:35:21.803
115, -28.81, -21.82, -26.96, -20.05, -18.89, -25.59, -23.85, -20.38, -21.46, -19.54, -22.71, -23.13, -30.93, -23.49, -24.59, -20.00, 0.000, 0.000, 0.000, 15:35:21.803
116, -28.81, -21.82, -26.96, -20.05, -18.89, -25.59, -23.85, -20.38, -21.19, -19.65, -22.51, -23.29, -31.09, -23.49, -24.65, -19.83, 0.000, 0.000, 0.000, 15:35:21.803
117, -28.99, -21.88, -26.87, -19.85, -19.13, -25.08, -23.78, -20.27, -21.19, -19.65, -22.51, -23.29, -31.09, -23.49, -24.65, -19.83, 0.000, 0.000, 0.000, 15:35:21.804
118, -28.99, -21.88, -26.87, -19.85, -19.13, -25.08, -23.78, -20.27, -21.35, -19.49, -22.71, -23.36, -30.82, -23.45, -24.36, -19.67, 0.000, 0.000, 0.000, 15:35:21.804
119, -28.95, -21.90, -27.05, -19.89, -19.11, -25.17, -23.69, -20.47, -21.35, -19.49, -22.71, -23.36, -30.82, -23.45, -24.36, -19.67, 0.000, 0.000, 0.000, 15:35:21.804
120, -28.95, -21.90, -27.05, -19.89, -19.11, -25.17, -23.69, -20.47, -21.41, -19.85, -22.80, -23.13, -30.91, -23.54, -24.43, -20.00, 0.000, 0.000, 0.000, 15:35:21.804
121, -28.83, -21.75, -26.93, -20.12, -19.04, -25.28, -23.65, -20.34, -21.41, -19.85, -22.80, -23.13, -30.91, -23.54, -24.43, -20.00, 0.000, 0.000, 0.000, 15:35:21.804
122, -28.83, -21.75, -26.93, -20.12, -19.04, -25.28, -23.65, -20.34, -21.41, -19.60, -22.78, -23.27, -31.09, -23.69, -24.65, -20.14, 0.000, 0.000, 0.000, 15:35:21.804
123, -28.68, -22.17, -27.25, -20.27, -18.91, -25.19, -23.76, -20.56, -21.41, -19.60, -22.78, -23.27, -31.09, -23.69, -24.65, -20.14, 0.000, 0.000, 0.000, 15:35:21.805
124, -28.68, -22.17, -27.25, -20.27, -18.91, -25.19, -23.76, -20.56, -21.52, -19.87, -22.84, -23.20, -30.73, -23.78, -24.59, -19.94, -0.028, 0.936, -0.206, 15:35:21.805
125, -28.77, -21.97, -26.96, -20.12, -18.75, -25.19, -23.94, -20.54, -21.52, -19.87, -22.84, -23.20, -30.73, -23.78, -24.59, -19.94, 0.000, 0.000, 0.000, 15:35:21.805
126, -28.77, -21.97, -26.96, -20.12, -18.75, -25.19, -23.94, -20.54, -21.21, -19.67, -22.58, -23.27, -30.87, -23.67, -24.65, -19.83, 0.000, 0.000, 0.000, 15:35:21.805
127, -28.88, -21.99, -26.80, -19.85, -19.04, -25.21, -23.85, -20.25, -21.21, -19.67, -22.58, -23.27, -30.87, -23.67, -24.65, -19.83, 0.000, 0.000, 0.000, 15:35:21.806
128, -28.88, -21.99, -26.80, -19.85, -19.04, -25.21, -23.85, -20.25, -21.46, -19.76, -22.73, -23.22, -30.78, -23.47, -24.54, -20.09, 0.000, 0.000, 0.000, 15:35:21.806
129, -29.28, -21.90, -26.89, -19.98, -18.86, -25.37, -23.78, -20.56, -21.46, -19.76, -22.73, -23.22, -30.78, -23.47, -24.54, -20.09, 0.000, 0.000, 0.000, 15:35:21.806
130, -29.28, -21.90, -26.89, -19.98, -18.86, -25.37, -23.78, -20.56, -21.61, -19.65, -22.91, -23.22, -30.69, -23.49, -24.48, -20.05, 0.000, 0.000, 0.000, 15:35:21.806
131, -28.86, -21.82, -26.84, -20.09, -19.09, -25.37, -23.54, -20.52, -21.61, -19.65, -22.91, -23.22, -30.69, -23.49, -24.48, -20.05, 0.000, 0.000, 0.000, 15:35:21.806
132, -28.86, -21.82, -26.84, -20.09, -19.09, -25.37, -23.54, -20.52, -21.46, -19.47, -22.66, -23.31, -31.05, -23.51, -24.63, -19.87, 0.000, 0.000, 0.000, 15:35:21.807
133, -28.86, -21.70, -26.93, -19.80, -18.91, -25.44, -23.76, -20.50, -21.46, -19.47, -22.66, -23.31, -31.05, -23.51, -24.63, -19.87, 0.000, 0.000, 0.000, 15:35:21.807
134, -28.86, -21.70, -26.93, -19.80, -18.91, -25.44, -23.76, -20.50, -21.21, -19.58, -22.71, -23.22, -30.76, -23.72, -24.63, -19.98, -0.024, 0.938, -0.198, 15:35:21.807
135, -28.70, -21.95, -26.89, -19.98, -18.78, -25.30, -23.89, -20.34, -21.21, -19.58, -22.71, -23.22, -30.76, -23.72, -24.63, -19.98, 0.000, 0.000, 0.000, 15:35:21.807
136, -28.70, -21.95, -26.89, -19.98, -18.78, -25.30, -23.89, -20.34, -21.35, -19.71, -22.64, -23.07, -30.80, -23.45, -24.54, -19.89, 0.000, 0.000, 0.000, 15:35:21.807
137, -28.88, -21.97, -27.09, -19.96, -19.04, -25.30, -23.87, -20.50, -21.35, -19.71, -22.64, -23.07, -30.80, -23.45, -24.54, -19.89, 0.000, 0.000, 0.000, 15:35:21.807
138, -28.88, -21.97, -27.09, -19.96, -19.04, -25.30, -23.87, -20.50, -21.23, -19.71, -22.64, -23.38, -31.00, -23.47, -24.48, -19.83, 0.000, 0.000, 0.000, 15:35:21.808
139, -28.95, -21.90, -27.11, -19.98, -18.93, -25.17, -23.89, -20.32, -21.23, -19.71, -22.64, -23.38, -31.00, -23.47, -24.48, -19.83, 0.000, 0.000, 0.000, 15:35:21.808
140, -28.95, -21.90, -27.11, -19.98, -18.93, -25.17, -23.89, -20.32, -21.26, -19.76, -22.84, -23.38, -30.80, -23.54, -24.52, -20.00, 0.000, 0.000, 0.000, 15:35:21.808
141, -28.74, -21.97, -27.34, -20.03, -18.80, -25.19, -23.78, -20.27, -21.26, -19.76, -22.84, -23.38, -30.80, -23.54, -24.52, -20.00, 0.000, 0.000, 0.000, 15:35:21.808
142, -28.74, -21.97, -27.34, -20.03, -18.80, -25.19, -23.78, -20.27, -21.12, -19.42, -22.71, -23.18, -30.89, -23.67, -24.23, -19.74, 0.000, 0.000, 0.000, 15:35:21.809
143, -29.01, -22.24, -27.02, -20.05, -18.91, -25.48, -23.80, -20.36, -21.12, -19.42, -22.71, -23.18, -30.89, -23.67, -24.23, -19.74, 0.000, 0.000, 0.000, 15:35:21.809
144, -29.01, -22.24, -27.02, -20.05, -18.91, -25.48, -23.80, -20.36, -21.26, -19.94, -22.75, -23.34, -31.09, -23.69, -24.36, -19.71, -0.036, 0.940, -0.204, 15:35:21.809
145, -29.12, -21.86, -26.96, -19.96, -19.09, -25.17, -23.76, -20.43, -21.26, -19.94, -22.75, -23.34, -31.09, -23.69, -24.36, -19.71, 0.000, 0.000, 0.000, 15:35:21.810
146, -29.12, -21.86, -26.96, -19.96, -19.09, -25.17, -23.76, -20.43, -21.23, -19.92, -22.78, -23.27, -30.85, -23.56, -24.48, -19.89, 0.000, 0.000, 0.000, 15:35:21.810
147, -28.83, -21.86, -27.02, -19.94, -18.86, -25.28, -23.80, -20.56, -21.23, -19.92, -22.78, -23.27, -30.85, -23.56, -24.48, -19.89, 0.000, 0.000, 0.000, 15:35:21.810
148, -28.83, -21.86, -27.02, -19.94, -18.86, -25.28, -23.80, -20.56, -21.19, -19.56, -22.78, -23.22, -30.62, -23.65, -24.65, -19.96, 0.000, 0.000, 0.000, 15:35:21.810
149, -28.88, -21.88, -26.84, -19.89, -19.07, -25.39, -23.72, -20.16, -21.19, -19.56, -22.78, -23.22, -30.62, -23.65, -24.65, -19.96, 0.000, 0.000, 0.000, 15:35:21.811
150, -28.88, -21.88, -26.84, -19.89, -19.07, -25.39, -23.72, -20.16, -21.46, -19.67, -22.71, -23.18, -30.82, -23.65, -24.63, -20.12, 0.000, 0.000, 0.000, 15:35:21.811
151, -28.70, -21.82, -26.98, -19.92, -19.00, -25.35, -23.74, -20.47, -21.46, -19.67, -22.71, -23.18, -30.82, -23.65, -24.63, -20.12, 0.000, 0.000, 0.000, 15:35:21.811
152, -28.70, -21.82, -26.98, -19.92, -19.00, -25.35, -23.74, -20.47, -21.50, -19.69, -22.78, -23.16, -30.80, -23.42, -24.59, -19.71, 0.000, 0.000, 0.000, 15:35:21.811
153, -28.79, -21.70, -27.11, -19.87, -18.98, -25.10, -23.80, -20.30, -21.50, -19.69, -22.78, -23.16, -30.80, -23.42, -24.59, -19.71, -0.042, 0.940, -0.206, 15:35:21.811
154, -28.79, -21.70, -27.11, -19.87, -18.98, -25.10, -23.80, -20.30, -21.28, -19.87, -22.80, -23.18, -30.85, -23.34, -24.32, -19.85, 0.000, 0.000, 0.000, 15:35:21.812
155, -28.88, -21.75, -27.20, -19.98, -18.84, -25.41, -23.65, -20.36, -21.28, -19.87, -22.80, -23.18, -30.85, -23.34, -24.32, -19.85, 0.000, 0.000, 0.000, 15:35:21.812
156, -28.88, -21.75, -27.20, -19.98, -18.84, -25.41, -23.65, -20.36, -21.37, -19.89, -22.78, -23.38, -30.96, -23.58, -24.54, -19.74, 0.000, 0.000, 0.000, 15:35:21.812
157, -28.90, -21.82, -27.20, -19.89, -19.11, -25.17, -23.78, -20.45, -21.37, -19.89, -22.78, -23.38, -30.96, -23.58, -24.54, -19.74, 0.000, 0.000, 0.000, 15:35:21.813
158, -28.90, -21.82, -27.20, -19.89, -19.11, -25.17, -23.78, -20.45, -21.39, -19.76, -22.73, -23.16, -30.93, -23.69, -24.65, -19.92, 0.000, 0.000, 0.000, 15:35:21.816
159, -28.83, -21.93, -26.98, -19.92, -18.95, -25.19, -23.83, -20.50, -21.39, -19.76, -22.73, -23.16, -30.93, -23.69, -24.65, -19.92, 0.000, 0.000, 0.000, 15:35:21.816
160, -28.83, -21.93, -26.98, -19.92, -18.95, -25.19, -23.83, -20.50, -21.44, -19.83, -22.87, -23.07, -30.78, -23.45, -24.50, -19.89, 0.000, 0.000, 0.000, 15:35:21.816
161, -28.79, -21.86, -27.11, -19.96, -19.04, -25.15, -23.69, -20.79, -21.44, -19.83, -22.87, -23.07, -30.78, -23.45, -24.50, -19.89, 0.000, 0.000, 0.000, 15:35:21.816
162, -28.79, -21.86, -27.11, -19.96, -19.04, -25.15, -23.69, -20.79, -21.50, -19.67, -22.55, -23.34, -30.96, -23.60, -24.56, -19.92, 0.000, 0.000, 0.000, 15:35:21.817
163, -28.83, -21.97, -27.02, -19.94, -19.18, -25.39, -23.45, -20.43, -21.50, -19.67, -22.55, -23.34, -30.96, -23.60, -24.56, -19.92, -0.044, 0.920, -0.204, 15:35:21.817
164, -28.83, -21.97, -27.02, -19.94, -19.18, -25.39, -23.45, -20.43, -21.41, -19.49, -22.51, -23.40, -30.76, -23.58, -24.59, -19.96, 0.000, 0.000, 0.000, 15:35:21.817
165, -29.01, -21.90, -27.11, -20.14, -18.84, -25.24, -23.47, -20.36, -21.41, -19.49, -22.51, -23.40, -30.76, -23.58, -24.59, -19.96, 0.000, 0.000, 0.000, 15:35:21.817
166, -29.01, -21.90, -27.11, -20.14, -18.84, -25.24, -23.47, -20.36, -21.39, -19.62, -22.53, -23.40, -31.09, -23.54, -24.59, -19.98, 0.000, 0.000, 0.000, 15:35:21.818
167, -29.06, -21.86, -27.00, -20.14, -18.55, -25.10, -23.74, -20.32, -21.39, -19.62, -22.53, -23.40, -31.09, -23.54, -24.59, -19.98, 0.000, 0.000, 0.000, 15:35:21.818
168, -29.06, -21.86, -27.00, -20.14, -18.55, -25.10, -23.74, -20.32, -21.48, -19.71, -22.71, -23.45, -30.78, -23.49, -24.48, -19.78, 0.000, 0.000, 0.000, 15:35:21.818
169, -29.03, -21.93, -26.96, -20.00, -19.04, -25.19, -23.72, -20.41, -21.48, -19.71, -22.71, -23.45, -30.78, -23.49, -24.48, -19.78, 0.000, 0.000, 0.000, 15:35:21.818
170, -29.03, -21.93, -26.96, -20.00, -19.04, -25.19, -23.72, -20.41, -21.48, -19.83, -22.66, -23.20, -30.71, -23.65, -24.54, -19.89, 0.000, 0.000, 0.000, 15:35:21.818
171, -28.86, -21.99, -27.16, -19.92, -19.04, -25.15, -23.49, -20.38, -21.48, -19.83, -22.66, -23.20, -30.71, -23.65, -24.54, -19.89, 0.000, 0.000, 0.000, 15:35:21.818
172, -28.86, -21.99, -27.16, -19.92, -19.04, -25.15, -23.49, -20.38, -21.41, -19.74, -22.78, -23.25, -30.80, -23.36, -24.61, -19.89, 0.000, 0.000, 0.000, 15:35:21.819
173, -28.95, -21.88, -26.82, -20.07, -19.09, -25.24, -23.74, -20.36, -21.41, -19.74, -22.78, -23.25, -30.80, -23.36, -24.61, -19.89, -0.038, 0.928, -0.212, 15:35:21.819
174, -28.95, -21.88, -26.82, -20.07, -19.09, -25.24, -23.74, -20.36, -21.64, -19.65, -22.73, -23.29, -30.98, -23.36, -24.74, -19.98, 0.000, 0.000, 0.000, 15:35:21.819
175, -28.88, -21.86, -27.09, -20.03, -18.89, -25.35, -23.69, -20.36, -21.64, -19.65, -22.73, -23.29, -30.98, -23.36, -24.74, -19.98, 0.000, 0.000, 0.000, 15:35:21.819
176, -28.88, -21.86, -27.09, -20.03, -18.89, -25.35, -23.69, -20.36, -21.41, -19.49, -22.82, -23.27, -30.93, -23.69, -24.36, -19.92, 0.000, 0.000, 0.000, 15:35:21.819
177, -28.81, -21.90, -26.96, -20.12, -18.91, -25.35, -23.74, -20.54, -21.41, -19.49, -22.82, -23.27, -30.93, -23.69, -24.36, -19.92, 0.000, 0.000, 0.000, 15:35:21.819
178, -28.81, -21.90, -26.96, -20.12, -18.91, -25.35, -23.74, -20.54, -21.46, -19.62, -22.58, -23.36, -31.00, -23.60, -24.52, -19.89, 0.000, 0.000, 0.000, 15:35:21.820
179, -28.70, -21.90, -26.84, -19.85, -18.91, -25.30, -23.94, -20.34, -21.46, -19.62, -22.58, -23.36, -31.00, -23.60, -24.52, -19.89, 0.000, 0.000, 0.000, 15:35:21.820
180, -28.70, -21.90, -26.84, -19.85, -18.91, -25.30, -23.94, -20.34, -21.23, -19.69, -22.73, -23.36, -30.91, -23.63, -24.56, -20.05, 0.000, 0.000, 0.000, 15:35:21.820
181, -28.81, -21.93, -27.09, -19.92, -18.95, -25.19, -23.72, -20.34, -21.23, -19.69, -22.73, -23.36, -30.91, -23.63, -24.56, -20.05, 0.000, 0.000, 0.000, 15:35:21.820
182, -28.81, -21.93, -27.09, -19.92, -18.95, -25.19, -23.72, -20.34, -21.23, -19.67, -22.58, -23.22, -30.96, -23.51, -24.54, -19.80, 0.000, 0.000, 0.000, 15:35:21.820
183, -28.70, -21.86, -27.16, -20.09, -18.98, -25.35, -23.83, -20.25, -21.23, -19.67, -22.58, -23.22, -30.96, -23.51, -24.54, -19.80, -0.042, 0.986, -0.204, 15:35:21.821
184, -28.70, -21.86, -27.16, -20.09, -18.98, -25.35, -23.83, -20.25, -21.35, -19.67, -22.73, -23.42, -31.00, -23.47, -24.72, -19.71, 0.000, 0.000, 0.000, 15:35:21.821
185, -28.83, -21.99, -26.93, -20.07, -18.98, -25.35, -23.60, -20.41, -21.35, -19.67, -22.73, -23.42, -31.00, -23.47, -24.72, -19.71, 0.000, 0.000, 0.000, 15:35:21.821
186, -28.83, -21.99, -26.93, -20.07, -18.98, -25.35, -23.60, -20.41, -21.46, -19.80, -22.55, -23.47, -30.96, -23.74, -24.61, -19.83, 0.000, 0.000, 0.000, 15:35:21.821
187, -28.90, -21.93, -27.02, -19.98, -19.07, -25.17, -23.72, -20.30, -21.46, -19.80, -22.55, -23.47, -30.96, -23.74, -24.61, -19.83, 0.000, 0.000, 0.000, 15:35:21.821
188, -28.90, -21.93, -27.02, -19.98, -19.07, -25.17, -23.72, -20.30, -21.21, -19.74, -22.71, -23.29, -30.80, -23.60, -24.68, -19.80, 0.000, 0.000, 0.000, 15:35:21.822
189, -28.72, -21.86, -27.05, -19.96, -18.93, -25.44, -23.60, -20.16, -21.21, -19.74, -22.71, -23.29, -30.80, -23.60, -24.68, -19.80, 0.000, 0.000, 0.000, 15:35:21.822
190, -28.72, -21.86, -27.05, -19.96, -18.93, -25.44, -23.60, -20.16, -21.52, -19.80, -22.62, -23.22, -30.89, -23.72, -24.59, -19.80, 0.000, 0.000, 0.000, 15:35:21.822
191, -28.88, -21.88, -26.96, -19.98, -18.91, -25.30, -23.72, -20.50, -21.52, -19.80, -22.62, -23.22, -30.89, -23.72, -24.59, -19.80, 0.000, 0.000, 0.000, 15:35:21.823
192, -28.88, -21.88, -26.96, -19.98, -18.91, -25.30, -23.72, -20.50, -21.23, -19.56, -22.93, -23.31, -30.85, -23.51, -24.43, -20.03, 0.000, 0.000, 0.000, 15:35:21.823
193, -28.97, -21.82, -26.93, -19.85, -18.73, -25.26, -23.76, -20.63, -21.23, -19.56, -22.93, -23.31, -30.85, -23.51, -24.43, -20.03, -0.036, 0.954, -0.204, 15:35:21.823
194, -28.97, -21.82, -26.93, -19.85, -18.73, -25.26, -23.76, -20.63, -21.32, -19.78, -22.87, -23.29, -30.91, -23.47, -24.41, -19.87, 0.000, 0.000, 0.000, 15:35:21.823
195, -28.92, -21.93, -27.00, -19.94, -18.86, -25.57, -23.74, -20.34, -21.32, -19.78, -22.87, -23.29, -30.91, -23.47, -24.41, -19.87, 0.000, 0.000, 0.000, 15:35:21.824
196, -28.92, -21.93, -27.00, -19.94, -18.86, -25.57, -23.74, -20.34, -21.46, -19.65, -22.98, -23.27, -30.80, -23.67, -24.61, -19.83, 0.000, 0.000, 0.000, 15:35:21.824
197, -28.83, -21.79, -26.87, -19.83, -19.13, -25.06, -23.76, -20.21, -21.46, -19.65, -22.98, -23.27, -30.80, -23.67, -24.61, -19.83, 0.000, 0.000, 0.000, 15:35:21.824
198, -28.83, -21.79, -26.87, -19.83, -19.13, -25.06, -23.76, -20.21, -21.19, -19.76, -22.60, -23.25, -30.82, -23.40, -24.56, -19.87, 0.000, 0.000, 0.000, 15:35:21.824
199, -28.65, -21.90, -26.87, -19.92, -19.02, -25.21, -23.56, -20.16, -21.19, -19.76, -22.60, -23.25, -30.82, -23.40, -24.56, -19.87, 0.000, 0.000, 0.000, 15:35:21.824
200, -28.65, -21.90, -26.87, -19.92, -19.02, -25.21, -23.56, -20.16, -21.35, -19.85, -22.75, -23.02, -30.85, -23.65, -24.68, -19.94, 0.000, 0.000, 0.000, 15:35:21.825
201, -28.77, -21.82, -27.05, -20.18, -18.86, -25.15, -23.74, -20.16, -21.35, -19.85, -22.75, -23.02, -30.85, -23.65, -24.68, -19.94, 0.000, 0.000, 0.000, 15:35:21.825
202, -28.77, -21.82, -27.05, -20.18, -18.86, -25.15, -23.74, -20.16, -21.17, -19.80, -22.91, -23.20, -30.71, -23.63, -24.68, -20.03, 0.000, 0.000, 0.000, 15:35:21.825
203, -28.88, -21.86, -26.91, -19.92, -18.89, -25.28, -23.96, -20.45, -21.17, -19.80, -22.91, -23.20, -30.71, -23.63, -24.68, -20.03, -0.036, 0.930, -0.206, 15:35:21.825
204, -28.88, -21.86, -26.91, -19.92, -18.89, -25.28, -23.96, -20.45, -21.17, -19.65, -22.87, -23.25, -30.73, -23.47, -24.70, -19.94, 0.000, 0.000, 0.000, 15:35:21.826
205, -29.08, -21.84, -26.98, -20.03, -19.02, -25.19, -23.76, -20.50, -21.17, -19.65, -22.87, -23.25, -30.73, -23.47, -24.70, -19.94, 0.000, 0.000, 0.000, 15:35:21.826
