%OpenBCI Raw EEG Data
%
%Sample Rate = 250.0 Hz
%First Column = SampleIndex
%Last Column = Timestamp 
%Other Columns = EEG data in microvolts followed by Accel Data (in G) interleaved with Aux Data
0, 0.00, 0.00, 0.00, 0.00, 0.00, 0.00, 0.00, 0.00, 12782.13, -7859.16, 66778.29, -10826.67, 2204.66, -16220.79, 32014.13, -28920.94, -0.016, 0.964, -0.030, 16:49:19.275
1, -11.38, -18.06, -10.28, -9.52, -14.46, -7.67, -10.93, -14.71, 12782.13, -7859.16, 66778.29, -10826.67, 2204.66, -16220.79, 32014.13, -28920.94, 0.000, 0.000, 0.000, 16:49:19.756
2, -11.38, -18.06, -10.28, -9.52, -14.46, -7.67, -10.93, -14.71, -20.65, -30.31, -19.20, -27.47, -25.48, -21.10, -25.30, -27.09, 0.000, 0.000, 0.000, 16:49:19.757
3, -22.51, -35.96, -20.32, -18.98, -28.77, -15.45, -22.02, -29.48, -20.65, -30.31, -19.20, -27.47, -25.48, -21.10, -25.30, -27.09, 0.000, 0.000, 0.000, 16:49:19.757
4, -22.51, -35.96, -20.32, -18.98, -28.77, -15.45, -22.02, -29.48, -20.56, -30.38, -19.18, -27.47, -25.53, -21.21, -25.35, -27.00, 0.000, 0.000, 0.000, 16:49:19.757
5, -22.69, -36.03, -20.45, -18.66, -28.86, -15.31, -22.13, -29.44, -20.56, -30.38, -19.18, -27.47, -25.53, -21.21, -25.35, -27.00, 0.000, 0.000, 0.000, 16:49:19.758
6, -22.69, -36.03, -20.45, -18.66, -28.86, -15.31, -22.13, -29.44, -20.59, -30.33, -19.11, -27.34, -25.59, -21.30, -25.46, -27.07, 0.000, 0.000, 0.000, 16:49:19.758
7, -22.69, -36.08, -20.50, -18.89, -28.99, -15.38, -22.06, -29.59, -20.59, -30.33, -19.11, -27.34, -25.59, -21.30, -25.46, -27.07, -0.032, 0.944, 0.012, 16:49:19.758
8, -22.69, -36.08, -20.50, -18.89, -28.99, -15.38, -22.06, -29.59, -20.32, -30.29, -19.02, -27.20, -25.82, -21.46, -25.57, -27.09, 0.000, 0.000, 0.000, 16:49:19.758
9, -22.93, -36.03, -20.43, -19.04, -28.92, -15.56, -22.22, -29.66, -20.32, -30.29, -19.02, -27.20, -25.82, -21.46, -25.57, -27.09, 0.000, 0.000, 0.000, 16:49:19.759
10, -22.93, -36.03, -20.43, -19.04, -28.92, -15.56, -22.22, -29.66, -20.54, -30.29, -19.02, -27.31, -25.93, -21.03, -25.50, -27.14, 0.000, 0.000, 0.000, 16:49:19.759
11, -22.62, -36.23, -20.38, -19.11, -28.97, -15.51, -22.04, -29.46, -20.54, -30.29, -19.02, -27.31, -25.93, -21.03, -25.50, -27.14, 0.000, 0.000, 0.000, 16:49:19.759
12, -22.62, -36.23, -20.38, -19.11, -28.97, -15.51, -22.04, -29.46, -20.59, -30.31, -18.80, -27.16, -25.70, -21.17, -25.24, -27.20, 0.000, 0.000, 0.000, 16:49:19.759
13, -22.69, -36.08, -20.27, -19.00, -28.86, -15.31, -22.13, -29.59, -20.59, -30.31, -18.80, -27.16, -25.70, -21.17, -25.24, -27.20, 0.000, 0.000, 0.000, 16:49:19.759
14, -22.69, -36.08, -20.27, -19.00, -28.86, -15.31, -22.13, -29.59, -20.32, -30.13, -18.98, -27.40, -25.59, -21.08, -25.26, -27.11, 0.000, 0.000, 0.000, 16:49:19.760
15, -22.87, -36.25, -20.63, -19.27, -28.88, -15.42, -22.06, -29.68, -20.32, -30.13, -18.98, -27.40, -25.59, -21.08, -25.26, -27.11, 0.000, 0.000, 0.000, 16:49:19.760
16, -22.87, -36.25, -20.63, -19.27, -28.88, -15.42, -22.06, -29.68, -20.27, -30.35, -18.98, -27.43, -25.64, -21.01, -25.21, -27.05, 0.000, 0.000, 0.000, 16:49:19.760
17, -22.69, -36.17, -20.52, -18.98, -29.01, -15.45, -22.11, -29.68, -20.27, -30.35, -18.98, -27.43, -25.64, -21.01, -25.21, -27.05, -0.028, 0.950, 0.018, 16:49:19.760
18, -22.69, -36.17, -20.52, -18.98, -29.01, -15.45, -22.11, -29.68, -20.34, -30.13, -19.16, -27.47, -25.55, -21.10, -25.28, -27.34, 0.000, 0.000, 0.000, 16:49:19.760
19, -22.73, -36.23, -20.54, -18.82, -28.83, -15.42, -21.93, -29.62, -20.34, -30.13, -19.16, -27.47, -25.55, -21.10, -25.28, -27.34, 0.000, 0.000, 0.000, 16:49:19.760
20, -22.73, -36.23, -20.54, -18.82, -28.83, -15.42, -21.93, -29.62, -20.54, -30.29, -19.11, -27.45, -25.64, -21.06, -25.30, -27.36, 0.000, 0.000, 0.000, 16:49:19.761
21, -22.84, -36.03, -20.32, -18.84, -28.90, -15.49, -21.90, -29.62, -20.54, -30.29, -19.11, -27.45, -25.64, -21.06, -25.30, -27.36, 0.000, 0.000, 0.000, 16:49:19.761
22, -22.84, -36.03, -20.32, -18.84, -28.90, -15.49, -21.90, -29.62, -20.52, -30.31, -19.11, -27.31, -25.75, -21.21, -25.64, -27.29, 0.000, 0.000, 0.000, 16:49:19.761
23, -22.73, -36.25, -20.70, -18.93, -28.99, -15.58, -22.06, -29.64, -20.52, -30.31, -19.11, -27.31, -25.75, -21.21, -25.64, -27.29, 0.000, 0.000, 0.000, 16:49:19.761
24, -22.73, -36.25, -20.70, -18.93, -28.99, -15.58, -22.06, -29.64, -20.18, -30.33, -19.18, -27.43, -25.62, -21.26, -25.57, -27.29, 0.000, 0.000, 0.000, 16:49:19.761
25, -22.91, -36.10, -20.36, -18.91, -29.17, -15.36, -21.93, -29.57, -20.18, -30.33, -19.18, -27.43, -25.62, -21.26, -25.57, -27.29, 0.000, 0.000, 0.000, 16:49:19.762
26, -22.91, -36.10, -20.36, -18.91, -29.17, -15.36, -21.93, -29.57, -20.54, -30.29, -18.89, -27.34, -25.73, -20.94, -25.35, -27.29, 0.000, 0.000, 0.000, 16:49:19.762
27, -22.82, -36.28, -20.21, -18.80, -28.97, -15.62, -22.02, -29.62, -20.54, -30.29, -18.89, -27.34, -25.73, -20.94, -25.35, -27.29, -0.032, 0.954, 0.018, 16:49:19.762
28, -22.82, -36.28, -20.21, -18.80, -28.97, -15.62, -22.02, -29.62, -20.16, -30.49, -19.27, -27.25, -25.73, -20.97, -25.32, -27.34, 0.000, 0.000, 0.000, 16:49:19.762
29, -22.93, -36.01, -20.52, -18.86, -29.01, -15.42, -21.86, -29.73, -20.16, -30.49, -19.27, -27.25, -25.73, -20.97, -25.32, -27.34, 0.000, 0.000, 0.000, 16:49:19.762
30, -22.93, -36.01, -20.52, -18.86, -29.01, -15.42, -21.86, -29.73, -20.41, -30.33, -19.31, -27.31, -25.62, -20.92, -25.24, -27.05, 0.000, 0.000, 0.000, 16:49:19.763
31, -22.55, -36.10, -20.54, -18.84, -28.88, -15.53, -22.20, -29.39, -20.41, -30.33, -19.31, -27.31, -25.62, -20.92, -25.24, -27.05, 0.000, 0.000, 0.000, 16:49:19.763
32, -22.55, -36.10, -20.54, -18.84, -28.88, -15.53, -22.20, -29.39, -20.38, -30.47, -19.13, -27.40, -25.53, -21.03, -25.26, -27.20, 0.000, 0.000, 0.000, 16:49:19.763
33, -22.82, -35.99, -20.54, -18.89, -28.92, -15.40, -21.93, -29.71, -20.38, -30.47, -19.13, -27.40, -25.53, -21.03, -25.26, -27.20, 0.000, 0.000, 0.000, 16:49:19.763
34, -22.82, -35.99, -20.54, -18.89, -28.92, -15.40, -21.93, -29.71, -20.43, -30.20, -19.27, -27.34, -25.66, -21.17, -25.53, -27.14, 0.000, 0.000, 0.000, 16:49:19.763
35, -22.69, -36.34, -20.54, -18.93, -28.90, -15.36, -22.33, -29.91, -20.43, -30.20, -19.27, -27.34, -25.66, -21.17, -25.53, -27.14, 0.000, 0.000, 0.000, 16:49:19.764
36, -22.69, -36.34, -20.54, -18.93, -28.90, -15.36, -22.33, -29.91, -20.63, -30.11, -19.16, -27.16, -25.77, -21.06, -25.24, -27.14, 0.000, 0.000, 0.000, 16:49:19.764
37, -22.66, -36.23, -20.43, -19.13, -28.83, -15.42, -22.08, -29.66, -20.63, -30.11, -19.16, -27.16, -25.77, -21.06, -25.24, -27.14, -0.032, 0.948, 0.014, 16:49:19.764
38, -22.66, -36.23, -20.43, -19.13, -28.83, -15.42, -22.08, -29.66, -20.38, -30.33, -19.02, -27.20, -25.75, -21.10, -25.32, -27.27, 0.000, 0.000, 0.000, 16:49:19.764
39, -22.58, -35.99, -20.52, -19.13, -28.63, -15.49, -22.11, -29.59, -20.38, -30.33, -19.02, -27.20, -25.75, -21.10, -25.32, -27.27, 0.000, 0.000, 0.000, 16:49:19.764
40, -22.58, -35.99, -20.52, -19.13, -28.63, -15.49, -22.11, -29.59, -20.63, -30.31, -19.02, -27.34, -25.77, -21.06, -25.30, -27.18, 0.000, 0.000, 0.000, 16:49:19.764
41, -22.82, -36.19, -20.54, -18.93, -28.81, -15.65, -22.02, -29.59, -20.63, -30.31, -19.02, -27.34, -25.77, -21.06, -25.30, -27.18, 0.000, 0.000, 0.000, 16:49:19.765
42, -22.82, -36.19, -20.54, -18.93, -28.81, -15.65, -22.02, -29.59, -20.59, -30.22, -19.09, -27.40, -25.57, -21.06, -25.19, -27.09, 0.000, 0.000, 0.000, 16:49:19.765
43, -22.78, -36.34, -20.59, -18.80, -29.03, -15.58, -22.22, -29.64, -20.59, -30.22, -19.09, -27.40, -25.57, -21.06, -25.19, -27.09, 0.000, 0.000, 0.000, 16:49:19.765
44, -22.78, -36.34, -20.59, -18.80, -29.03, -15.58, -22.22, -29.64, -20.65, -30.02, -19.09, -27.38, -25.62, -21.01, -25.32, -27.09, 0.000, 0.000, 0.000, 16:49:19.765
45, -22.82, -36.25, -20.65, -18.86, -29.12, -15.51, -22.31, -29.64, -20.65, -30.02, -19.09, -27.38, -25.62, -21.01, -25.32, -27.09, 0.000, 0.000, 0.000, 16:49:19.765
46, -22.82, -36.25, -20.65, -18.86, -29.12, -15.51, -22.31, -29.64, -20.34, -30.26, -19.29, -27.02, -25.73, -21.01, -25.53, -27.16, 0.000, 0.000, 0.000, 16:49:19.765
47, -22.84, -36.21, -20.59, -18.86, -28.95, -15.58, -22.08, -29.53, -20.34, -30.26, -19.29, -27.02, -25.73, -21.01, -25.53, -27.16, -0.032, 0.946, 0.016, 16:49:19.765
48, -22.84, -36.21, -20.59, -18.86, -28.95, -15.58, -22.08, -29.53, -20.63, -30.15, -19.22, -27.31, -25.75, -20.88, -25.35, -27.27, 0.000, 0.000, 0.000, 16:49:19.766
49, -22.84, -36.14, -20.41, -18.91, -28.81, -15.45, -22.13, -29.59, -20.63, -30.15, -19.22, -27.31, -25.75, -20.88, -25.35, -27.27, 0.000, 0.000, 0.000, 16:49:19.766
50, -22.84, -36.14, -20.41, -18.91, -28.81, -15.45, -22.13, -29.59, -20.52, -30.17, -19.07, -27.38, -25.70, -21.03, -25.19, -27.09, 0.000, 0.000, 0.000, 16:49:19.766
51, -22.91, -36.25, -20.32, -19.00, -28.79, -15.29, -22.02, -29.48, -20.52, -30.17, -19.07, -27.38, -25.70, -21.03, -25.19, -27.09, 0.000, 0.000, 0.000, 16:49:19.766
52, -22.91, -36.25, -20.32, -19.00, -28.79, -15.29, -22.02, -29.48, -20.61, -30.24, -19.02, -27.38, -25.59, -21.17, -25.46, -26.93, 0.000, 0.000, 0.000, 16:49:19.767
53, -22.62, -36.30, -20.47, -18.93, -28.92, -15.29, -22.13, -29.59, -20.61, -30.24, -19.02, -27.38, -25.59, -21.17, -25.46, -26.93, 0.000, 0.000, 0.000, 16:49:19.767
54, -22.62, -36.30, -20.47, -18.93, -28.92, -15.29, -22.13, -29.59, -20.52, -30.24, -19.11, -27.25, -25.57, -21.26, -25.55, -26.93, 0.000, 0.000, 0.000, 16:49:19.767
55, -22.73, -36.01, -20.38, -19.02, -29.08, -15.45, -21.90, -29.50, -20.52, -30.24, -19.11, -27.25, -25.57, -21.26, -25.55, -26.93, 0.000, 0.000, 0.000, 16:49:19.767
56, -22.73, -36.01, -20.38, -19.02, -29.08, -15.45, -21.90, -29.50, -20.45, -30.24, -18.93, -27.18, -25.79, -21.21, -25.37, -27.16, 0.000, 0.000, 0.000, 16:49:19.767
57, -22.71, -36.05, -20.68, -19.18, -28.95, -15.42, -21.82, -29.59, -20.45, -30.24, -18.93, -27.18, -25.79, -21.21, -25.37, -27.16, -0.028, 0.944, 0.016, 16:49:19.767
58, -22.71, -36.05, -20.68, -19.18, -28.95, -15.42, -21.82, -29.59, -20.65, -30.11, -19.18, -27.22, -25.79, -20.97, -25.46, -27.22, 0.000, 0.000, 0.000, 16:49:19.768
59, -22.78, -36.19, -20.45, -18.91, -28.88, -15.31, -21.86, -29.68, -20.65, -30.11, -19.18, -27.22, -25.79, -20.97, -25.46, -27.22, 0.000, 0.000, 0.000, 16:49:19.768
60, -22.78, -36.19, -20.45, -18.91, -28.88, -15.31, -21.86, -29.68, -20.56, -30.22, -19.11, -27.27, -25.75, -21.17, -25.24, -27.18, 0.000, 0.000, 0.000, 16:49:19.768
61, -22.91, -36.03, -20.43, -18.82, -29.03, -15.47, -21.86, -29.46, -20.56, -30.22, -19.11, -27.27, -25.75, -21.17, -25.24, -27.18, 0.000, 0.000, 0.000, 16:49:19.768
62, -22.91, -36.03, -20.43, -18.82, -29.03, -15.47, -21.86, -29.46, -20.54, -30.13, -19.11, -27.31, -25.59, -21.01, -25.32, -27.18, 0.000, 0.000, 0.000, 16:49:19.768
63, -22.89, -36.05, -20.59, -18.89, -28.74, -15.45, -22.06, -29.55, -20.54, -30.13, -19.11, -27.31, -25.59, -21.01, -25.32, -27.18, 0.000, 0.000, 0.000, 16:49:19.768
64, -22.89, -36.05, -20.59, -18.89, -28.74, -15.45, -22.06, -29.55, -20.70, -30.29, -19.13, -27.31, -25.66, -20.97, -25.39, -27.07, 0.000, 0.000, 0.000, 16:49:19.769
65, -22.87, -36.25, -20.56, -18.98, -28.90, -15.40, -22.06, -29.46, -20.70, -30.29, -19.13, -27.31, -25.66, -20.97, -25.39, -27.07, 0.000, 0.000, 0.000, 16:49:19.769
66, -22.87, -36.25, -20.56, -18.98, -28.90, -15.40, -22.06, -29.46, -20.68, -30.20, -19.00, -27.29, -25.84, -21.03, -25.35, -27.18, 0.000, 0.000, 0.000, 16:49:19.769
67, -22.73, -36.14, -20.59, -18.98, -28.81, -15.49, -22.04, -29.55, -20.68, -30.20, -19.00, -27.29, -25.84, -21.03, -25.35, -27.18, -0.030, 0.946, 0.014, 16:49:19.769
68, -22.73, -36.14, -20.59, -18.98, -28.81, -15.49, -22.04, -29.55, -20.65, -30.24, -18.91, -27.25, -25.55, -20.99, -25.26, -27.27, 0.000, 0.000, 0.000, 16:49:19.769
69, -22.78, -35.96, -20.43, -18.95, -28.86, -15.47, -22.04, -29.62, -20.65, -30.24, -18.91, -27.25, -25.55, -20.99, -25.26, -27.27, 0.000, 0.000, 0.000, 16:49:19.769
70, -22.78, -35.96, -20.43, -18.95, -28.86, -15.47, -22.04, -29.62, -20.72, -30.24, -19.18, -27.45, -25.75, -20.97, -25.17, -27.16, 0.000, 0.000, 0.000, 16:49:19.769
71, -22.87, -36.01, -20.47, -19.04, -28.81, -15.65, -22.02, -29.77, -20.72, -30.24, -19.18, -27.45, -25.75, -20.97, -25.17, -27.16, 0.000, 0.000, 0.000, 16:49:19.770
72, -22.87, -36.01, -20.47, -19.04, -28.81, -15.65, -22.02, -29.77, -20.43, -30.17, -19.27, -27.34, -25.68, -21.01, -25.17, -27.09, 0.000, 0.000, 0.000, 16:49:19.770
73, -22.91, -35.96, -20.36, -18.82, -28.77, -15.36, -22.02, -29.41, -20.43, -30.17, -19.27, -27.34, -25.68, -21.01, -25.17, -27.09, 0.000, 0.000, 0.000, 16:49:19.770
74, -22.91, -35.96, -20.36, -18.82, -28.77, -15.36, -22.02, -29.41, -20.50, -30.26, -19.24, -27.22, -25.64, -21.10, -25.35, -27.11, 0.000, 0.000, 0.000, 16:49:19.770
75, -22.80, -35.99, -20.56, -18.66, -29.08, -15.40, -22.06, -29.66, -20.50, -30.26, -19.24, -27.22, -25.64, -21.10, -25.35, -27.11, 0.000, 0.000, 0.000, 16:49:19.770
76, -22.80, -35.99, -20.56, -18.66, -29.08, -15.40, -22.06, -29.66, -20.38, -30.38, -19.16, -27.20, -25.62, -21.01, -25.32, -27.22, 0.000, 0.000, 0.000, 16:49:19.770
77, -22.87, -36.25, -20.50, -19.11, -28.92, -15.67, -22.08, -29.39, -20.38, -30.38, -19.16, -27.20, -25.62, -21.01, -25.32, -27.22, -0.030, 0.948, 0.016, 16:49:19.771
78, -22.87, -36.25, -20.50, -19.11, -28.92, -15.67, -22.08, -29.39, -20.18, -30.29, -19.22, -27.29, -25.88, -21.19, -25.35, -27.05, 0.000, 0.000, 0.000, 16:49:19.771
79, -22.64, -36.14, -20.54, -18.93, -29.03, -15.58, -22.22, -29.68, -20.18, -30.29, -19.22, -27.29, -25.88, -21.19, -25.35, -27.05, 0.000, 0.000, 0.000, 16:49:19.771
80, -22.64, -36.14, -20.54, -18.93, -29.03, -15.58, -22.22, -29.68, -20.30, -30.04, -19.09, -27.16, -25.73, -20.92, -25.44, -27.11, 0.000, 0.000, 0.000, 16:49:19.771
81, -22.82, -36.12, -20.54, -19.13, -28.70, -15.38, -22.20, -29.57, -20.30, -30.04, -19.09, -27.16, -25.73, -20.92, -25.44, -27.11, 0.000, 0.000, 0.000, 16:49:19.771
82, -22.82, -36.12, -20.54, -19.13, -28.70, -15.38, -22.20, -29.57, -20.47, -30.06, -18.78, -27.36, -25.82, -21.19, -25.41, -27.31, 0.000, 0.000, 0.000, 16:49:19.771
83, -22.71, -35.92, -20.45, -19.02, -28.81, -15.60, -22.06, -29.62, -20.47, -30.06, -18.78, -27.36, -25.82, -21.19, -25.41, -27.31, 0.000, 0.000, 0.000, 16:49:19.772
84, -22.71, -35.92, -20.45, -19.02, -28.81, -15.60, -22.06, -29.62, -20.52, -30.20, -18.91, -27.34, -25.77, -21.14, -25.41, -27.09, 0.000, 0.000, 0.000, 16:49:19.772
85, -22.89, -36.12, -20.45, -19.00, -29.01, -15.56, -21.99, -29.75, -20.52, -30.20, -18.91, -27.34, -25.77, -21.14, -25.41, -27.09, 0.000, 0.000, 0.000, 16:49:19.772
86, -22.89, -36.12, -20.45, -19.00, -29.01, -15.56, -21.99, -29.75, -20.59, -30.20, -18.82, -27.38, -25.59, -21.14, -25.35, -27.11, 0.000, 0.000, 0.000, 16:49:19.772
87, -22.78, -36.21, -20.50, -19.02, -28.81, -15.58, -21.99, -29.68, -20.59, -30.20, -18.82, -27.38, -25.59, -21.14, -25.35, -27.11, -0.032, 0.944, 0.016, 16:49:19.772
88, -22.78, -36.21, -20.50, -19.02, -28.81, -15.58, -21.99, -29.68, -20.45, -30.33, -19.00, -27.34, -25.62, -21.03, -25.48, -27.31, 0.000, 0.000, 0.000, 16:49:19.772
89, -22.73, -36.28, -20.38, -19.11, -29.06, -15.45, -21.97, -29.57, -20.45, -30.33, -19.00, -27.34, -25.62, -21.03, -25.48, -27.31, 0.000, 0.000, 0.000, 16:49:19.773
90, -22.73, -36.28, -20.38, -19.11, -29.06, -15.45, -21.97, -29.57, -20.68, -30.38, -19.09, -27.25, -25.55, -20.97, -25.46, -27.31, 0.000, 0.000, 0.000, 16:49:19.773
91, -22.89, -36.08, -20.50, -19.00, -28.81, -15.53, -22.17, -29.84, -20.68, -30.38, -19.09, -27.25, -25.55, -20.97, -25.46, -27.31, 0.000, 0.000, 0.000, 16:49:19.773
92, -22.89, -36.08, -20.50, -19.00, -28.81, -15.53, -22.17, -29.84, -20.59, -30.40, -19.00, -27.18, -25.55, -21.01, -25.41, -27.40, 0.000, 0.000, 0.000, 16:49:19.773
93, -22.60, -36.14, -20.41, -18.82, -28.99, -15.36, -22.06, -29.59, -20.59, -30.40, -19.00, -27.18, -25.55, -21.01, -25.41, -27.40, 0.000, 0.000, 0.000, 16:49:19.774
94, -22.60, -36.14, -20.41, -18.82, -28.99, -15.36, -22.06, -29.59, -20.65, -30.17, -19.04, -27.38, -25.77, -21.06, -25.39, -27.27, 0.000, 0.000, 0.000, 16:49:19.774
95, -22.58, -36.17, -20.43, -18.95, -28.86, -15.33, -22.11, -29.57, -20.65, -30.17, -19.04, -27.38, -25.77, -21.06, -25.39, -27.27, 0.000, 0.000, 0.000, 16:49:19.774
96, -22.58, -36.17, -20.43, -18.95, -28.86, -15.33, -22.11, -29.57, -20.47, -30.40, -18.98, -27.38, -25.64, -21.03, -25.30, -27.18, 0.000, 0.000, 0.000, 16:49:19.774
97, -22.75, -36.25, -20.59, -19.07, -28.81, -15.20, -22.13, -29.53, -20.47, -30.40, -18.98, -27.38, -25.64, -21.03, -25.30, -27.18, -0.034, 0.940, 0.014, 16:49:19.775
98, -22.75, -36.25, -20.59, -19.07, -28.81, -15.20, -22.13, -29.53, -20.52, -30.35, -18.86, -27.31, -25.68, -21.17, -25.35, -27.05, 0.000, 0.000, 0.000, 16:49:19.775
99, -22.75, -36.05, -20.56, -19.07, -28.72, -15.67, -22.02, -29.55, -20.52, -30.35, -18.86, -27.31, -25.68, -21.17, -25.35, -27.05, 0.000, 0.000, 0.000, 16:49:19.775
100, -22.75, -36.05, -20.56, -19.07, -28.72, -15.67, -22.02, -29.55, -20.45, -30.35, -19.13, -27.25, -25.55, -21.03, -25.21, -27.02, 0.000, 0.000, 0.000, 16:49:19.775
101, -22.69, -36.03, -20.32, -19.04, -28.52, -15.60, -21.95, -29.59, -20.45, -30.35, -19.13, -27.25, -25.55, -21.03, -25.21, -27.02, 0.000, 0.000, 0.000, 16:49:19.775
102, -22.69, -36.03, -20.32, -19.04, -28.52, -15.60, -21.95, -29.59, -20.59, -30.24, -19.29, -27.34, -25.73, -20.94, -25.32, -26.93, 0.000, 0.000, 0.000, 16:49:19.776
103, -22.62, -36.14, -20.68, -18.89, -28.74, -15.58, -22.17, -29.66, -20.59, -30.24, -19.29, -27.34, -25.73, -20.94, -25.32, -26.93, 0.000, 0.000, 0.000, 16:49:19.776
104, -22.62, -36.14, -20.68, -18.89, -28.74, -15.58, -22.17, -29.66, -20.47, -30.24, -19.07, -27.45, -25.79, -20.99, -25.26, -27.18, 0.000, 0.000, 0.000, 16:49:19.776
105, -22.80, -36.14, -20.45, -18.82, -28.92, -15.45, -22.04, -29.62, -20.47, -30.24, -19.07, -27.45, -25.79, -20.99, -25.26, -27.18, 0.000, 0.000, 0.000, 16:49:19.777
106, -22.80, -36.14, -20.45, -18.82, -28.92, -15.45, -22.04, -29.62, -20.65, -30.11, -19.16, -27.27, -25.70, -21.06, -25.39, -27.22, -0.024, 0.950, 0.014, 16:49:19.777
107, -22.71, -36.08, -20.41, -19.00, -28.99, -15.45, -22.04, -29.48, -20.65, -30.11, -19.16, -27.27, -25.70, -21.06, -25.39, -27.22, 0.000, 0.000, 0.000, 16:49:19.777
108, -22.71, -36.08, -20.41, -19.00, -28.99, -15.45, -22.04, -29.48, -20.65, -30.29, -18.98, -27.27, -25.53, -21.12, -25.28, -27.11, 0.000, 0.000, 0.000, 16:49:19.777
109, -22.89, -36.21, -20.56, -18.95, -28.74, -15.60, -22.11, -29.66, -20.65, -30.29, -18.98, -27.27, -25.53, -21.12, -25.28, -27.11, 0.000, 0.000, 0.000, 16:49:19.777
110, -22.89, -36.21, -20.56, -18.95, -28.74, -15.60, -22.11, -29.66, -20.25, -30.22, -19.09, -27.16, -25.64, -20.92, -25.39, -27.11, 0.000, 0.000, 0.000, 16:49:19.777
111, -22.91, -35.94, -20.47, -19.11, -28.90, -15.49, -21.97, -29.71, -20.25, -30.22, -19.09, -27.16, -25.64, -20.92, -25.39, -27.11, 0.000, 0.000, 0.000, 16:49:19.778
112, -22.91, -35.94, -20.47, -19.11, -28.90, -15.49, -21.97, -29.71, -20.59, -30.13, -19.09, -27.25, -25.79, -21.12, -24.99, -27.34, 0.000, 0.000, 0.000, 16:49:19.778
113, -22.82, -36.14, -20.54, -19.00, -28.97, -15.49, -22.02, -29.57, -20.59, -30.13, -19.09, -27.25, -25.79, -21.12, -24.99, -27.34, 0.000, 0.000, 0.000, 16:49:19.778
114, -22.82, -36.14, -20.54, -19.00, -28.97, -15.49, -22.02, -29.57, -20.56, -30.20, -19.04, -27.34, -25.97, -21.10, -25.24, -27.27, 0.000, 0.000, 0.000, 16:49:19.778
115, -22.82, -36.19, -20.47, -18.95, -29.01, -15.36, -21.82, -29.62, -20.56, -30.20, -19.04, -27.34, -25.97, -21.10, -25.24, -27.27, 0.000, 0.000, 0.000, 16:49:19.778
116, -22.82, -36.19, -20.47, -18.95, -29.01, -15.36, -21.82, -29.62, -20.38, -30.04, -19.18, -27.14, -25.59, -21.08, -25.32, -27.16, -0.028, 0.946, 0.012, 16:49:19.778
117, -22.89, -36.28, -20.65, -18.91, -29.08, -15.47, -21.99, -29.71, -20.38, -30.04, -19.18, -27.14, -25.59, -21.08, -25.32, -27.16, 0.000, 0.000, 0.000, 16:49:19.779
118, -22.89, -36.28, -20.65, -18.91, -29.08, -15.47, -21.99, -29.71, -20.32, -30.17, -19.16, -27.20, -25.68, -21.26, -25.44, -27.14, 0.000, 0.000, 0.000, 16:49:19.779
119, -22.89, -36.25, -20.61, -18.91, -28.86, -15.38, -21.95, -29.55, -20.32, -30.17, -19.16, -27.20, -25.68, -21.26, -25.44, -27.14, 0.000, 0.000, 0.000, 16:49:19.779
120, -22.89, -36.25, -20.61, -18.91, -28.86, -15.38, -21.95, -29.55, -20.30, -30.42, -19.47, -27.40, -25.79, -21.14, -25.41, -27.18, 0.000, 0.000, 0.000, 16:49:19.779
121, -22.73, -35.99, -20.56, -18.84, -29.08, -15.22, -21.99, -29.82, -20.30, -30.42, -19.47, -27.40, -25.79, -21.14, -25.41, -27.18, 0.000, 0.000, 0.000, 16:49:20.237
122, -22.73, -35.99, -20.56, -18.84, -29.08, -15.22, -21.99, -29.82, -20.47, -30.38, -19.11, -27.45, -25.84, -20.97, -25.46, -27.31, 0.000, 0.000, 0.000, 16:49:20.237
123, -22.84, -36.01, -20.45, -18.93, -28.92, -15.40, -22.04, -29.35, -20.47, -30.38, -19.11, -27.45, -25.84, -20.97, -25.46, -27.31, 0.000, 0.000, 0.000, 16:49:20.237
124, -22.84, -36.01, -20.45, -18.93, -28.92, -15.40, -22.04, -29.35, -20.65, -30.26, -19.20, -27.36, -25.53, -20.83, -25.35, -27.49, 0.000, 0.000, 0.000, 16:49:20.237
125, -22.66, -36.19, -20.52, -18.89, -28.81, -15.51, -21.88, -29.48, -20.65, -30.26, -19.20, -27.36, -25.53, -20.83, -25.35, -27.49, 0.000, 0.000, 0.000, 16:49:20.237
126, -22.66, -36.19, -20.52, -18.89, -28.81, -15.51, -21.88, -29.48, -20.47, -30.22, -19.27, -27.20, -25.66, -21.21, -25.41, -27.14, -0.028, 0.948, 0.016, 16:49:20.238
127, -22.89, -36.14, -20.56, -18.86, -28.79, -15.69, -21.93, -29.48, -20.47, -30.22, -19.27, -27.20, -25.66, -21.21, -25.41, -27.14, 0.000, 0.000, 0.000, 16:49:20.238
128, -22.89, -36.14, -20.56, -18.86, -28.79, -15.69, -21.93, -29.48, -20.70, -30.20, -19.18, -27.54, -25.79, -21.08, -25.17, -27.11, 0.000, 0.000, 0.000, 16:49:20.238
129, -23.02, -36.39, -20.43, -19.00, -28.83, -15.31, -21.88, -29.77, -20.70, -30.20, -19.18, -27.54, -25.79, -21.08, -25.17, -27.11, 0.000, 0.000, 0.000, 16:49:20.238
130, -23.02, -36.39, -20.43, -19.00, -28.83, -15.31, -21.88, -29.77, -20.65, -30.42, -19.11, -27.43, -25.82, -20.99, -25.24, -27.27, 0.000, 0.000, 0.000, 16:49:20.239
131, -22.87, -36.14, -20.47, -19.11, -28.88, -15.47, -21.88, -29.53, -20.65, -30.42, -19.11, -27.43, -25.82, -20.99, -25.24, -27.27, 0.000, 0.000, 0.000, 16:49:20.239
132, -22.87, -36.14, -20.47, -19.11, -28.88, -15.47, -21.88, -29.53, -20.76, -30.22, -19.11, -27.43, -25.46, -20.94, -25.24, -27.16, 0.000, 0.000, 0.000, 16:49:20.239
133, -22.69, -36.05, -20.61, -18.91, -28.97, -15.42, -21.95, -29.57, -20.76, -30.22, -19.11, -27.43, -25.46, -20.94, -25.24, -27.16, 0.000, 0.000, 0.000, 16:49:20.239
134, -22.69, -36.05, -20.61, -18.91, -28.97, -15.42, -21.95, -29.57, -20.54, -30.24, -19.29, -27.36, -25.73, -20.90, -25.37, -27.27, 0.000, 0.000, 0.000, 16:49:20.240
135, -22.62, -36.14, -20.38, -18.93, -28.90, -15.56, -22.02, -29.48, -20.54, -30.24, -19.29, -27.36, -25.73, -20.90, -25.37, -27.27, 0.000, 0.000, 0.000, 16:49:20.240
136, -22.62, -36.14, -20.38, -18.93, -28.90, -15.56, -22.02, -29.48, -20.23, -30.26, -18.93, -27.36, -25.70, -20.94, -25.37, -27.20, -0.026, 0.950, 0.012, 16:49:20.240
137, -22.60, -36.23, -20.27, -18.91, -28.97, -15.78, -22.11, -29.59, -20.23, -30.26, -18.93, -27.36, -25.70, -20.94, -25.37, -27.20, 0.000, 0.000, 0.000, 16:49:20.240
138, -22.60, -36.23, -20.27, -18.91, -28.97, -15.78, -22.11, -29.59, -20.52, -30.24, -18.89, -27.29, -25.77, -21.28, -25.41, -26.91, 0.000, 0.000, 0.000, 16:49:20.241
139, -22.66, -36.05, -20.38, -19.02, -28.95, -15.36, -22.13, -29.50, -20.52, -30.24, -18.89, -27.29, -25.77, -21.28, -25.41, -26.91, 0.000, 0.000, 0.000, 16:49:20.241
140, -22.66, -36.05, -20.38, -19.02, -28.95, -15.36, -22.13, -29.50, -20.61, -30.33, -18.82, -27.45, -25.79, -21.21, -25.50, -27.22, 0.000, 0.000, 0.000, 16:49:20.241
141, -22.60, -36.19, -20.52, -19.20, -28.77, -15.53, -22.08, -29.46, -20.61, -30.33, -18.82, -27.45, -25.79, -21.21, -25.50, -27.22, 0.000, 0.000, 0.000, 16:49:20.242
142, -22.60, -36.19, -20.52, -19.20, -28.77, -15.53, -22.08, -29.46, -20.63, -30.11, -18.93, -27.31, -25.64, -21.03, -25.48, -26.89, 0.000, 0.000, 0.000, 16:49:20.242
143, -22.64, -36.14, -20.56, -19.04, -28.88, -15.65, -22.13, -29.68, -20.63, -30.11, -18.93, -27.31, -25.64, -21.03, -25.48, -26.89, 0.000, 0.000, 0.000, 16:49:20.242
144, -22.64, -36.14, -20.56, -19.04, -28.88, -15.65, -22.13, -29.68, -20.43, -30.11, -19.11, -27.11, -25.57, -21.12, -25.32, -27.07, 0.000, 0.000, 0.000, 16:49:20.242
145, -22.73, -36.12, -20.50, -19.02, -28.95, -15.58, -22.06, -29.62, -20.43, -30.11, -19.11, -27.11, -25.57, -21.12, -25.32, -27.07, 0.000, 0.000, 0.000, 16:49:20.243
146, -22.73, -36.12, -20.50, -19.02, -28.95, -15.58, -22.06, -29.62, -20.41, -30.31, -19.24, -27.27, -25.73, -21.08, -25.37, -27.16, -0.028, 0.952, 0.016, 16:49:20.243
147, -22.75, -36.14, -20.61, -19.11, -29.06, -15.47, -22.08, -29.66, -20.41, -30.31, -19.24, -27.27, -25.73, -21.08, -25.37, -27.16, 0.000, 0.000, 0.000, 16:49:20.243
148, -22.75, -36.14, -20.61, -19.11, -29.06, -15.47, -22.08, -29.66, -20.21, -30.15, -19.16, -27.36, -25.75, -20.99, -25.32, -27.05, 0.000, 0.000, 0.000, 16:49:20.244
149, -22.82, -36.19, -20.36, -19.04, -28.88, -15.49, -22.15, -29.59, -20.21, -30.15, -19.16, -27.36, -25.75, -20.99, -25.32, -27.05, 0.000, 0.000, 0.000, 16:49:20.244
150, -22.82, -36.19, -20.36, -19.04, -28.88, -15.49, -22.15, -29.59, -20.45, -30.15, -19.16, -27.14, -25.77, -21.06, -25.55, -27.29, 0.000, 0.000, 0.000, 16:49:20.244
151, -22.75, -36.25, -20.54, -19.04, -28.90, -15.45, -22.11, -29.71, -20.45, -30.15, -19.16, -27.14, -25.77, -21.06, -25.55, -27.29, 0.000, 0.000, 0.000, 16:49:20.244
152, -22.75, -36.25, -20.54, -19.04, -28.90, -15.45, -22.11, -29.71, -20.52, -30.24, -19.09, -27.49, -25.79, -21.30, -25.28, -27.14, 0.000, 0.000, 0.000, 16:49:20.245
153, -22.78, -36.19, -20.52, -19.18, -28.81, -15.38, -22.04, -29.68, -20.52, -30.24, -19.09, -27.49, -25.79, -21.30, -25.28, -27.14, 0.000, 0.000, 0.000, 16:49:20.245
154, -22.78, -36.19, -20.52, -19.18, -28.81, -15.38, -22.04, -29.68, -20.47, -30.22, -19.22, -27.54, -25.62, -20.99, -25.39, -27.34, 0.000, 0.000, 0.000, 16:49:20.245
155, -22.93, -36.10, -20.09, -19.00, -28.88, -15.15, -22.08, -29.44, -20.47, -30.22, -19.22, -27.54, -25.62, -20.99, -25.39, -27.34, 0.000, 0.000, 0.000, 16:49:20.245
156, -22.93, -36.10, -20.09, -19.00, -28.88, -15.15, -22.08, -29.44, -20.54, -30.40, -19.13, -27.27, -25.84, -21.08, -25.32, -27.07, -0.030, 0.944, 0.012, 16:49:20.245
157, -22.62, -36.30, -20.32, -18.95, -28.92, -15.45, -22.02, -29.62, -20.54, -30.40, -19.13, -27.27, -25.84, -21.08, -25.32, -27.07, 0.000, 0.000, 0.000, 16:49:20.246
158, -22.62, -36.30, -20.32, -18.95, -28.92, -15.45, -22.02, -29.62, -20.34, -30.38, -19.02, -27.02, -25.46, -21.14, -25.32, -27.14, 0.000, 0.000, 0.000, 16:49:20.246
159, -22.69, -36.17, -20.27, -18.98, -28.86, -15.47, -22.22, -29.71, -20.34, -30.38, -19.02, -27.02, -25.46, -21.14, -25.32, -27.14, 0.000, 0.000, 0.000, 16:49:20.246
160, -22.69, -36.17, -20.27, -18.98, -28.86, -15.47, -22.22, -29.71, -20.30, -30.42, -18.98, -27.09, -25.77, -21.06, -25.19, -27.18, 0.000, 0.000, 0.000, 16:49:20.246
161, -22.78, -35.99, -20.45, -18.91, -28.92, -15.60, -21.97, -29.71, -20.30, -30.42, -18.98, -27.09, -25.77, -21.06, -25.19, -27.18, 0.000, 0.000, 0.000, 16:49:20.247
162, -22.78, -35.99, -20.45, -18.91, -28.92, -15.60, -21.97, -29.71, -20.45, -30.38, -19.13, -27.45, -25.77, -21.06, -25.39, -27.11, 0.000, 0.000, 0.000, 16:49:20.247
163, -22.64, -36.17, -20.59, -19.00, -29.08, -15.29, -22.06, -29.44, -20.45, -30.38, -19.13, -27.45, -25.77, -21.06, -25.39, -27.11, 0.000, 0.000, 0.000, 16:49:20.247
164, -22.64, -36.17, -20.59, -19.00, -29.08, -15.29, -22.06, -29.44, -20.52, -30.20, -19.31, -27.25, -25.66, -20.99, -25.26, -27.00, 0.000, 0.000, 0.000, 16:49:20.247
165, -22.89, -36.10, -20.63, -18.84, -29.06, -15.38, -21.93, -29.75, -20.52, -30.20, -19.31, -27.25, -25.66, -20.99, -25.26, -27.00, 0.000, 0.000, 0.000, 16:49:20.247
166, -22.89, -36.10, -20.63, -18.84, -29.06, -15.38, -21.93, -29.75, -20.72, -30.26, -19.24, -27.36, -25.62, -20.90, -25.32, -27.14, -0.028, 0.944, 0.018, 16:49:20.248
167, -22.62, -36.17, -20.43, -18.80, -29.10, -15.42, -21.97, -29.86, -20.72, -30.26, -19.24, -27.36, -25.62, -20.90, -25.32, -27.14, 0.000, 0.000, 0.000, 16:49:20.248
168, -22.62, -36.17, -20.43, -18.80, -29.10, -15.42, -21.97, -29.86, -20.56, -30.17, -19.22, -27.51, -25.82, -21.14, -25.44, -27.18, 0.000, 0.000, 0.000, 16:49:20.248
169, -22.82, -35.99, -20.47, -18.93, -29.17, -15.56, -22.08, -29.64, -20.56, -30.17, -19.22, -27.51, -25.82, -21.14, -25.44, -27.18, 0.000, 0.000, 0.000, 16:49:20.248
170, -22.82, -35.99, -20.47, -18.93, -29.17, -15.56, -22.08, -29.64, -20.43, -30.24, -19.11, -27.29, -25.57, -21.32, -25.46, -26.98, 0.000, 0.000, 0.000, 16:49:20.248
171, -22.82, -36.03, -20.72, -18.93, -29.03, -15.40, -22.08, -29.66, -20.43, -30.24, -19.11, -27.29, -25.57, -21.32, -25.46, -26.98, 0.000, 0.000, 0.000, 16:49:20.248
172, -22.82, -36.03, -20.72, -18.93, -29.03, -15.40, -22.08, -29.66, -20.43, -30.22, -18.89, -27.22, -25.55, -21.06, -25.48, -27.34, 0.000, 0.000, 0.000, 16:49:20.249
173, -22.73, -36.08, -20.61, -18.95, -28.65, -15.65, -22.04, -29.62, -20.43, -30.22, -18.89, -27.22, -25.55, -21.06, -25.48, -27.34, 0.000, 0.000, 0.000, 16:49:20.249
174, -22.73, -36.08, -20.61, -18.95, -28.65, -15.65, -22.04, -29.62, -20.65, -30.38, -19.16, -27.43, -25.95, -20.97, -25.44, -27.22, 0.000, 0.000, 0.000, 16:49:20.249
175, -22.82, -36.25, -20.43, -18.84, -28.90, -15.58, -22.17, -29.68, -20.65, -30.38, -19.16, -27.43, -25.95, -20.97, -25.44, -27.22, 0.000, 0.000, 0.000, 16:49:20.249
176, -22.82, -36.25, -20.43, -18.84, -28.90, -15.58, -22.17, -29.68, -20.59, -30.26, -19.16, -27.18, -25.64, -21.10, -25.44, -27.29, -0.026, 0.946, 0.018, 16:49:20.250
177, -22.71, -36.12, -20.36, -19.02, -29.06, -15.60, -21.75, -29.84, -20.59, -30.26, -19.16, -27.18, -25.64, -21.10, -25.44, -27.29, 0.000, 0.000, 0.000, 16:49:20.250
178, -22.71, -36.12, -20.36, -19.02, -29.06, -15.60, -21.75, -29.84, -20.54, -30.31, -18.80, -27.20, -25.66, -21.14, -25.28, -27.29, 0.000, 0.000, 0.000, 16:49:20.250
179, -22.73, -36.10, -20.47, -19.00, -28.95, -15.40, -21.82, -29.64, -20.54, -30.31, -18.80, -27.20, -25.66, -21.14, -25.28, -27.29, 0.000, 0.000, 0.000, 16:49:20.250
180, -22.73, -36.10, -20.47, -19.00, -28.95, -15.40, -21.82, -29.64, -20.34, -30.31, -19.11, -27.36, -25.77, -21.12, -25.41, -27.20, 0.000, 0.000, 0.000, 16:49:20.250
181, -22.73, -35.96, -20.65, -18.93, -28.72, -15.40, -22.17, -29.64, -20.34, -30.31, -19.11, -27.36, -25.77, -21.12, -25.41, -27.20, 0.000, 0.000, 0.000, 16:49:20.251
182, -22.73, -35.96, -20.65, -18.93, -28.72, -15.40, -22.17, -29.64, -20.56, -30.17, -19.20, -27.18, -25.84, -20.81, -25.44, -27.07, 0.000, 0.000, 0.000, 16:49:20.251
183, -22.98, -36.03, -20.36, -18.89, -28.90, -15.36, -21.99, -29.46, -20.56, -30.17, -19.20, -27.18, -25.84, -20.81, -25.44, -27.07, 0.000, 0.000, 0.000, 16:49:20.251
184, -22.98, -36.03, -20.36, -18.89, -28.90, -15.36, -21.99, -29.46, -20.47, -30.29, -19.22, -27.45, -25.73, -20.85, -25.39, -27.14, 0.000, 0.000, 0.000, 16:49:20.252
185, -22.80, -36.03, -20.34, -19.04, -28.99, -15.33, -21.90, -29.39, -20.47, -30.29, -19.22, -27.45, -25.73, -20.85, -25.39, -27.14, 0.000, 0.000, 0.000, 16:49:20.252
186, -22.80, -36.03, -20.34, -19.04, -28.99, -15.33, -21.90, -29.39, -20.56, -30.00, -19.09, -27.38, -25.88, -21.41, -25.37, -27.25, -0.018, 0.946, 0.020, 16:49:20.252
187, -22.71, -36.10, -20.50, -18.84, -29.08, -15.24, -22.04, -29.59, -20.56, -30.00, -19.09, -27.38, -25.88, -21.41, -25.37, -27.25, 0.000, 0.000, 0.000, 16:49:20.252
188, -22.71, -36.10, -20.50, -18.84, -29.08, -15.24, -22.04, -29.59, -20.47, -30.35, -18.91, -27.16, -25.70, -21.21, -25.53, -27.00, 0.000, 0.000, 0.000, 16:49:20.253
189, -22.78, -36.30, -20.45, -18.80, -29.06, -15.67, -22.06, -29.50, -20.47, -30.35, -18.91, -27.16, -25.70, -21.21, -25.53, -27.00, 0.000, 0.000, 0.000, 16:49:20.253
190, -22.78, -36.30, -20.45, -18.80, -29.06, -15.67, -22.06, -29.50, -20.56, -30.11, -19.16, -27.14, -25.68, -21.08, -25.17, -27.18, 0.000, 0.000, 0.000, 16:49:20.253
191, -22.89, -36.03, -20.36, -19.13, -29.01, -15.42, -22.08, -29.39, -20.56, -30.11, -19.16, -27.14, -25.68, -21.08, -25.17, -27.18, 0.000, 0.000, 0.000, 16:49:20.254
192, -22.89, -36.03, -20.36, -19.13, -29.01, -15.42, -22.08, -29.39, -20.52, -30.15, -19.22, -27.47, -25.86, -21.08, -25.17, -27.20, 0.000, 0.000, 0.000, 16:49:20.254
193, -22.87, -36.12, -20.41, -18.95, -29.03, -15.56, -22.08, -29.55, -20.52, -30.15, -19.22, -27.47, -25.86, -21.08, -25.17, -27.20, 0.000, 0.000, 0.000, 16:49:20.254
194, -22.87, -36.12, -20.41, -18.95, -29.03, -15.56, -22.08, -29.55, -20.61, -30.22, -19.22, -27.29, -25.66, -21.30, -25.21, -27.20, 0.000, 0.000, 0.000, 16:49:20.254
195, -22.78, -36.17, -20.38, -18.98, -28.92, -15.47, -22.06, -29.66, -20.61, -30.22, -19.22, -27.29, -25.66, -21.30, -25.21, -27.20, -0.022, 0.944, 0.014, 16:49:20.255
196, -22.78, -36.17, -20.38, -18.98, -28.92, -15.47, -22.06, -29.66, -20.56, -30.44, -18.91, -27.38, -25.66, -21.12, -25.41, -27.05, 0.000, 0.000, 0.000, 16:49:20.255
197, -22.69, -36.03, -20.65, -19.09, -29.01, -15.45, -21.86, -29.44, -20.56, -30.44, -18.91, -27.38, -25.66, -21.12, -25.41, -27.05, 0.000, 0.000, 0.000, 16:49:20.256
198, -22.69, -36.03, -20.65, -19.09, -29.01, -15.45, -21.86, -29.44, -20.38, -30.22, -19.13, -27.27, -25.77, -21.21, -25.44, -27.25, 0.000, 0.000, 0.000, 16:49:20.256
199, -22.64, -36.05, -20.68, -19.07, -28.63, -15.47, -21.75, -29.57, -20.38, -30.22, -19.13, -27.27, -25.77, -21.21, -25.44, -27.25, 0.000, 0.000, 0.000, 16:49:20.256
200, -22.64, -36.05, -20.68, -19.07, -28.63, -15.47, -21.75, -29.57, -20.43, -30.20, -19.27, -27.22, -25.73, -21.06, -25.66, -27.18, 0.000, 0.000, 0.000, 16:49:20.257
201, -22.71, -35.96, -20.47, -18.95, -28.90, -15.53, -22.20, -29.77, -20.43, -30.20, -19.27, -27.22, -25.73, -21.06, -25.66, -27.18, 0.000, 0.000, 0.000, 16:49:20.257
202, -22.71, -35.96, -20.47, -18.95, -28.90, -15.53, -22.20, -29.77, -20.50, -30.22, -19.33, -27.29, -25.70, -21.12, -25.59, -27.14, 0.000, 0.000, 0.000, 16:49:20.258
203, -22.91, -36.32, -20.68, -19.20, -28.88, -15.33, -22.06, -29.71, -20.50, -30.22, -19.33, -27.29, -25.70, -21.12, -25.59, -27.14, 0.000, 0.000, 0.000, 16:49:20.258
204, -22.91, -36.32, -20.68, -19.20, -28.88, -15.33, -22.06, -29.71, -20.43, -30.31, -19.13, -27.18, -25.66, -21.35, -25.37, -27.27, 0.000, 0.000, 0.000, 16:49:20.258
205, -22.91, -36.19, -20.32, -19.13, -28.90, -15.36, -22.06, -29.66, -20.43, -30.31, -19.13, -27.18, -25.66, -21.35, -25.37, -27.27, -0.022, 0.946, 0.018, 16:49:20.259
206, -22.91, -36.19, -20.32, -19.13, -28.90, -15.36, -22.06, -29.66, -20.61, -30.22, -18.93, -27.25, -25.70, -21.08, -25.41, -27.22, 0.000, 0.000, 0.000, 16:49:20.259
207, -22.73, -36.21, -20.23, -19.07, -28.92, -15.36, -21.88, -29.66, -20.61, -30.22, -18.93, -27.25, -25.70, -21.08, -25.41, -27.22, 0.000, 0.000, 0.000, 16:49:20.259
208, -22.73, -36.21, -20.23, -19.07, -28.92, -15.36, -21.88, -29.66, -20.36, -30.15, -19.24, -27.36, -25.77, -21.23, -25.39, -27.02, 0.000, 0.000, 0.000, 16:49:20.259
209, -22.69, -36.12, -20.47, -19.04, -28.74, -15.51, -22.15, -29.50, -20.36, -30.15, -19.24, -27.36, -25.77, -21.23, -25.39, -27.02, 0.000, 0.000, 0.000, 16:49:20.259
210, -22.69, -36.12, -20.47, -19.04, -28.74, -15.51, -22.15, -29.50, -20.54, -30.38, -18.93, -27.07, -25.84, -20.97, -25.37, -27.07, 0.000, 0.000, 0.000, 16:49:20.260
211, -22.66, -35.99, -20.47, -18.69, -28.92, -15.60, -22.17, -29.59, -20.54, -30.38, -18.93, -27.07, -25.84, -20.97, -25.37, -27.07, 0.000, 0.000, 0.000, 16:49:20.260
212, -22.66, -35.99, -20.47, -18.69, -28.92, -15.60, -22.17, -29.59, -20.65, -30.20, -19.04, -27.22, -25.64, -21.01, -25.46, -27.11, 0.000, 0.000, 0.000, 16:49:20.260
213, -22.69, -35.99, -20.36, -18.69, -28.92, -15.40, -22.15, -29.73, -20.65, -30.20, -19.04, -27.22, -25.64, -21.01, -25.46, -27.11, 0.000, 0.000, 0.000, 16:49:20.260
214, -22.69, -35.99, -20.36, -18.69, -28.92, -15.40, -22.15, -29.73, -20.61, -30.51, -19.22, -27.36, -25.50, -21.06, -25.46, -27.14, 0.000, 0.000, 0.000, 16:49:20.260
215, -22.80, -36.12, -20.61, -18.86, -29.01, -15.58, -22.04, -29.50, -20.61, -30.51, -19.22, -27.36, -25.50, -21.06, -25.46, -27.14, -0.028, 0.946, 0.022, 16:49:20.260
216, -22.80, -36.12, -20.61, -18.86, -29.01, -15.58, -22.04, -29.50, -20.32, -30.47, -19.13, -27.31, -25.39, -21.14, -25.26, -27.00, 0.000, 0.000, 0.000, 16:49:20.260
217, -22.69, -36.25, -20.45, -19.04, -28.99, -15.49, -22.02, -29.39, -20.32, -30.47, -19.13, -27.31, -25.39, -21.14, -25.26, -27.00, 0.000, 0.000, 0.000, 16:49:20.261
218, -22.69, -36.25, -20.45, -19.04, -28.99, -15.49, -22.02, -29.39, -20.25, -30.26, -19.20, -27.25, -25.79, -21.08, -25.24, -27.14, 0.000, 0.000, 0.000, 16:49:20.261
219, -22.93, -36.01, -20.52, -18.86, -28.90, -15.58, -22.13, -29.64, -20.25, -30.26, -19.20, -27.25, -25.79, -21.08, -25.24, -27.14, 0.000, 0.000, 0.000, 16:49:20.261
220, -22.93, -36.01, -20.52, -18.86, -28.90, -15.58, -22.13, -29.64, -20.59, -30.31, -19.09, -27.16, -25.55, -20.88, -25.55, -27.00, 0.000, 0.000, 0.000, 16:49:20.261
221, -22.93, -36.28, -20.54, -18.82, -29.08, -15.51, -22.37, -29.59, -20.59, -30.31, -19.09, -27.16, -25.55, -20.88, -25.55, -27.00, 0.000, 0.000, 0.000, 16:49:20.262
222, -22.93, -36.28, -20.54, -18.82, -29.08, -15.51, -22.37, -29.59, -20.63, -30.35, -19.18, -27.20, -25.70, -21.03, -25.44, -27.07, 0.000, 0.000, 0.000, 16:49:20.262
223, -22.69, -36.03, -20.56, -19.11, -28.97, -15.65, -22.31, -29.57, -20.63, -30.35, -19.18, -27.20, -25.70, -21.03, -25.44, -27.07, 0.000, 0.000, 0.000, 16:49:20.262
224, -22.69, -36.03, -20.56, -19.11, -28.97, -15.65, -22.31, -29.57, -20.45, -30.17, -19.07, -27.25, -25.48, -21.12, -25.26, -27.18, 0.000, 0.000, 0.000, 16:49:20.262
225, -22.64, -36.12, -20.61, -19.04, -29.21, -15.67, -22.08, -29.64, -20.45, -30.17, -19.07, -27.25, -25.48, -21.12, -25.26, -27.18, -0.032, 0.948, 0.018, 16:49:20.263
226, -22.64, -36.12, -20.61, -19.04, -29.21, -15.67, -22.08, -29.64, -20.52, -30.24, -19.24, -27.34, -25.55, -21.12, -25.39, -27.11, 0.000, 0.000, 0.000, 16:49:20.263
227, -22.58, -36.30, -20.23, -18.95, -28.95, -15.51, -21.82, -29.62, -20.52, -30.24, -19.24, -27.34, -25.55, -21.12, -25.39, -27.11, 0.000, 0.000, 0.000, 16:49:20.263
228, -22.58, -36.30, -20.23, -18.95, -28.95, -15.51, -21.82, -29.62, -20.56, -30.17, -19.11, -27.36, -25.55, -20.94, -25.39, -27.20, 0.000, 0.000, 0.000, 16:49:20.263
229, -22.66, -36.46, -20.47, -18.98, -28.77, -15.62, -21.79, -29.66, -20.56, -30.17, -19.11, -27.36, -25.55, -20.94, -25.39, -27.20, 0.000, 0.000, 0.000, 16:49:20.264
230, -22.66, -36.46, -20.47, -18.98, -28.77, -15.62, -21.79, -29.66, -20.59, -30.33, -19.18, -27.40, -25.59, -21.01, -25.50, -27.25, 0.000, 0.000, 0.000, 16:49:20.264
231, -22.58, -36.41, -20.38, -18.95, -28.88, -15.45, -22.17, -29.66, -20.59, -30.33, -19.18, -27.40, -25.59, -21.01, -25.50, -27.25, 0.000, 0.000, 0.000, 16:49:20.264
232, -22.58, -36.41, -20.38, -18.95, -28.88, -15.45, -22.17, -29.66, -20.52, -30.15, -19.18, -27.16, -25.73, -20.99, -25.46, -27.31, 0.000, 0.000, 0.000, 16:49:20.264
233, -22.84, -36.23, -20.47, -18.91, -29.01, -15.53, -22.13, -29.46, -20.52, -30.15, -19.18, -27.16, -25.73, -20.99, -25.46, -27.31, 0.000, 0.000, 0.000, 16:49:20.265
234, -22.84, -36.23, -20.47, -18.91, -29.01, -15.53, -22.13, -29.46, -20.54, -30.38, -19.02, -27.38, -25.88, -21.14, -25.32, -27.45, 0.000, 0.000, 0.000, 16:49:20.265
235, -22.78, -36.10, -20.43, -19.00, -28.81, -15.49, -22.06, -29.50, -20.54, -30.38, -19.02, -27.38, -25.88, -21.14, -25.32, -27.45, -0.030, 0.954, 0.018, 16:49:20.265
236, -22.78, -36.10, -20.43, -19.00, -28.81, -15.49, -22.06, -29.50, -20.45, -30.26, -19.20, -27.27, -25.53, -20.99, -25.28, -27.38, 0.000, 0.000, 0.000, 16:49:20.266
237, -22.55, -36.05, -20.32, -19.13, -28.92, -15.56, -21.88, -29.55, -20.45, -30.26, -19.20, -27.27, -25.53, -20.99, -25.28, -27.38, 0.000, 0.000, 0.000, 16:49:20.266
238, -22.55, -36.05, -20.32, -19.13, -28.92, -15.56, -21.88, -29.55, -20.59, -30.40, -19.13, -27.22, -25.82, -20.90, -25.44, -27.14, 0.000, 0.000, 0.000, 16:49:20.266
239, -22.78, -36.17, -20.56, -18.93, -28.95, -15.53, -22.04, -29.59, -20.59, -30.40, -19.13, -27.22, -25.82, -20.90, -25.44, -27.14, 0.000, 0.000, 0.000, 16:49:20.266
240, -22.78, -36.17, -20.56, -18.93, -28.95, -15.53, -22.04, -29.59, -20.61, -30.26, -19.00, -27.45, -25.82, -21.19, -25.35, -27.05, 0.000, 0.000, 0.000, 16:49:20.267
241, -22.55, -36.19, -20.56, -19.02, -28.88, -15.74, -21.97, -29.66, -20.61, -30.26, -19.00, -27.45, -25.82, -21.19, -25.35, -27.05, 0.000, 0.000, 0.000, 16:49:20.718
242, -22.55, -36.19, -20.56, -19.02, -28.88, -15.74, -21.97, -29.66, -20.59, -30.26, -19.04, -27.47, -25.77, -21.21, -25.46, -27.02, 0.000, 0.000, 0.000, 16:49:20.718
243, -22.71, -36.10, -20.68, -18.86, -28.79, -15.47, -22.08, -29.46, -20.59, -30.26, -19.04, -27.47, -25.77, -21.21, -25.46, -27.02, 0.000, 0.000, 0.000, 16:49:20.718
244, -22.71, -36.10, -20.68, -18.86, -28.79, -15.47, -22.08, -29.46, -20.68, -30.42, -19.04, -27.11, -25.77, -21.03, -25.50, -27.16, 0.000, 0.000, 0.000, 16:49:20.719
245, -22.69, -36.21, -20.54, -19.13, -28.88, -15.56, -22.08, -29.79, -20.68, -30.42, -19.04, -27.11, -25.77, -21.03, -25.50, -27.16, -0.026, 0.954, 0.016, 16:49:20.719
246, -22.69, -36.21, -20.54, -19.13, -28.88, -15.56, -22.08, -29.79, -20.41, -30.31, -19.33, -27.25, -25.77, -21.03, -25.44, -27.22, 0.000, 0.000, 0.000, 16:49:20.719
247, -22.75, -36.21, -20.41, -18.91, -28.90, -15.42, -22.08, -29.82, -20.41, -30.31, -19.33, -27.25, -25.77, -21.03, -25.44, -27.22, 0.000, 0.000, 0.000, 16:49:20.720
248, -22.75, -36.21, -20.41, -18.91, -28.90, -15.42, -22.08, -29.82, -20.36, -30.22, -19.24, -27.20, -25.59, -20.83, -25.28, -27.07, 0.000, 0.000, 0.000, 16:49:20.720
249, -23.00, -36.21, -20.63, -19.00, -28.99, -15.29, -22.15, -29.71, -20.36, -30.22, -19.24, -27.20, -25.59, -20.83, -25.28, -27.07, 0.000, 0.000, 0.000, 16:49:20.720
250, -23.00, -36.21, -20.63, -19.00, -28.99, -15.29, -22.15, -29.71, -20.63, -30.42, -19.31, -27.14, -25.57, -21.14, -25.53, -27.11, 0.000, 0.000, 0.000, 16:49:20.720
251, -22.66, -36.30, -20.47, -18.95, -28.70, -15.69, -22.37, -29.53, -20.63, -30.42, -19.31, -27.14, -25.57, -21.14, -25.53, -27.11, 0.000, 0.000, 0.000, 16:49:20.721
252, -22.66, -36.30, -20.47, -18.95, -28.70, -15.69, -22.37, -29.53, -20.59, -30.35, -19.27, -27.22, -25.64, -21.17, -25.32, -27.16, 0.000, 0.000, 0.000, 16:49:20.721
253, -22.71, -36.19, -20.47, -19.02, -28.92, -15.51, -22.08, -29.75, -20.59, -30.35, -19.27, -27.22, -25.64, -21.17, -25.32, -27.16, 0.000, 0.000, 0.000, 16:49:20.721
254, -22.71, -36.19, -20.47, -19.02, -28.92, -15.51, -22.08, -29.75, -20.41, -30.29, -19.09, -27.25, -25.66, -21.08, -25.44, -27.00, 0.000, 0.000, 0.000, 16:49:20.721
255, -22.78, -36.10, -20.47, -19.00, -28.97, -15.69, -21.93, -29.55, -20.41, -30.29, -19.09, -27.25, -25.66, -21.08, -25.44, -27.00, -0.024, 0.948, 0.020, 16:49:20.721
0, -22.78, -36.10, -20.47, -19.00, -28.97, -15.69, -21.93, -29.55, -20.63, -30.22, -19.13, -27.40, -25.57, -21.12, -25.32, -27.11, 0.000, 0.000, 0.000, 16:49:20.721
1, -22.66, -36.25, -20.25, -18.98, -28.79, -15.53, -22.06, -29.79, -20.63, -30.22, -19.13, -27.40, -25.57, -21.12, -25.32, -27.11, 0.000, 0.000, 0.000, 16:49:20.722
2, -22.66, -36.25, -20.25, -18.98, -28.79, -15.53, -22.06, -29.79, -20.54, -30.24, -19.22, -27.27, -25.59, -21.10, -25.46, -27.25, 0.000, 0.000, 0.000, 16:49:20.722
3, -22.96, -36.43, -20.52, -19.04, -28.68, -15.47, -22.08, -29.59, -20.54, -30.24, -19.22, -27.27, -25.59, -21.10, -25.46, -27.25, 0.000, 0.000, 0.000, 16:49:20.722
4, -22.96, -36.43, -20.52, -19.04, -28.68, -15.47, -22.08, -29.59, -20.63, -30.26, -19.02, -27.22, -25.62, -20.92, -25.30, -27.18, 0.000, 0.000, 0.000, 16:49:20.722
5, -22.62, -36.21, -20.36, -19.07, -28.81, -15.33, -22.06, -29.37, -20.63, -30.26, -19.02, -27.22, -25.62, -20.92, -25.30, -27.18, 0.000, 0.000, 0.000, 16:49:20.723
6, -22.62, -36.21, -20.36, -19.07, -28.81, -15.33, -22.06, -29.37, -20.76, -30.24, -19.02, -27.34, -25.66, -21.10, -25.37, -27.05, 0.000, 0.000, 0.000, 16:49:20.723
7, -22.91, -36.32, -20.41, -18.86, -28.77, -15.56, -22.17, -29.64, -20.76, -30.24, -19.02, -27.34, -25.66, -21.10, -25.37, -27.05, 0.000, 0.000, 0.000, 16:49:20.723
8, -22.91, -36.32, -20.41, -18.86, -28.77, -15.56, -22.17, -29.64, -20.76, -30.24, -19.29, -27.45, -25.64, -21.12, -25.55, -27.27, 0.000, 0.000, 0.000, 16:49:20.723
9, -23.07, -36.14, -20.32, -18.98, -28.97, -15.56, -22.02, -29.71, -20.76, -30.24, -19.29, -27.45, -25.64, -21.12, -25.55, -27.27, -0.024, 0.946, 0.020, 16:49:20.725
10, -23.07, -36.14, -20.32, -18.98, -28.97, -15.56, -22.02, -29.71, -20.74, -30.20, -19.29, -27.18, -25.77, -20.92, -25.53, -27.00, 0.000, 0.000, 0.000, 16:49:20.726
11, -22.84, -36.14, -20.52, -18.98, -28.97, -15.42, -21.93, -29.57, -20.74, -30.20, -19.29, -27.18, -25.77, -20.92, -25.53, -27.00, 0.000, 0.000, 0.000, 16:49:20.726
12, -22.84, -36.14, -20.52, -18.98, -28.97, -15.42, -21.93, -29.57, -20.68, -30.31, -19.02, -27.20, -25.84, -21.08, -25.28, -27.25, 0.000, 0.000, 0.000, 16:49:20.726
13, -22.80, -36.12, -20.47, -19.00, -28.95, -15.29, -22.04, -29.59, -20.68, -30.31, -19.02, -27.20, -25.84, -21.08, -25.28, -27.25, 0.000, 0.000, 0.000, 16:49:20.726
14, -22.80, -36.12, -20.47, -19.00, -28.95, -15.29, -22.04, -29.59, -20.54, -30.31, -19.20, -27.34, -25.97, -21.10, -25.28, -27.27, 0.000, 0.000, 0.000, 16:49:20.726
15, -22.42, -36.10, -20.63, -18.91, -28.83, -15.38, -22.13, -29.50, -20.54, -30.31, -19.20, -27.34, -25.97, -21.10, -25.28, -27.27, 0.000, 0.000, 0.000, 16:49:20.726
16, -22.42, -36.10, -20.63, -18.91, -28.83, -15.38, -22.13, -29.50, -20.59, -30.35, -19.16, -27.20, -25.46, -20.92, -25.39, -27.18, 0.000, 0.000, 0.000, 16:49:20.727
17, -22.58, -36.05, -20.41, -18.84, -28.83, -15.31, -21.95, -29.57, -20.59, -30.35, -19.16, -27.20, -25.46, -20.92, -25.39, -27.18, 0.000, 0.000, 0.000, 16:49:20.727
18, -22.58, -36.05, -20.41, -18.84, -28.83, -15.31, -21.95, -29.57, -20.59, -30.15, -19.16, -27.40, -25.50, -20.99, -25.32, -27.07, 0.000, 0.000, 0.000, 16:49:20.727
19, -22.62, -36.10, -20.70, -18.93, -29.08, -15.27, -21.99, -29.48, -20.59, -30.15, -19.16, -27.40, -25.50, -20.99, -25.32, -27.07, -0.032, 0.944, 0.012, 16:49:20.727
20, -22.62, -36.10, -20.70, -18.93, -29.08, -15.27, -21.99, -29.48, -20.76, -30.47, -19.02, -27.25, -25.68, -21.06, -25.35, -27.11, 0.000, 0.000, 0.000, 16:49:20.727
21, -22.69, -36.10, -20.36, -18.98, -28.88, -15.31, -22.06, -29.66, -20.76, -30.47, -19.02, -27.25, -25.68, -21.06, -25.35, -27.11, 0.000, 0.000, 0.000, 16:49:20.727
22, -22.69, -36.10, -20.36, -18.98, -28.88, -15.31, -22.06, -29.66, -20.61, -30.26, -19.22, -27.22, -25.64, -20.99, -25.24, -27.09, 0.000, 0.000, 0.000, 16:49:20.727
23, -22.73, -36.17, -20.30, -18.98, -28.72, -15.47, -22.26, -29.55, -20.61, -30.26, -19.22, -27.22, -25.64, -20.99, -25.24, -27.09, 0.000, 0.000, 0.000, 16:49:20.728
24, -22.73, -36.17, -20.30, -18.98, -28.72, -15.47, -22.26, -29.55, -20.41, -30.15, -19.38, -27.22, -25.48, -21.12, -25.35, -27.02, 0.000, 0.000, 0.000, 16:49:20.728
25, -22.75, -35.92, -20.30, -18.86, -28.90, -15.36, -22.02, -29.53, -20.41, -30.15, -19.38, -27.22, -25.48, -21.12, -25.35, -27.02, 0.000, 0.000, 0.000, 16:49:20.728
26, -22.75, -35.92, -20.30, -18.86, -28.90, -15.36, -22.02, -29.53, -20.52, -30.22, -19.22, -27.34, -25.68, -21.12, -25.32, -27.27, 0.000, 0.000, 0.000, 16:49:20.728
27, -22.55, -36.03, -20.54, -18.98, -28.97, -15.38, -22.04, -29.71, -20.52, -30.22, -19.22, -27.34, -25.68, -21.12, -25.32, -27.27, 0.000, 0.000, 0.000, 16:49:20.728
28, -22.55, -36.03, -20.54, -18.98, -28.97, -15.38, -22.04, -29.71, -20.61, -30.33, -19.18, -27.31, -25.79, -21.03, -25.32, -27.20, 0.000, 0.000, 0.000, 16:49:20.728
29, -22.71, -36.05, -20.36, -19.07, -28.81, -15.33, -22.11, -29.50, -20.61, -30.33, -19.18, -27.31, -25.79, -21.03, -25.32, -27.20, -0.032, 0.948, 0.008, 16:49:20.729
30, -22.71, -36.05, -20.36, -19.07, -28.81, -15.33, -22.11, -29.50, -20.52, -30.33, -19.09, -27.14, -25.77, -21.10, -25.21, -26.93, 0.000, 0.000, 0.000, 16:49:20.729
31, -22.51, -36.08, -20.45, -18.91, -28.97, -15.56, -22.17, -29.68, -20.52, -30.33, -19.09, -27.14, -25.77, -21.10, -25.21, -26.93, 0.000, 0.000, 0.000, 16:49:20.729
32, -22.51, -36.08, -20.45, -18.91, -28.97, -15.56, -22.17, -29.68, -20.50, -30.35, -19.16, -27.34, -25.82, -21.14, -25.10, -27.05, 0.000, 0.000, 0.000, 16:49:20.729
33, -22.73, -36.21, -20.47, -18.91, -28.92, -15.67, -22.17, -29.48, -20.50, -30.35, -19.16, -27.34, -25.82, -21.14, -25.10, -27.05, 0.000, 0.000, 0.000, 16:49:20.730
34, -22.73, -36.21, -20.47, -18.91, -28.92, -15.67, -22.17, -29.48, -20.47, -30.31, -19.07, -27.34, -25.77, -21.03, -25.28, -26.96, 0.000, 0.000, 0.000, 16:49:20.730
35, -22.82, -36.21, -20.52, -18.93, -28.83, -15.58, -21.93, -29.44, -20.47, -30.31, -19.07, -27.34, -25.77, -21.03, -25.28, -26.96, 0.000, 0.000, 0.000, 16:49:20.730
36, -22.82, -36.21, -20.52, -18.93, -28.83, -15.58, -21.93, -29.44, -20.45, -30.15, -19.02, -27.29, -25.57, -21.17, -25.30, -27.16, 0.000, 0.000, 0.000, 16:49:20.730
37, -22.75, -36.37, -20.65, -18.98, -28.95, -15.33, -22.06, -29.39, -20.45, -30.15, -19.02, -27.29, -25.57, -21.17, -25.30, -27.16, 0.000, 0.000, 0.000, 16:49:20.730
38, -22.75, -36.37, -20.65, -18.98, -28.95, -15.33, -22.06, -29.39, -20.61, -30.31, -19.13, -27.07, -25.62, -21.06, -25.32, -27.22, -0.030, 0.948, 0.012, 16:49:20.731
39, -22.91, -36.14, -20.61, -18.93, -29.15, -15.22, -22.06, -29.53, -20.61, -30.31, -19.13, -27.07, -25.62, -21.06, -25.32, -27.22, 0.000, 0.000, 0.000, 16:49:20.731
40, -22.91, -36.14, -20.61, -18.93, -29.15, -15.22, -22.06, -29.53, -20.52, -30.24, -19.04, -27.36, -25.86, -21.01, -25.41, -27.25, 0.000, 0.000, 0.000, 16:49:20.731
41, -22.82, -36.23, -20.47, -18.84, -28.83, -15.40, -22.02, -29.50, -20.52, -30.24, -19.04, -27.36, -25.86, -21.01, -25.41, -27.25, 0.000, 0.000, 0.000, 16:49:20.732
42, -22.82, -36.23, -20.47, -18.84, -28.83, -15.40, -22.02, -29.50, -20.74, -30.29, -18.91, -27.34, -25.68, -21.21, -25.44, -27.29, 0.000, 0.000, 0.000, 16:49:20.732
43, -23.04, -35.99, -20.61, -18.71, -28.86, -15.29, -22.13, -29.77, -20.74, -30.29, -18.91, -27.34, -25.68, -21.21, -25.44, -27.29, 0.000, 0.000, 0.000, 16:49:20.732
44, -23.04, -35.99, -20.61, -18.71, -28.86, -15.29, -22.13, -29.77, -20.59, -30.26, -19.33, -27.11, -25.82, -21.12, -25.32, -27.11, 0.000, 0.000, 0.000, 16:49:20.733
45, -22.91, -36.14, -20.43, -19.13, -28.97, -15.40, -21.97, -29.68, -20.59, -30.26, -19.33, -27.11, -25.82, -21.12, -25.32, -27.11, 0.000, 0.000, 0.000, 16:49:20.733
46, -22.91, -36.14, -20.43, -19.13, -28.97, -15.40, -21.97, -29.68, -20.43, -30.20, -19.13, -27.31, -25.70, -21.06, -25.35, -27.11, 0.000, 0.000, 0.000, 16:49:20.733
47, -23.04, -36.30, -20.63, -18.89, -28.90, -15.60, -22.17, -29.57, -20.43, -30.20, -19.13, -27.31, -25.70, -21.06, -25.35, -27.11, 0.000, 0.000, 0.000, 16:49:20.733
48, -23.04, -36.30, -20.63, -18.89, -28.90, -15.60, -22.17, -29.57, -20.70, -30.15, -19.04, -27.47, -25.64, -21.08, -25.30, -27.38, -0.026, 0.944, 0.018, 16:49:20.733
49, -22.73, -36.21, -20.65, -18.91, -28.70, -15.33, -21.97, -29.48, -20.70, -30.15, -19.04, -27.47, -25.64, -21.08, -25.30, -27.38, 0.000, 0.000, 0.000, 16:49:20.734
50, -22.73, -36.21, -20.65, -18.91, -28.70, -15.33, -21.97, -29.48, -20.56, -30.40, -19.07, -27.14, -25.68, -20.88, -25.39, -27.11, 0.000, 0.000, 0.000, 16:49:20.734
51, -22.80, -36.10, -20.63, -18.69, -28.92, -15.62, -22.02, -29.39, -20.56, -30.40, -19.07, -27.14, -25.68, -20.88, -25.39, -27.11, 0.000, 0.000, 0.000, 16:49:20.734
52, -22.80, -36.10, -20.63, -18.69, -28.92, -15.62, -22.02, -29.39, -20.59, -30.58, -19.20, -27.40, -25.66, -21.03, -25.50, -27.00, 0.000, 0.000, 0.000, 16:49:20.734
53, -22.78, -36.12, -20.81, -18.80, -29.08, -15.53, -21.95, -29.35, -20.59, -30.58, -19.20, -27.40, -25.66, -21.03, -25.50, -27.00, 0.000, 0.000, 0.000, 16:49:20.734
54, -22.78, -36.12, -20.81, -18.80, -29.08, -15.53, -21.95, -29.35, -20.38, -30.24, -19.18, -27.40, -25.79, -21.10, -25.53, -27.29, 0.000, 0.000, 0.000, 16:49:20.735
55, -22.69, -36.28, -20.41, -19.13, -28.92, -15.47, -22.02, -29.64, -20.38, -30.24, -19.18, -27.40, -25.79, -21.10, -25.53, -27.29, 0.000, 0.000, 0.000, 16:49:20.735
56, -22.69, -36.28, -20.41, -19.13, -28.92, -15.47, -22.02, -29.64, -20.45, -30.11, -19.16, -27.25, -25.70, -21.19, -25.30, -27.05, 0.000, 0.000, 0.000, 16:49:20.735
57, -22.89, -36.21, -20.43, -18.95, -28.97, -15.40, -22.02, -29.57, -20.45, -30.11, -19.16, -27.25, -25.70, -21.19, -25.30, -27.05, 0.000, 0.000, 0.000, 16:49:20.735
58, -22.89, -36.21, -20.43, -18.95, -28.97, -15.40, -22.02, -29.57, -20.45, -30.17, -19.07, -27.31, -25.73, -21.08, -25.21, -26.93, -0.026, 0.938, 0.020, 16:49:20.735
59, -23.00, -36.23, -20.45, -18.86, -28.63, -15.38, -22.08, -29.62, -20.45, -30.17, -19.07, -27.31, -25.73, -21.08, -25.21, -26.93, 0.000, 0.000, 0.000, 16:49:20.736
60, -23.00, -36.23, -20.45, -18.86, -28.63, -15.38, -22.08, -29.62, -20.36, -30.17, -19.31, -27.31, -25.84, -21.01, -25.28, -27.00, 0.000, 0.000, 0.000, 16:49:20.736
61, -22.91, -36.17, -20.59, -18.82, -28.79, -15.56, -22.31, -29.88, -20.36, -30.17, -19.31, -27.31, -25.84, -21.01, -25.28, -27.00, 0.000, 0.000, 0.000, 16:49:20.736
62, -22.91, -36.17, -20.59, -18.82, -28.79, -15.56, -22.31, -29.88, -20.63, -30.31, -19.09, -27.38, -25.79, -21.08, -25.55, -27.22, 0.000, 0.000, 0.000, 16:49:20.737
63, -22.62, -36.14, -20.63, -18.89, -29.08, -15.56, -22.08, -29.73, -20.63, -30.31, -19.09, -27.38, -25.79, -21.08, -25.55, -27.22, 0.000, 0.000, 0.000, 16:49:20.737
64, -22.62, -36.14, -20.63, -18.89, -29.08, -15.56, -22.08, -29.73, -20.65, -30.15, -19.02, -27.18, -25.75, -20.97, -25.28, -27.20, 0.000, 0.000, 0.000, 16:49:20.737
65, -22.71, -36.34, -20.30, -19.07, -29.01, -15.56, -22.02, -29.77, -20.65, -30.15, -19.02, -27.18, -25.75, -20.97, -25.28, -27.20, 0.000, 0.000, 0.000, 16:49:20.737
66, -22.71, -36.34, -20.30, -19.07, -29.01, -15.56, -22.02, -29.77, -20.59, -30.04, -19.07, -27.31, -25.84, -21.21, -25.50, -27.02, 0.000, 0.000, 0.000, 16:49:20.737
67, -22.87, -35.90, -20.50, -18.91, -28.86, -15.67, -22.11, -29.73, -20.59, -30.04, -19.07, -27.31, -25.84, -21.21, -25.50, -27.02, 0.000, 0.000, 0.000, 16:49:20.737
68, -22.87, -35.90, -20.50, -18.91, -28.86, -15.67, -22.11, -29.73, -20.59, -30.22, -19.13, -27.18, -25.75, -21.17, -25.66, -27.22, -0.030, 0.938, 0.022, 16:49:20.738
69, -22.64, -36.14, -20.45, -19.00, -28.81, -15.31, -22.15, -29.75, -20.59, -30.22, -19.13, -27.18, -25.75, -21.17, -25.66, -27.22, 0.000, 0.000, 0.000, 16:49:20.738
70, -22.64, -36.14, -20.45, -19.00, -28.81, -15.31, -22.15, -29.75, -20.52, -30.17, -19.27, -27.14, -25.48, -21.26, -25.59, -27.31, 0.000, 0.000, 0.000, 16:49:20.738
71, -22.73, -36.01, -20.45, -19.00, -29.01, -15.51, -22.04, -29.62, -20.52, -30.17, -19.27, -27.14, -25.48, -21.26, -25.59, -27.31, 0.000, 0.000, 0.000, 16:49:20.738
72, -22.73, -36.01, -20.45, -19.00, -29.01, -15.51, -22.04, -29.62, -20.63, -30.26, -19.04, -27.25, -25.88, -21.14, -25.35, -27.25, 0.000, 0.000, 0.000, 16:49:20.738
73, -22.80, -36.23, -20.61, -18.86, -28.88, -15.53, -21.95, -29.57, -20.63, -30.26, -19.04, -27.25, -25.88, -21.14, -25.35, -27.25, 0.000, 0.000, 0.000, 16:49:20.738
74, -22.80, -36.23, -20.61, -18.86, -28.88, -15.53, -21.95, -29.57, -20.38, -30.04, -19.20, -27.11, -25.62, -21.10, -25.26, -27.16, 0.000, 0.000, 0.000, 16:49:20.739
75, -22.80, -36.10, -20.63, -18.93, -28.95, -15.31, -22.02, -29.62, -20.38, -30.04, -19.20, -27.11, -25.62, -21.10, -25.26, -27.16, 0.000, 0.000, 0.000, 16:49:20.739
76, -22.80, -36.10, -20.63, -18.93, -28.95, -15.31, -22.02, -29.62, -20.56, -30.13, -19.24, -27.36, -25.77, -21.01, -25.44, -27.18, 0.000, 0.000, 0.000, 16:49:20.739
77, -22.73, -36.08, -20.43, -18.89, -28.83, -15.40, -22.02, -29.68, -20.56, -30.13, -19.24, -27.36, -25.77, -21.01, -25.44, -27.18, 0.000, 0.000, 0.000, 16:49:20.740
78, -22.73, -36.08, -20.43, -18.89, -28.83, -15.40, -22.02, -29.68, -20.72, -30.35, -19.20, -27.45, -25.77, -21.06, -25.44, -27.16, -0.032, 0.940, 0.020, 16:49:20.740
79, -22.75, -36.12, -20.41, -18.95, -28.90, -15.49, -21.99, -29.57, -20.72, -30.35, -19.20, -27.45, -25.77, -21.06, -25.44, -27.16, 0.000, 0.000, 0.000, 16:49:20.740
80, -22.75, -36.12, -20.41, -18.95, -28.90, -15.49, -21.99, -29.57, -20.65, -30.15, -19.13, -27.38, -25.70, -21.12, -25.46, -27.25, 0.000, 0.000, 0.000, 16:49:20.741
81, -22.78, -36.08, -20.54, -18.95, -28.95, -15.38, -22.08, -29.48, -20.65, -30.15, -19.13, -27.38, -25.70, -21.12, -25.46, -27.25, 0.000, 0.000, 0.000, 16:49:20.741
82, -22.78, -36.08, -20.54, -18.95, -28.95, -15.38, -22.08, -29.48, -20.32, -30.04, -18.98, -27.36, -25.70, -21.06, -25.28, -27.31, 0.000, 0.000, 0.000, 16:49:20.742
83, -22.75, -35.90, -20.59, -18.82, -28.92, -15.49, -21.99, -29.50, -20.32, -30.04, -18.98, -27.36, -25.70, -21.06, -25.28, -27.31, 0.000, 0.000, 0.000, 16:49:20.742
84, -22.75, -35.90, -20.59, -18.82, -28.92, -15.49, -21.99, -29.50, -20.43, -30.24, -19.02, -27.31, -25.55, -21.12, -25.48, -27.16, 0.000, 0.000, 0.000, 16:49:20.742
85, -22.73, -36.28, -20.45, -18.82, -28.83, -15.60, -21.95, -29.59, -20.43, -30.24, -19.02, -27.31, -25.55, -21.12, -25.48, -27.16, 0.000, 0.000, 0.000, 16:49:20.742
86, -22.73, -36.28, -20.45, -18.82, -28.83, -15.60, -21.95, -29.59, -20.59, -30.71, -19.16, -27.34, -25.50, -21.03, -25.32, -27.18, 0.000, 0.000, 0.000, 16:49:20.743
87, -22.75, -36.23, -20.50, -18.78, -29.12, -15.36, -21.70, -29.55, -20.59, -30.71, -19.16, -27.34, -25.50, -21.03, -25.32, -27.18, 0.000, 0.000, 0.000, 16:49:20.743
88, -22.75, -36.23, -20.50, -18.78, -29.12, -15.36, -21.70, -29.55, -20.41, -30.24, -19.18, -27.22, -25.55, -20.90, -25.28, -27.05, -0.032, 0.938, 0.018, 16:49:20.743
89, -22.84, -36.28, -20.47, -19.11, -28.92, -15.51, -21.97, -29.77, -20.41, -30.24, -19.18, -27.22, -25.55, -20.90, -25.28, -27.05, 0.000, 0.000, 0.000, 16:49:20.744
90, -22.84, -36.28, -20.47, -19.11, -28.92, -15.51, -21.97, -29.77, -20.47, -30.29, -19.04, -27.22, -25.57, -20.85, -25.32, -27.05, 0.000, 0.000, 0.000, 16:49:20.744
91, -22.73, -36.03, -20.45, -19.00, -28.86, -15.56, -22.22, -29.53, -20.47, -30.29, -19.04, -27.22, -25.57, -20.85, -25.32, -27.05, 0.000, 0.000, 0.000, 16:49:20.744
92, -22.73, -36.03, -20.45, -19.00, -28.86, -15.56, -22.22, -29.53, -20.47, -30.42, -19.04, -27.38, -25.66, -20.97, -25.37, -26.98, 0.000, 0.000, 0.000, 16:49:20.744
93, -22.66, -36.14, -20.59, -18.84, -28.68, -15.40, -21.75, -29.84, -20.47, -30.42, -19.04, -27.38, -25.66, -20.97, -25.37, -26.98, 0.000, 0.000, 0.000, 16:49:20.745
94, -22.66, -36.14, -20.59, -18.84, -28.68, -15.40, -21.75, -29.84, -20.76, -30.38, -19.22, -27.45, -25.73, -21.12, -25.24, -27.11, 0.000, 0.000, 0.000, 16:49:20.745
95, -22.62, -35.92, -20.41, -19.00, -28.88, -15.62, -21.88, -29.50, -20.76, -30.38, -19.22, -27.45, -25.73, -21.12, -25.24, -27.11, 0.000, 0.000, 0.000, 16:49:20.745
96, -22.62, -35.92, -20.41, -19.00, -28.88, -15.62, -21.88, -29.50, -20.76, -30.26, -19.31, -27.31, -25.93, -21.10, -25.12, -27.14, 0.000, 0.000, 0.000, 16:49:20.745
97, -22.69, -36.14, -20.43, -19.22, -29.10, -15.56, -21.99, -29.39, -20.76, -30.26, -19.31, -27.31, -25.93, -21.10, -25.12, -27.14, 0.000, 0.000, 0.000, 16:49:20.746
98, -22.69, -36.14, -20.43, -19.22, -29.10, -15.56, -21.99, -29.39, -20.59, -30.26, -19.16, -27.31, -26.06, -21.08, -25.26, -26.96, -0.028, 0.948, 0.014, 16:49:20.746
99, -22.84, -36.08, -20.54, -18.86, -28.79, -15.36, -22.28, -29.66, -20.59, -30.26, -19.16, -27.31, -26.06, -21.08, -25.26, -26.96, 0.000, 0.000, 0.000, 16:49:20.747
100, -22.84, -36.08, -20.54, -18.86, -28.79, -15.36, -22.28, -29.66, -20.50, -30.17, -19.24, -27.45, -25.86, -21.26, -25.30, -26.89, 0.000, 0.000, 0.000, 16:49:20.747
101, -22.82, -36.21, -20.41, -18.93, -28.81, -15.53, -21.97, -29.59, -20.50, -30.17, -19.24, -27.45, -25.86, -21.26, -25.30, -26.89, 0.000, 0.000, 0.000, 16:49:20.747
102, -22.82, -36.21, -20.41, -18.93, -28.81, -15.53, -21.97, -29.59, -20.56, -30.20, -19.18, -27.40, -25.57, -21.01, -25.30, -27.43, 0.000, 0.000, 0.000, 16:49:20.748
103, -23.00, -36.05, -20.41, -19.07, -28.88, -15.42, -22.11, -29.82, -20.56, -30.20, -19.18, -27.40, -25.57, -21.01, -25.30, -27.43, 0.000, 0.000, 0.000, 16:49:20.748
104, -23.00, -36.05, -20.41, -19.07, -28.88, -15.42, -22.11, -29.82, -20.30, -29.88, -19.07, -27.25, -25.77, -21.17, -25.53, -27.20, 0.000, 0.000, 0.000, 16:49:20.749
105, -22.71, -36.08, -20.47, -19.04, -29.01, -15.42, -21.99, -29.79, -20.30, -29.88, -19.07, -27.25, -25.77, -21.17, -25.53, -27.20, 0.000, 0.000, 0.000, 16:49:21.200
106, -22.71, -36.08, -20.47, -19.04, -29.01, -15.42, -21.99, -29.79, -20.56, -30.40, -19.18, -27.56, -25.66, -21.26, -25.50, -27.27, 0.000, 0.000, 0.000, 16:49:21.200
107, -22.80, -36.28, -20.52, -19.04, -28.92, -15.40, -21.97, -29.55, -20.56, -30.40, -19.18, -27.56, -25.66, -21.26, -25.50, -27.27, 0.000, 0.000, 0.000, 16:49:21.201
108, -22.80, -36.28, -20.52, -19.04, -28.92, -15.40, -21.97, -29.55, -20.45, -30.42, -19.22, -27.47, -25.77, -21.03, -25.59, -27.20, -0.026, 0.944, 0.016, 16:49:21.201
109, -22.78, -36.12, -20.50, -18.91, -29.10, -15.29, -21.86, -29.48, -20.45, -30.42, -19.22, -27.47, -25.77, -21.03, -25.59, -27.20, 0.000, 0.000, 0.000, 16:49:21.201
110, -22.78, -36.12, -20.50, -18.91, -29.10, -15.29, -21.86, -29.48, -20.56, -30.33, -19.13, -27.16, -25.75, -21.03, -25.39, -27.14, 0.000, 0.000, 0.000, 16:49:21.201
111, -22.69, -36.19, -20.47, -19.07, -28.99, -15.31, -22.22, -29.62, -20.56, -30.33, -19.13, -27.16, -25.75, -21.03, -25.39, -27.14, 0.000, 0.000, 0.000, 16:49:21.202
112, -22.69, -36.19, -20.47, -19.07, -28.99, -15.31, -22.22, -29.62, -20.54, -30.17, -19.07, -27.14, -25.68, -21.12, -25.35, -27.34, 0.000, 0.000, 0.000, 16:49:21.202
113, -22.71, -36.25, -20.76, -18.95, -28.83, -15.31, -22.20, -29.73, -20.54, -30.17, -19.07, -27.14, -25.68, -21.12, -25.35, -27.34, 0.000, 0.000, 0.000, 16:49:21.202
114, -22.71, -36.25, -20.76, -18.95, -28.83, -15.31, -22.20, -29.73, -20.83, -30.11, -18.91, -27.54, -25.73, -21.01, -25.55, -27.31, 0.000, 0.000, 0.000, 16:49:21.202
115, -22.64, -36.17, -20.38, -19.00, -28.92, -15.45, -22.28, -29.79, -20.83, -30.11, -18.91, -27.54, -25.73, -21.01, -25.55, -27.31, 0.000, 0.000, 0.000, 16:49:21.203
116, -22.64, -36.17, -20.38, -19.00, -28.92, -15.45, -22.28, -29.79, -20.61, -30.09, -19.13, -27.36, -25.64, -21.10, -25.37, -27.11, 0.000, 0.000, 0.000, 16:49:21.203
117, -22.73, -36.34, -20.52, -19.00, -28.97, -15.49, -22.08, -29.57, -20.61, -30.09, -19.13, -27.36, -25.64, -21.10, -25.37, -27.11, 0.000, 0.000, 0.000, 16:49:21.203
118, -22.73, -36.34, -20.52, -19.00, -28.97, -15.49, -22.08, -29.57, -20.63, -30.35, -18.95, -27.31, -25.62, -20.99, -25.37, -27.05, -0.026, 0.942, 0.018, 16:49:21.203
119, -22.84, -36.12, -20.61, -19.22, -28.81, -15.51, -21.99, -29.82, -20.63, -30.35, -18.95, -27.31, -25.62, -20.99, -25.37, -27.05, 0.000, 0.000, 0.000, 16:49:21.203
120, -22.84, -36.12, -20.61, -19.22, -28.81, -15.51, -21.99, -29.82, -20.63, -30.38, -19.11, -27.54, -25.88, -21.08, -25.37, -27.00, 0.000, 0.000, 0.000, 16:49:21.203
121, -23.02, -36.12, -20.56, -18.95, -28.95, -15.60, -21.95, -29.68, -20.63, -30.38, -19.11, -27.54, -25.88, -21.08, -25.37, -27.00, 0.000, 0.000, 0.000, 16:49:21.204
122, -23.02, -36.12, -20.56, -18.95, -28.95, -15.60, -21.95, -29.68, -20.56, -30.22, -19.11, -27.25, -25.75, -21.28, -25.46, -27.22, 0.000, 0.000, 0.000, 16:49:21.204
123, -22.82, -36.21, -20.45, -19.02, -28.95, -15.69, -22.08, -29.75, -20.56, -30.22, -19.11, -27.25, -25.75, -21.28, -25.46, -27.22, 0.000, 0.000, 0.000, 16:49:21.204
124, -22.82, -36.21, -20.45, -19.02, -28.95, -15.69, -22.08, -29.75, -20.65, -30.22, -19.29, -27.34, -25.66, -21.03, -25.50, -27.20, 0.000, 0.000, 0.000, 16:49:21.204
125, -22.60, -36.19, -20.43, -18.75, -28.99, -15.42, -22.17, -29.57, -20.65, -30.22, -19.29, -27.34, -25.66, -21.03, -25.50, -27.20, 0.000, 0.000, 0.000, 16:49:21.204
126, -22.60, -36.19, -20.43, -18.75, -28.99, -15.42, -22.17, -29.57, -20.52, -30.20, -19.29, -27.43, -25.73, -21.14, -25.17, -27.00, 0.000, 0.000, 0.000, 16:49:21.205
127, -22.73, -36.08, -20.36, -18.98, -28.79, -15.51, -21.70, -29.46, -20.52, -30.20, -19.29, -27.43, -25.73, -21.14, -25.17, -27.00, 0.000, 0.000, 0.000, 16:49:21.205
128, -22.73, -36.08, -20.36, -18.98, -28.79, -15.51, -21.70, -29.46, -20.61, -30.13, -19.16, -27.34, -25.62, -21.14, -25.55, -27.16, -0.028, 0.944, 0.018, 16:49:21.205
129, -22.69, -36.21, -20.38, -18.84, -29.15, -15.51, -22.08, -29.55, -20.61, -30.13, -19.16, -27.34, -25.62, -21.14, -25.55, -27.16, 0.000, 0.000, 0.000, 16:49:21.205
130, -22.69, -36.21, -20.38, -18.84, -29.15, -15.51, -22.08, -29.55, -20.50, -30.24, -19.09, -27.18, -25.95, -21.23, -25.59, -27.18, 0.000, 0.000, 0.000, 16:49:21.205
131, -22.69, -36.23, -20.47, -18.82, -28.97, -15.51, -22.33, -29.68, -20.50, -30.24, -19.09, -27.18, -25.95, -21.23, -25.59, -27.18, 0.000, 0.000, 0.000, 16:49:21.206
132, -22.69, -36.23, -20.47, -18.82, -28.97, -15.51, -22.33, -29.68, -20.68, -30.22, -19.27, -27.31, -25.73, -21.19, -25.48, -27.05, 0.000, 0.000, 0.000, 16:49:21.206
133, -22.71, -36.37, -20.56, -19.00, -28.79, -15.51, -22.28, -29.73, -20.68, -30.22, -19.27, -27.31, -25.73, -21.19, -25.48, -27.05, 0.000, 0.000, 0.000, 16:49:21.206
134, -22.71, -36.37, -20.56, -19.00, -28.79, -15.51, -22.28, -29.73, -20.56, -30.24, -19.36, -27.43, -25.84, -21.17, -25.44, -27.05, 0.000, 0.000, 0.000, 16:49:21.206
135, -22.66, -36.05, -20.47, -18.98, -28.77, -15.42, -22.13, -29.64, -20.56, -30.24, -19.36, -27.43, -25.84, -21.17, -25.44, -27.05, 0.000, 0.000, 0.000, 16:49:21.206
136, -22.66, -36.05, -20.47, -18.98, -28.77, -15.42, -22.13, -29.64, -20.61, -30.31, -19.13, -27.27, -25.66, -21.06, -25.55, -27.14, 0.000, 0.000, 0.000, 16:49:21.207
137, -22.73, -36.12, -20.50, -18.91, -29.08, -15.22, -22.04, -29.84, -20.61, -30.31, -19.13, -27.27, -25.66, -21.06, -25.55, -27.14, -0.030, 0.944, 0.018, 16:49:21.208
138, -22.73, -36.12, -20.50, -18.91, -29.08, -15.22, -22.04, -29.84, -20.38, -30.26, -19.29, -27.63, -25.88, -21.08, -25.55, -27.25, 0.000, 0.000, 0.000, 16:49:21.208
139, -22.73, -36.21, -20.72, -19.18, -28.88, -15.51, -21.95, -29.53, -20.38, -30.26, -19.29, -27.63, -25.88, -21.08, -25.55, -27.25, 0.000, 0.000, 0.000, 16:49:21.209
140, -22.73, -36.21, -20.72, -19.18, -28.88, -15.51, -21.95, -29.53, -20.45, -30.40, -19.09, -27.36, -25.44, -21.10, -25.35, -27.16, 0.000, 0.000, 0.000, 16:49:21.209
141, -22.82, -36.28, -20.61, -19.11, -28.90, -15.51, -21.86, -29.68, -20.45, -30.40, -19.09, -27.36, -25.44, -21.10, -25.35, -27.16, 0.000, 0.000, 0.000, 16:49:21.209
142, -22.82, -36.28, -20.61, -19.11, -28.90, -15.51, -21.86, -29.68, -20.45, -30.22, -19.09, -27.34, -25.50, -20.92, -25.59, -27.27, 0.000, 0.000, 0.000, 16:49:21.209
143, -22.82, -36.23, -20.34, -18.93, -28.92, -15.56, -22.13, -29.73, -20.45, -30.22, -19.09, -27.34, -25.50, -20.92, -25.59, -27.27, 0.000, 0.000, 0.000, 16:49:21.209
144, -22.82, -36.23, -20.34, -18.93, -28.92, -15.56, -22.13, -29.73, -20.50, -30.15, -18.78, -27.31, -25.50, -21.01, -25.59, -27.22, 0.000, 0.000, 0.000, 16:49:21.209
145, -22.87, -36.25, -20.59, -18.93, -28.83, -15.53, -22.11, -29.62, -20.50, -30.15, -18.78, -27.31, -25.50, -21.01, -25.59, -27.22, 0.000, 0.000, 0.000, 16:49:21.209
146, -22.87, -36.25, -20.59, -18.93, -28.83, -15.53, -22.11, -29.62, -20.47, -30.38, -19.09, -27.20, -25.86, -20.99, -25.46, -27.34, 0.000, 0.000, 0.000, 16:49:21.210
147, -22.73, -36.08, -20.45, -18.93, -28.81, -15.49, -21.86, -29.44, -20.47, -30.38, -19.09, -27.20, -25.86, -20.99, -25.46, -27.34, -0.032, 0.942, 0.020, 16:49:21.210
148, -22.73, -36.08, -20.45, -18.93, -28.81, -15.49, -21.86, -29.44, -20.54, -30.31, -19.04, -27.36, -25.84, -20.99, -25.48, -27.00, 0.000, 0.000, 0.000, 16:49:21.210
149, -22.73, -36.17, -20.47, -18.78, -29.01, -15.40, -22.06, -29.57, -20.54, -30.31, -19.04, -27.36, -25.84, -20.99, -25.48, -27.00, 0.000, 0.000, 0.000, 16:49:21.210
150, -22.73, -36.17, -20.47, -18.78, -29.01, -15.40, -22.06, -29.57, -20.50, -30.40, -19.24, -27.25, -25.70, -21.03, -25.39, -27.40, 0.000, 0.000, 0.000, 16:49:21.210
151, -22.75, -36.10, -20.68, -18.66, -29.01, -15.38, -22.17, -29.66, -20.50, -30.40, -19.24, -27.25, -25.70, -21.03, -25.39, -27.40, 0.000, 0.000, 0.000, 16:49:21.210
152, -22.75, -36.10, -20.68, -18.66, -29.01, -15.38, -22.17, -29.66, -20.50, -30.20, -19.13, -27.43, -25.82, -20.92, -25.46, -27.45, 0.000, 0.000, 0.000, 16:49:21.211
153, -22.84, -36.05, -20.56, -19.00, -29.12, -15.31, -21.79, -29.71, -20.50, -30.20, -19.13, -27.43, -25.82, -20.92, -25.46, -27.45, 0.000, 0.000, 0.000, 16:49:21.211
154, -22.84, -36.05, -20.56, -19.00, -29.12, -15.31, -21.79, -29.71, -20.32, -30.33, -19.20, -27.22, -25.70, -21.12, -25.32, -27.29, 0.000, 0.000, 0.000, 16:49:21.211
155, -22.89, -35.96, -20.30, -19.07, -28.81, -15.62, -22.02, -29.44, -20.32, -30.33, -19.20, -27.22, -25.70, -21.12, -25.32, -27.29, 0.000, 0.000, 0.000, 16:49:21.211
156, -22.89, -35.96, -20.30, -19.07, -28.81, -15.62, -22.02, -29.44, -20.38, -30.33, -19.04, -27.36, -25.77, -21.01, -25.41, -27.27, 0.000, 0.000, 0.000, 16:49:21.211
157, -22.78, -36.28, -20.36, -18.91, -28.74, -15.47, -22.08, -29.48, -20.38, -30.33, -19.04, -27.36, -25.77, -21.01, -25.41, -27.27, -0.034, 0.940, 0.022, 16:49:21.211
158, -22.78, -36.28, -20.36, -18.91, -28.74, -15.47, -22.08, -29.48, -20.61, -30.26, -19.07, -27.31, -25.88, -21.14, -25.39, -27.38, 0.000, 0.000, 0.000, 16:49:21.212
159, -22.60, -35.96, -20.45, -18.91, -29.01, -15.53, -21.88, -29.79, -20.61, -30.26, -19.07, -27.31, -25.88, -21.14, -25.39, -27.38, 0.000, 0.000, 0.000, 16:49:21.212
160, -22.60, -35.96, -20.45, -18.91, -29.01, -15.53, -21.88, -29.79, -20.43, -30.44, -19.18, -27.40, -25.79, -21.12, -25.39, -27.31, 0.000, 0.000, 0.000, 16:49:21.213
161, -22.75, -35.85, -20.50, -18.95, -29.06, -15.49, -22.02, -29.57, -20.43, -30.44, -19.18, -27.40, -25.79, -21.12, -25.39, -27.31, 0.000, 0.000, 0.000, 16:49:21.213
162, -22.75, -35.85, -20.50, -18.95, -29.06, -15.49, -22.02, -29.57, -20.50, -30.24, -19.09, -27.18, -25.75, -20.90, -25.50, -27.29, 0.000, 0.000, 0.000, 16:49:21.213
163, -22.82, -35.99, -20.54, -18.82, -28.86, -15.62, -22.06, -29.46, -20.50, -30.24, -19.09, -27.18, -25.75, -20.90, -25.50, -27.29, 0.000, 0.000, 0.000, 16:49:21.213
164, -22.82, -35.99, -20.54, -18.82, -28.86, -15.62, -22.06, -29.46, -20.59, -30.24, -19.29, -27.45, -25.53, -21.14, -25.32, -27.02, 0.000, 0.000, 0.000, 16:49:21.214
165, -22.98, -36.23, -20.45, -18.82, -28.92, -15.62, -21.79, -29.28, -20.59, -30.24, -19.29, -27.45, -25.53, -21.14, -25.32, -27.02, 0.000, 0.000, 0.000, 16:49:21.214
166, -22.98, -36.23, -20.45, -18.82, -28.92, -15.62, -21.79, -29.28, -20.61, -30.09, -19.04, -27.09, -25.57, -21.28, -25.30, -27.05, 0.000, 0.000, 0.000, 16:49:21.214
167, -22.78, -36.08, -20.65, -18.95, -28.99, -15.45, -22.17, -29.46, -20.61, -30.09, -19.04, -27.09, -25.57, -21.28, -25.30, -27.05, -0.030, 0.942, 0.024, 16:49:21.214
168, -22.78, -36.08, -20.65, -18.95, -28.99, -15.45, -22.17, -29.46, -20.65, -30.44, -19.02, -27.18, -25.75, -21.12, -25.41, -27.25, 0.000, 0.000, 0.000, 16:49:21.215
169, -22.93, -36.23, -20.41, -19.00, -28.95, -15.27, -22.15, -29.48, -20.65, -30.44, -19.02, -27.18, -25.75, -21.12, -25.41, -27.25, 0.000, 0.000, 0.000, 16:49:21.215
170, -22.93, -36.23, -20.41, -19.00, -28.95, -15.27, -22.15, -29.48, -20.63, -30.35, -19.04, -27.09, -25.66, -21.08, -25.28, -27.34, 0.000, 0.000, 0.000, 16:49:21.215
171, -22.69, -36.28, -20.14, -18.98, -28.83, -15.36, -22.24, -29.55, -20.63, -30.35, -19.04, -27.09, -25.66, -21.08, -25.28, -27.34, 0.000, 0.000, 0.000, 16:49:21.215
172, -22.69, -36.28, -20.14, -18.98, -28.83, -15.36, -22.24, -29.55, -20.59, -30.40, -19.16, -27.40, -25.70, -21.26, -25.41, -27.09, 0.000, 0.000, 0.000, 16:49:21.216
173, -22.78, -36.05, -20.54, -19.07, -28.97, -15.40, -22.02, -29.71, -20.59, -30.40, -19.16, -27.40, -25.70, -21.26, -25.41, -27.09, 0.000, 0.000, 0.000, 16:49:21.216
174, -22.78, -36.05, -20.54, -19.07, -28.97, -15.40, -22.02, -29.71, -20.79, -30.24, -19.13, -27.29, -25.66, -21.30, -25.32, -27.22, 0.000, 0.000, 0.000, 16:49:21.216
175, -22.73, -36.28, -20.21, -19.07, -28.88, -15.45, -21.99, -29.66, -20.79, -30.24, -19.13, -27.29, -25.66, -21.30, -25.32, -27.22, 0.000, 0.000, 0.000, 16:49:21.216
176, -22.73, -36.28, -20.21, -19.07, -28.88, -15.45, -21.99, -29.66, -20.56, -30.22, -19.02, -27.22, -25.48, -20.94, -25.37, -27.20, 0.000, 0.000, 0.000, 16:49:21.217
177, -22.60, -36.12, -20.56, -19.00, -28.72, -15.27, -21.95, -29.71, -20.56, -30.22, -19.02, -27.22, -25.48, -20.94, -25.37, -27.20, -0.026, 0.948, 0.022, 16:49:21.217
178, -22.60, -36.12, -20.56, -19.00, -28.72, -15.27, -21.95, -29.71, -20.61, -30.26, -19.11, -27.31, -25.55, -21.14, -25.64, -27.05, 0.000, 0.000, 0.000, 16:49:21.217
179, -22.98, -35.96, -20.36, -19.02, -28.95, -15.69, -21.90, -29.57, -20.61, -30.26, -19.11, -27.31, -25.55, -21.14, -25.64, -27.05, 0.000, 0.000, 0.000, 16:49:21.217
180, -22.98, -35.96, -20.36, -19.02, -28.95, -15.69, -21.90, -29.57, -20.41, -30.17, -19.13, -27.22, -25.68, -21.01, -25.30, -27.09, 0.000, 0.000, 0.000, 16:49:21.218
181, -22.84, -36.12, -20.59, -18.98, -28.95, -15.51, -21.97, -29.62, -20.41, -30.17, -19.13, -27.22, -25.68, -21.01, -25.30, -27.09, 0.000, 0.000, 0.000, 16:49:21.218
182, -22.84, -36.12, -20.59, -18.98, -28.95, -15.51, -21.97, -29.62, -20.52, -30.20, -19.13, -27.25, -25.46, -21.01, -25.32, -27.22, 0.000, 0.000, 0.000, 16:49:21.218
183, -22.80, -35.96, -20.50, -19.00, -28.88, -15.56, -22.17, -29.46, -20.52, -30.20, -19.13, -27.25, -25.46, -21.01, -25.32, -27.22, 0.000, 0.000, 0.000, 16:49:21.218
184, -22.80, -35.96, -20.50, -19.00, -28.88, -15.56, -22.17, -29.46, -20.56, -30.13, -19.09, -27.34, -25.59, -20.97, -25.15, -27.16, 0.000, 0.000, 0.000, 16:49:21.219
185, -22.80, -36.14, -20.56, -18.78, -28.72, -15.29, -22.28, -29.46, -20.56, -30.13, -19.09, -27.34, -25.59, -20.97, -25.15, -27.16, 0.000, 0.000, 0.000, 16:49:21.219
186, -22.80, -36.14, -20.56, -18.78, -28.72, -15.29, -22.28, -29.46, -20.56, -30.24, -18.95, -27.34, -25.62, -20.99, -25.44, -27.09, 0.000, 0.000, 0.000, 16:49:21.219
187, -22.80, -36.03, -20.52, -18.82, -28.86, -15.40, -21.75, -29.64, -20.56, -30.24, -18.95, -27.34, -25.62, -20.99, -25.44, -27.09, -0.030, 0.944, 0.024, 16:49:21.220
188, -22.80, -36.03, -20.52, -18.82, -28.86, -15.40, -21.75, -29.64, -20.68, -30.40, -19.13, -27.34, -25.91, -21.03, -25.41, -27.16, 0.000, 0.000, 0.000, 16:49:21.220
189, -22.66, -36.10, -20.59, -18.93, -28.81, -15.40, -21.95, -29.57, -20.68, -30.40, -19.13, -27.34, -25.91, -21.03, -25.41, -27.16, 0.000, 0.000, 0.000, 16:49:21.220
190, -22.66, -36.10, -20.59, -18.93, -28.81, -15.40, -21.95, -29.57, -20.70, -30.35, -19.24, -27.31, -25.62, -20.94, -25.28, -27.20, 0.000, 0.000, 0.000, 16:49:21.220
191, -22.96, -36.12, -20.41, -19.13, -28.90, -15.47, -22.02, -29.53, -20.70, -30.35, -19.24, -27.31, -25.62, -20.94, -25.28, -27.20, 0.000, 0.000, 0.000, 16:49:21.221
192, -22.96, -36.12, -20.41, -19.13, -28.90, -15.47, -22.02, -29.53, -20.47, -30.17, -19.02, -27.25, -25.57, -21.14, -25.39, -27.22, 0.000, 0.000, 0.000, 16:49:21.221
193, -22.73, -36.23, -20.47, -18.98, -28.90, -15.47, -21.95, -29.71, -20.47, -30.17, -19.02, -27.25, -25.57, -21.14, -25.39, -27.22, 0.000, 0.000, 0.000, 16:49:21.221
194, -22.73, -36.23, -20.47, -18.98, -28.90, -15.47, -21.95, -29.71, -20.47, -30.17, -19.02, -27.43, -25.44, -21.14, -25.21, -27.00, 0.000, 0.000, 0.000, 16:49:21.222
195, -22.73, -36.01, -20.61, -18.89, -28.90, -15.36, -22.06, -29.62, -20.47, -30.17, -19.02, -27.43, -25.44, -21.14, -25.21, -27.00, 0.000, 0.000, 0.000, 16:49:21.222
196, -22.73, -36.01, -20.61, -18.89, -28.90, -15.36, -22.06, -29.62, -20.70, -30.13, -19.18, -27.63, -25.82, -21.01, -25.37, -27.05, 0.000, 0.000, 0.000, 16:49:21.222
197, -22.73, -36.21, -20.45, -19.07, -28.90, -15.47, -21.93, -29.53, -20.70, -30.13, -19.18, -27.63, -25.82, -21.01, -25.37, -27.05, -0.030, 0.944, 0.022, 16:49:21.222
198, -22.73, -36.21, -20.45, -19.07, -28.90, -15.47, -21.93, -29.53, -20.61, -30.04, -19.18, -27.40, -25.73, -21.21, -25.08, -27.11, 0.000, 0.000, 0.000, 16:49:21.223
199, -22.66, -36.19, -20.27, -18.91, -28.99, -15.29, -21.90, -29.53, -20.61, -30.04, -19.18, -27.40, -25.73, -21.21, -25.08, -27.11, 0.000, 0.000, 0.000, 16:49:21.226
200, -22.66, -36.19, -20.27, -18.91, -28.99, -15.29, -21.90, -29.53, -20.70, -30.22, -19.07, -27.16, -25.68, -20.97, -25.28, -27.29, 0.000, 0.000, 0.000, 16:49:21.226
201, -22.75, -36.10, -20.56, -18.86, -28.99, -15.33, -22.04, -29.68, -20.70, -30.22, -19.07, -27.16, -25.68, -20.97, -25.28, -27.29, 0.000, 0.000, 0.000, 16:49:21.226
202, -22.75, -36.10, -20.56, -18.86, -28.99, -15.33, -22.04, -29.68, -20.41, -30.35, -19.07, -27.60, -25.57, -21.01, -25.46, -27.07, 0.000, 0.000, 0.000, 16:49:21.227
203, -22.91, -36.03, -20.52, -18.75, -28.74, -15.58, -22.02, -29.71, -20.41, -30.35, -19.07, -27.60, -25.57, -21.01, -25.46, -27.07, 0.000, 0.000, 0.000, 16:49:21.227
204, -22.91, -36.03, -20.52, -18.75, -28.74, -15.58, -22.02, -29.71, -20.54, -30.47, -19.04, -27.43, -25.70, -21.14, -25.30, -27.18, 0.000, 0.000, 0.000, 16:49:21.227
205, -22.55, -36.17, -20.70, -19.18, -28.95, -15.56, -21.97, -29.53, -20.54, -30.47, -19.04, -27.43, -25.70, -21.14, -25.30, -27.18, 0.000, 0.000, 0.000, 16:49:21.227
206, -22.55, -36.17, -20.70, -19.18, -28.95, -15.56, -21.97, -29.53, -20.59, -30.24, -19.16, -27.22, -25.68, -21.14, -25.35, -27.22, 0.000, 0.000, 0.000, 16:49:21.228
207, -22.82, -36.32, -20.47, -19.00, -28.88, -15.40, -21.93, -29.66, -20.59, -30.24, -19.16, -27.22, -25.68, -21.14, -25.35, -27.22, -0.030, 0.946, 0.020, 16:49:21.228
208, -22.82, -36.32, -20.47, -19.00, -28.88, -15.40, -21.93, -29.66, -20.47, -30.42, -19.22, -27.31, -25.59, -20.76, -25.32, -27.11, 0.000, 0.000, 0.000, 16:49:21.228
209, -22.53, -36.32, -20.63, -18.80, -28.88, -15.40, -21.97, -29.48, -20.47, -30.42, -19.22, -27.31, -25.59, -20.76, -25.32, -27.11, 0.000, 0.000, 0.000, 16:49:21.228
210, -22.53, -36.32, -20.63, -18.80, -28.88, -15.40, -21.97, -29.48, -20.41, -30.38, -19.20, -27.47, -25.57, -21.03, -25.30, -27.14, 0.000, 0.000, 0.000, 16:49:21.229
211, -22.87, -36.32, -20.56, -18.73, -29.01, -15.38, -21.88, -29.46, -20.41, -30.38, -19.20, -27.47, -25.57, -21.03, -25.30, -27.14, 0.000, 0.000, 0.000, 16:49:21.229
212, -22.87, -36.32, -20.56, -18.73, -29.01, -15.38, -21.88, -29.46, -20.47, -30.22, -19.04, -27.34, -25.68, -21.12, -25.39, -27.07, 0.000, 0.000, 0.000, 16:49:21.229
213, -22.58, -36.25, -20.50, -18.95, -28.83, -15.51, -22.17, -29.48, -20.47, -30.22, -19.04, -27.34, -25.68, -21.12, -25.39, -27.07, 0.000, 0.000, 0.000, 16:49:21.229
214, -22.58, -36.25, -20.50, -18.95, -28.83, -15.51, -22.17, -29.48, -20.41, -30.53, -19.27, -27.45, -25.62, -20.99, -25.44, -27.20, 0.000, 0.000, 0.000, 16:49:21.230
215, -22.69, -36.12, -20.68, -18.91, -29.08, -15.31, -22.02, -29.53, -20.41, -30.53, -19.27, -27.45, -25.62, -20.99, -25.44, -27.20, 0.000, 0.000, 0.000, 16:49:21.230
216, -22.69, -36.12, -20.68, -18.91, -29.08, -15.31, -22.02, -29.53, -20.36, -30.15, -19.11, -27.29, -25.86, -21.06, -25.44, -27.09, 0.000, 0.000, 0.000, 16:49:21.230
217, -22.80, -36.14, -20.70, -18.86, -28.90, -15.29, -21.99, -29.71, -20.36, -30.15, -19.11, -27.29, -25.86, -21.06, -25.44, -27.09, -0.030, 0.948, 0.018, 16:49:21.230
218, -22.80, -36.14, -20.70, -18.86, -28.90, -15.29, -21.99, -29.71, -20.65, -30.04, -18.84, -27.27, -25.79, -21.10, -25.41, -27.05, 0.000, 0.000, 0.000, 16:49:21.231
219, -22.82, -36.19, -20.50, -19.16, -28.86, -15.49, -22.17, -29.53, -20.65, -30.04, -18.84, -27.27, -25.79, -21.10, -25.41, -27.05, 0.000, 0.000, 0.000, 16:49:21.231
220, -22.82, -36.19, -20.50, -19.16, -28.86, -15.49, -22.17, -29.53, -20.50, -30.15, -18.95, -27.45, -25.86, -20.99, -25.28, -27.14, 0.000, 0.000, 0.000, 16:49:21.231
221, -22.75, -36.01, -20.43, -19.07, -28.90, -15.42, -22.15, -29.71, -20.50, -30.15, -18.95, -27.45, -25.86, -20.99, -25.28, -27.14, 0.000, 0.000, 0.000, 16:49:21.231
222, -22.75, -36.01, -20.43, -19.07, -28.90, -15.42, -22.15, -29.71, -20.68, -30.35, -18.98, -27.34, -25.86, -21.03, -25.19, -27.05, 0.000, 0.000, 0.000, 16:49:21.232
223, -22.78, -35.92, -20.59, -18.91, -28.90, -15.53, -21.86, -29.55, -20.68, -30.35, -18.98, -27.34, -25.86, -21.03, -25.19, -27.05, 0.000, 0.000, 0.000, 16:49:21.232
224, -22.78, -35.92, -20.59, -18.91, -28.90, -15.53, -21.86, -29.55, -20.41, -30.31, -19.16, -27.20, -25.66, -20.83, -25.17, -27.43, 0.000, 0.000, 0.000, 16:49:21.232
225, -22.80, -36.12, -20.36, -18.91, -28.97, -15.60, -22.04, -29.73, -20.41, -30.31, -19.16, -27.20, -25.66, -20.83, -25.17, -27.43, 0.000, 0.000, 0.000, 16:49:21.680
226, -22.80, -36.12, -20.36, -18.91, -28.97, -15.60, -22.04, -29.73, -20.45, -30.13, -19.18, -27.31, -25.75, -21.10, -25.39, -27.09, -0.028, 0.948, 0.020, 16:49:21.680
227, -22.80, -36.28, -20.47, -18.82, -29.06, -15.58, -22.02, -29.59, -20.45, -30.13, -19.18, -27.31, -25.75, -21.10, -25.39, -27.09, 0.000, 0.000, 0.000, 16:49:21.681
228, -22.80, -36.28, -20.47, -18.82, -29.06, -15.58, -22.02, -29.59, -20.45, -30.22, -19.36, -27.25, -25.79, -21.03, -25.37, -27.16, 0.000, 0.000, 0.000, 16:49:21.681
229, -22.89, -36.19, -20.56, -19.29, -28.99, -15.47, -21.99, -29.73, -20.45, -30.22, -19.36, -27.25, -25.79, -21.03, -25.37, -27.16, 0.000, 0.000, 0.000, 16:49:21.681
230, -22.89, -36.19, -20.56, -19.29, -28.99, -15.47, -21.99, -29.73, -20.47, -30.06, -19.33, -27.20, -25.66, -20.97, -25.39, -27.09, 0.000, 0.000, 0.000, 16:49:21.681
231, -22.84, -36.10, -20.45, -18.86, -28.86, -15.56, -22.06, -29.57, -20.47, -30.06, -19.33, -27.20, -25.66, -20.97, -25.39, -27.09, 0.000, 0.000, 0.000, 16:49:21.682
232, -22.84, -36.10, -20.45, -18.86, -28.86, -15.56, -22.06, -29.57, -20.61, -30.42, -19.04, -27.20, -25.46, -21.10, -25.26, -27.25, 0.000, 0.000, 0.000, 16:49:21.682
233, -22.58, -36.03, -20.34, -18.66, -29.08, -15.67, -22.02, -29.48, -20.61, -30.42, -19.04, -27.20, -25.46, -21.10, -25.26, -27.25, 0.000, 0.000, 0.000, 16:49:21.682
234, -22.58, -36.03, -20.34, -18.66, -29.08, -15.67, -22.02, -29.48, -20.54, -30.38, -19.00, -27.18, -25.62, -21.10, -25.21, -27.31, 0.000, 0.000, 0.000, 16:49:21.682
235, -22.64, -36.23, -20.30, -18.71, -28.95, -15.49, -21.99, -29.62, -20.54, -30.38, -19.00, -27.18, -25.62, -21.10, -25.21, -27.31, 0.000, 0.000, 0.000, 16:49:21.682
236, -22.64, -36.23, -20.30, -18.71, -28.95, -15.49, -21.99, -29.62, -20.50, -30.40, -19.11, -27.14, -25.88, -21.03, -25.30, -27.22, -0.030, 0.950, 0.018, 16:49:21.683
237, -22.71, -36.25, -20.36, -18.89, -29.08, -15.56, -21.88, -29.53, -20.50, -30.40, -19.11, -27.14, -25.88, -21.03, -25.30, -27.22, 0.000, 0.000, 0.000, 16:49:21.683
238, -22.71, -36.25, -20.36, -18.89, -29.08, -15.56, -21.88, -29.53, -20.59, -30.20, -19.02, -27.45, -25.70, -20.92, -25.32, -27.16, 0.000, 0.000, 0.000, 16:49:21.683
239, -22.62, -36.10, -20.43, -19.09, -28.95, -15.56, -21.99, -29.59, -20.59, -30.20, -19.02, -27.45, -25.70, -20.92, -25.32, -27.16, 0.000, 0.000, 0.000, 16:49:21.683
240, -22.62, -36.10, -20.43, -19.09, -28.95, -15.56, -21.99, -29.59, -20.34, -30.47, -19.16, -27.49, -25.53, -21.03, -25.44, -27.20, 0.000, 0.000, 0.000, 16:49:21.683
241, -22.62, -36.21, -20.45, -19.07, -28.86, -15.56, -22.02, -29.62, -20.34, -30.47, -19.16, -27.49, -25.53, -21.03, -25.44, -27.20, 0.000, 0.000, 0.000, 16:49:21.683
242, -22.62, -36.21, -20.45, -19.07, -28.86, -15.56, -22.02, -29.62, -20.43, -30.35, -19.09, -27.20, -25.95, -21.06, -25.48, -27.18, 0.000, 0.000, 0.000, 16:49:21.684
243, -22.75, -36.10, -20.50, -18.93, -28.97, -15.51, -21.99, -29.66, -20.43, -30.35, -19.09, -27.20, -25.95, -21.06, -25.48, -27.18, 0.000, 0.000, 0.000, 16:49:21.684
244, -22.75, -36.10, -20.50, -18.93, -28.97, -15.51, -21.99, -29.66, -20.72, -30.24, -18.98, -27.29, -25.57, -21.06, -25.30, -27.18, 0.000, 0.000, 0.000, 16:49:21.684
245, -22.80, -36.05, -20.61, -19.07, -28.79, -15.49, -21.88, -29.68, -20.72, -30.24, -18.98, -27.29, -25.57, -21.06, -25.30, -27.18, 0.000, 0.000, 0.000, 16:49:21.684
246, -22.80, -36.05, -20.61, -19.07, -28.79, -15.49, -21.88, -29.68, -20.68, -30.17, -19.07, -27.22, -25.75, -21.12, -25.32, -27.38, -0.032, 0.954, 0.014, 16:49:21.684
247, -22.89, -35.85, -20.56, -18.80, -28.86, -15.49, -21.82, -29.71, -20.68, -30.17, -19.07, -27.22, -25.75, -21.12, -25.32, -27.38, 0.000, 0.000, 0.000, 16:49:21.685
248, -22.89, -35.85, -20.56, -18.80, -28.86, -15.49, -21.82, -29.71, -20.72, -30.04, -19.20, -27.31, -25.73, -20.97, -25.21, -27.34, 0.000, 0.000, 0.000, 16:49:21.685
249, -22.82, -36.28, -20.79, -18.73, -28.99, -15.31, -22.17, -29.62, -20.72, -30.04, -19.20, -27.31, -25.73, -20.97, -25.21, -27.34, 0.000, 0.000, 0.000, 16:49:21.685
250, -22.82, -36.28, -20.79, -18.73, -28.99, -15.31, -22.17, -29.62, -20.63, -30.20, -18.93, -27.38, -25.59, -21.35, -25.41, -27.27, 0.000, 0.000, 0.000, 16:49:21.685
251, -22.89, -36.12, -20.47, -18.93, -29.03, -15.20, -21.99, -29.50, -20.63, -30.20, -18.93, -27.38, -25.59, -21.35, -25.41, -27.27, 0.000, 0.000, 0.000, 16:49:21.685
252, -22.89, -36.12, -20.47, -18.93, -29.03, -15.20, -21.99, -29.50, -20.50, -30.35, -18.98, -27.51, -25.55, -21.28, -25.28, -27.14, 0.000, 0.000, 0.000, 16:49:21.685
253, -22.80, -36.05, -20.52, -19.07, -28.83, -15.51, -22.17, -29.53, -20.50, -30.35, -18.98, -27.51, -25.55, -21.28, -25.28, -27.14, 0.000, 0.000, 0.000, 16:49:21.686
254, -22.80, -36.05, -20.52, -19.07, -28.83, -15.51, -22.17, -29.53, -20.59, -30.33, -19.24, -27.45, -25.77, -21.08, -25.28, -27.02, 0.000, 0.000, 0.000, 16:49:21.686
255, -22.80, -36.12, -20.54, -18.95, -28.90, -15.36, -22.02, -29.68, -20.59, -30.33, -19.24, -27.45, -25.77, -21.08, -25.28, -27.02, 0.000, 0.000, 0.000, 16:49:21.686
0, -22.80, -36.12, -20.54, -18.95, -28.90, -15.36, -22.02, -29.68, -20.65, -30.29, -19.22, -27.34, -25.70, -21.03, -25.26, -27.00, -0.030, 0.950, 0.020, 16:49:21.686
1, -22.64, -36.17, -20.72, -19.04, -28.92, -15.45, -22.08, -29.50, -20.65, -30.29, -19.22, -27.34, -25.70, -21.03, -25.26, -27.00, 0.000, 0.000, 0.000, 16:49:21.687
2, -22.64, -36.17, -20.72, -19.04, -28.92, -15.45, -22.08, -29.50, -20.47, -30.31, -19.11, -27.31, -25.70, -21.19, -25.26, -27.16, 0.000, 0.000, 0.000, 16:49:21.687
3, -22.58, -35.94, -20.45, -18.80, -29.03, -15.53, -22.06, -29.64, -20.47, -30.31, -19.11, -27.31, -25.70, -21.19, -25.26, -27.16, 0.000, 0.000, 0.000, 16:49:21.687
4, -22.58, -35.94, -20.45, -18.80, -29.03, -15.53, -22.06, -29.64, -20.47, -30.31, -18.98, -27.54, -25.88, -20.99, -25.39, -27.29, 0.000, 0.000, 0.000, 16:49:21.687
5, -22.89, -35.92, -20.50, -18.80, -28.97, -15.33, -21.86, -29.55, -20.47, -30.31, -18.98, -27.54, -25.88, -20.99, -25.39, -27.29, 0.000, 0.000, 0.000, 16:49:21.687
6, -22.89, -35.92, -20.50, -18.80, -28.97, -15.33, -21.86, -29.55, -20.36, -30.26, -19.13, -27.07, -25.75, -21.06, -25.19, -27.27, 0.000, 0.000, 0.000, 16:49:21.687
7, -22.80, -36.21, -20.70, -18.89, -29.01, -15.49, -22.02, -29.75, -20.36, -30.26, -19.13, -27.07, -25.75, -21.06, -25.19, -27.27, 0.000, 0.000, 0.000, 16:49:21.688
8, -22.80, -36.21, -20.70, -18.89, -29.01, -15.49, -22.02, -29.75, -20.43, -30.22, -19.31, -27.18, -25.93, -21.17, -25.28, -27.18, 0.000, 0.000, 0.000, 16:49:21.688
9, -22.87, -36.32, -20.47, -19.13, -29.06, -15.42, -22.17, -29.68, -20.43, -30.22, -19.31, -27.18, -25.93, -21.17, -25.28, -27.18, 0.000, 0.000, 0.000, 16:49:21.688
10, -22.87, -36.32, -20.47, -19.13, -29.06, -15.42, -22.17, -29.68, -20.45, -30.13, -19.16, -27.29, -25.82, -20.97, -25.10, -27.18, -0.032, 0.950, 0.020, 16:49:21.688
11, -22.89, -36.30, -20.47, -18.75, -28.92, -15.58, -22.06, -29.33, -20.45, -30.13, -19.16, -27.29, -25.82, -20.97, -25.10, -27.18, 0.000, 0.000, 0.000, 16:49:21.688
12, -22.89, -36.30, -20.47, -18.75, -28.92, -15.58, -22.06, -29.33, -20.47, -30.51, -19.29, -27.18, -25.82, -21.01, -25.32, -27.09, 0.000, 0.000, 0.000, 16:49:21.689
13, -22.73, -36.03, -20.47, -18.80, -29.06, -15.45, -22.08, -29.46, -20.47, -30.51, -19.29, -27.18, -25.82, -21.01, -25.32, -27.09, 0.000, 0.000, 0.000, 16:49:21.689
14, -22.73, -36.03, -20.47, -18.80, -29.06, -15.45, -22.08, -29.46, -20.50, -30.40, -19.18, -27.49, -25.44, -20.92, -25.15, -27.11, 0.000, 0.000, 0.000, 16:49:21.689
15, -22.84, -35.85, -20.63, -19.00, -28.83, -15.45, -22.08, -29.53, -20.50, -30.40, -19.18, -27.49, -25.44, -20.92, -25.15, -27.11, 0.000, 0.000, 0.000, 16:49:21.689
16, -22.84, -35.85, -20.63, -19.00, -28.83, -15.45, -22.08, -29.53, -20.54, -30.06, -19.02, -27.38, -25.62, -21.19, -25.30, -27.16, 0.000, 0.000, 0.000, 16:49:21.689
17, -22.78, -36.08, -20.47, -18.91, -29.01, -15.51, -22.17, -29.68, -20.54, -30.06, -19.02, -27.38, -25.62, -21.19, -25.30, -27.16, 0.000, 0.000, 0.000, 16:49:21.690
18, -22.78, -36.08, -20.47, -18.91, -29.01, -15.51, -22.17, -29.68, -20.59, -30.31, -19.31, -27.31, -25.82, -20.97, -25.19, -27.07, 0.000, 0.000, 0.000, 16:49:21.690
19, -22.73, -36.23, -20.43, -18.98, -28.95, -15.60, -22.11, -29.77, -20.59, -30.31, -19.31, -27.31, -25.82, -20.97, -25.19, -27.07, 0.000, 0.000, 0.000, 16:49:21.690
20, -22.73, -36.23, -20.43, -18.98, -28.95, -15.60, -22.11, -29.77, -20.52, -30.11, -19.07, -27.29, -25.66, -21.01, -25.28, -27.16, -0.030, 0.946, 0.018, 16:49:21.691
21, -22.78, -36.03, -20.45, -18.84, -28.88, -15.24, -21.73, -29.50, -20.52, -30.11, -19.07, -27.29, -25.66, -21.01, -25.28, -27.16, 0.000, 0.000, 0.000, 16:49:21.691
22, -22.78, -36.03, -20.45, -18.84, -28.88, -15.24, -21.73, -29.50, -20.56, -30.26, -19.16, -27.29, -25.66, -21.12, -25.44, -27.31, 0.000, 0.000, 0.000, 16:49:21.691
23, -22.66, -36.19, -20.61, -18.95, -28.88, -15.11, -21.88, -29.53, -20.56, -30.26, -19.16, -27.29, -25.66, -21.12, -25.44, -27.31, 0.000, 0.000, 0.000, 16:49:21.692
24, -22.66, -36.19, -20.61, -18.95, -28.88, -15.11, -21.88, -29.53, -20.45, -30.35, -19.31, -27.34, -25.88, -21.01, -25.48, -27.14, 0.000, 0.000, 0.000, 16:49:21.692
25, -22.82, -36.08, -20.61, -18.91, -28.61, -15.40, -21.79, -29.55, -20.45, -30.35, -19.31, -27.34, -25.88, -21.01, -25.48, -27.14, 0.000, 0.000, 0.000, 16:49:21.692
26, -22.82, -36.08, -20.61, -18.91, -28.61, -15.40, -21.79, -29.55, -20.36, -30.26, -18.93, -27.27, -25.84, -21.08, -25.46, -27.09, 0.000, 0.000, 0.000, 16:49:21.692
27, -22.75, -36.01, -20.50, -18.95, -28.95, -15.56, -21.97, -29.64, -20.36, -30.26, -18.93, -27.27, -25.84, -21.08, -25.46, -27.09, 0.000, 0.000, 0.000, 16:49:21.693
28, -22.75, -36.01, -20.50, -18.95, -28.95, -15.56, -21.97, -29.64, -20.61, -30.35, -19.33, -27.34, -25.70, -21.17, -25.48, -27.20, 0.000, 0.000, 0.000, 16:49:21.693
29, -22.91, -36.17, -20.32, -19.02, -28.95, -15.62, -21.99, -29.66, -20.61, -30.35, -19.33, -27.34, -25.70, -21.17, -25.48, -27.20, 0.000, 0.000, 0.000, 16:49:21.693
30, -22.91, -36.17, -20.32, -19.02, -28.95, -15.62, -21.99, -29.66, -20.70, -30.24, -19.04, -27.36, -25.91, -21.03, -25.48, -27.27, -0.034, 0.946, 0.020, 16:49:21.693
31, -22.80, -36.10, -20.47, -18.86, -28.92, -15.60, -21.95, -29.59, -20.70, -30.24, -19.04, -27.36, -25.91, -21.03, -25.48, -27.27, 0.000, 0.000, 0.000, 16:49:21.694
32, -22.80, -36.10, -20.47, -18.86, -28.92, -15.60, -21.95, -29.59, -20.36, -30.26, -19.33, -27.47, -25.66, -21.17, -25.55, -26.96, 0.000, 0.000, 0.000, 16:49:21.694
33, -22.64, -36.05, -20.45, -18.86, -28.97, -15.53, -22.13, -29.73, -20.36, -30.26, -19.33, -27.47, -25.66, -21.17, -25.55, -26.96, 0.000, 0.000, 0.000, 16:49:21.694
34, -22.64, -36.05, -20.45, -18.86, -28.97, -15.53, -22.13, -29.73, -20.56, -30.00, -18.91, -27.25, -25.59, -20.92, -25.21, -27.05, 0.000, 0.000, 0.000, 16:49:21.694
35, -22.64, -36.08, -20.52, -19.07, -29.15, -15.51, -21.99, -29.50, -20.56, -30.00, -18.91, -27.25, -25.59, -20.92, -25.21, -27.05, 0.000, 0.000, 0.000, 16:49:21.694
36, -22.64, -36.08, -20.52, -19.07, -29.15, -15.51, -21.99, -29.50, -20.59, -30.38, -19.07, -27.36, -25.88, -21.30, -25.30, -27.22, 0.000, 0.000, 0.000, 16:49:21.694
37, -22.69, -36.10, -20.52, -18.82, -28.79, -15.29, -22.28, -29.68, -20.59, -30.38, -19.07, -27.36, -25.88, -21.30, -25.30, -27.22, 0.000, 0.000, 0.000, 16:49:21.695
38, -22.69, -36.10, -20.52, -18.82, -28.79, -15.29, -22.28, -29.68, -20.59, -30.29, -19.02, -27.40, -25.75, -21.32, -25.46, -27.09, 0.000, 0.000, 0.000, 16:49:21.695
39, -22.66, -36.10, -20.27, -18.89, -28.88, -15.40, -21.97, -29.75, -20.59, -30.29, -19.02, -27.40, -25.75, -21.32, -25.46, -27.09, 0.000, 0.000, 0.000, 16:49:21.695
40, -22.66, -36.10, -20.27, -18.89, -28.88, -15.40, -21.97, -29.75, -20.52, -30.20, -19.24, -27.34, -25.64, -21.12, -25.21, -27.07, -0.036, 0.956, 0.012, 16:49:21.695
41, -22.89, -36.19, -20.52, -18.93, -28.81, -15.27, -22.15, -29.50, -20.52, -30.20, -19.24, -27.34, -25.64, -21.12, -25.21, -27.07, 0.000, 0.000, 0.000, 16:49:21.695
42, -22.89, -36.19, -20.52, -18.93, -28.81, -15.27, -22.15, -29.50, -20.56, -30.31, -18.98, -27.38, -25.66, -21.08, -25.32, -27.25, 0.000, 0.000, 0.000, 16:49:21.695
43, -22.66, -36.23, -20.54, -18.89, -28.88, -15.36, -22.17, -29.44, -20.56, -30.31, -18.98, -27.38, -25.66, -21.08, -25.32, -27.25, 0.000, 0.000, 0.000, 16:49:21.696
44, -22.66, -36.23, -20.54, -18.89, -28.88, -15.36, -22.17, -29.44, -20.23, -30.02, -18.89, -27.36, -25.91, -21.08, -25.28, -27.22, 0.000, 0.000, 0.000, 16:49:21.696
45, -22.91, -36.46, -20.59, -18.95, -29.03, -15.51, -21.95, -29.86, -20.23, -30.02, -18.89, -27.36, -25.91, -21.08, -25.28, -27.22, 0.000, 0.000, 0.000, 16:49:21.696
46, -22.91, -36.46, -20.59, -18.95, -29.03, -15.51, -21.95, -29.86, -20.41, -30.17, -19.09, -27.16, -25.70, -21.23, -25.30, -27.36, 0.000, 0.000, 0.000, 16:49:21.697
47, -22.69, -36.10, -20.50, -18.93, -29.01, -15.47, -22.04, -29.68, -20.41, -30.17, -19.09, -27.16, -25.70, -21.23, -25.30, -27.36, 0.000, 0.000, 0.000, 16:49:21.697
48, -22.69, -36.10, -20.50, -18.93, -29.01, -15.47, -22.04, -29.68, -20.56, -30.29, -18.93, -27.40, -25.75, -21.08, -25.19, -27.14, 0.000, 0.000, 0.000, 16:49:21.697
49, -22.80, -36.17, -20.54, -18.89, -28.90, -15.51, -22.22, -29.66, -20.56, -30.29, -18.93, -27.40, -25.75, -21.08, -25.19, -27.14, 0.000, 0.000, 0.000, 16:49:21.697
50, -22.80, -36.17, -20.54, -18.89, -28.90, -15.51, -22.22, -29.66, -20.74, -30.35, -19.09, -27.29, -25.57, -21.14, -25.30, -27.16, -0.034, 0.946, 0.016, 16:49:21.697
51, -23.00, -36.08, -20.56, -18.91, -28.88, -15.62, -22.13, -29.57, -20.74, -30.35, -19.09, -27.29, -25.57, -21.14, -25.30, -27.16, 0.000, 0.000, 0.000, 16:49:21.697
52, -23.00, -36.08, -20.56, -18.91, -28.88, -15.62, -22.13, -29.57, -20.70, -30.42, -19.09, -27.38, -25.66, -21.10, -25.46, -27.16, 0.000, 0.000, 0.000, 16:49:21.698
53, -22.82, -36.14, -20.52, -18.82, -28.90, -15.24, -22.11, -29.84, -20.70, -30.42, -19.09, -27.38, -25.66, -21.10, -25.46, -27.16, 0.000, 0.000, 0.000, 16:49:21.698
54, -22.82, -36.14, -20.52, -18.82, -28.90, -15.24, -22.11, -29.84, -20.43, -30.31, -19.04, -27.49, -25.77, -21.01, -25.39, -27.18, 0.000, 0.000, 0.000, 16:49:21.698
55, -22.60, -36.21, -20.68, -19.22, -28.86, -15.29, -22.24, -29.66, -20.43, -30.31, -19.04, -27.49, -25.77, -21.01, -25.39, -27.18, 0.000, 0.000, 0.000, 16:49:21.698
56, -22.60, -36.21, -20.68, -19.22, -28.86, -15.29, -22.24, -29.66, -20.47, -30.29, -19.11, -27.29, -25.48, -21.12, -25.32, -27.38, 0.000, 0.000, 0.000, 16:49:21.698
57, -22.80, -36.01, -20.63, -19.16, -28.88, -15.62, -22.08, -29.55, -20.47, -30.29, -19.11, -27.29, -25.48, -21.12, -25.32, -27.38, 0.000, 0.000, 0.000, 16:49:21.698
58, -22.80, -36.01, -20.63, -19.16, -28.88, -15.62, -22.08, -29.55, -20.54, -30.49, -19.11, -27.45, -25.62, -21.32, -25.70, -27.27, 0.000, 0.000, 0.000, 16:49:21.699
59, -22.87, -36.12, -20.36, -18.95, -29.01, -15.20, -22.04, -29.75, -20.54, -30.49, -19.11, -27.45, -25.62, -21.32, -25.70, -27.27, 0.000, 0.000, 0.000, 16:49:21.699
60, -22.87, -36.12, -20.36, -18.95, -29.01, -15.20, -22.04, -29.75, -20.54, -30.38, -19.29, -27.29, -25.73, -21.21, -25.30, -27.11, -0.028, 0.940, 0.014, 16:49:21.699
61, -22.80, -36.14, -20.36, -18.95, -28.90, -15.45, -21.90, -29.66, -20.54, -30.38, -19.29, -27.29, -25.73, -21.21, -25.30, -27.11, 0.000, 0.000, 0.000, 16:49:21.699
62, -22.80, -36.14, -20.36, -18.95, -28.90, -15.45, -21.90, -29.66, -20.79, -30.26, -19.02, -27.40, -25.73, -21.12, -25.39, -27.14, 0.000, 0.000, 0.000, 16:49:21.699
63, -22.78, -36.32, -20.34, -18.91, -28.83, -15.24, -21.90, -29.41, -20.79, -30.26, -19.02, -27.40, -25.73, -21.12, -25.39, -27.14, 0.000, 0.000, 0.000, 16:49:21.699
64, -22.78, -36.32, -20.34, -18.91, -28.83, -15.24, -21.90, -29.41, -20.61, -30.33, -19.22, -27.45, -25.64, -21.08, -25.46, -27.18, 0.000, 0.000, 0.000, 16:49:21.699
65, -22.73, -36.12, -20.50, -18.91, -29.03, -15.42, -21.93, -29.48, -20.61, -30.33, -19.22, -27.45, -25.64, -21.08, -25.46, -27.18, 0.000, 0.000, 0.000, 16:49:21.700
66, -22.73, -36.12, -20.50, -18.91, -29.03, -15.42, -21.93, -29.48, -20.43, -30.20, -19.04, -27.27, -25.75, -20.83, -25.32, -27.31, 0.000, 0.000, 0.000, 16:49:21.700
67, -22.91, -36.05, -20.47, -18.98, -28.81, -15.45, -21.95, -29.46, -20.43, -30.20, -19.04, -27.27, -25.75, -20.83, -25.32, -27.31, 0.000, 0.000, 0.000, 16:49:21.700
68, -22.91, -36.05, -20.47, -18.98, -28.81, -15.45, -21.95, -29.46, -20.76, -30.17, -19.18, -27.40, -25.75, -21.12, -25.21, -27.14, 0.000, 0.000, 0.000, 16:49:21.700
69, -22.75, -36.25, -20.65, -19.02, -29.17, -15.47, -21.93, -29.64, -20.76, -30.17, -19.18, -27.40, -25.75, -21.12, -25.21, -27.14, -0.026, 0.944, 0.018, 16:49:21.700
70, -22.75, -36.25, -20.65, -19.02, -29.17, -15.47, -21.93, -29.64, -20.43, -30.20, -18.95, -27.40, -25.86, -21.17, -25.44, -27.25, 0.000, 0.000, 0.000, 16:49:21.700
71, -22.80, -36.12, -20.65, -18.95, -28.92, -15.45, -22.08, -29.59, -20.43, -30.20, -18.95, -27.40, -25.86, -21.17, -25.44, -27.25, 0.000, 0.000, 0.000, 16:49:21.701
72, -22.80, -36.12, -20.65, -18.95, -28.92, -15.45, -22.08, -29.59, -20.52, -30.15, -19.07, -27.29, -25.70, -20.99, -25.46, -27.27, 0.000, 0.000, 0.000, 16:49:21.701
73, -22.73, -36.17, -20.32, -18.91, -28.90, -15.67, -22.08, -29.64, -20.52, -30.15, -19.07, -27.29, -25.70, -20.99, -25.46, -27.27, 0.000, 0.000, 0.000, 16:49:21.701
74, -22.73, -36.17, -20.32, -18.91, -28.90, -15.67, -22.08, -29.64, -20.61, -30.22, -19.07, -27.38, -25.66, -20.85, -25.50, -27.16, 0.000, 0.000, 0.000, 16:49:21.701
75, -22.55, -35.99, -20.54, -19.00, -29.03, -15.58, -22.15, -29.55, -20.61, -30.22, -19.07, -27.38, -25.66, -20.85, -25.50, -27.16, 0.000, 0.000, 0.000, 16:49:21.701
76, -22.55, -35.99, -20.54, -19.00, -29.03, -15.58, -22.15, -29.55, -20.30, -30.40, -19.11, -27.07, -25.84, -21.14, -25.59, -27.14, 0.000, 0.000, 0.000, 16:49:21.701
77, -22.78, -36.19, -20.65, -19.09, -28.99, -15.53, -21.95, -29.64, -20.30, -30.40, -19.11, -27.07, -25.84, -21.14, -25.59, -27.14, 0.000, 0.000, 0.000, 16:49:21.702
78, -22.78, -36.19, -20.65, -19.09, -28.99, -15.53, -21.95, -29.64, -20.27, -30.11, -19.13, -27.25, -25.93, -21.21, -25.37, -27.27, 0.000, 0.000, 0.000, 16:49:21.702
79, -22.53, -36.32, -20.50, -18.95, -28.97, -15.40, -21.93, -29.59, -20.27, -30.11, -19.13, -27.25, -25.93, -21.21, -25.37, -27.27, -0.028, 0.944, 0.020, 16:49:21.702
80, -22.53, -36.32, -20.50, -18.95, -28.97, -15.40, -21.93, -29.59, -20.52, -30.24, -19.24, -27.40, -25.91, -20.94, -25.24, -27.34, 0.000, 0.000, 0.000, 16:49:21.702
81, -22.87, -36.10, -20.45, -18.84, -28.81, -15.45, -22.22, -29.93, -20.52, -30.24, -19.24, -27.40, -25.91, -20.94, -25.24, -27.34, 0.000, 0.000, 0.000, 16:49:21.702
82, -22.87, -36.10, -20.45, -18.84, -28.81, -15.45, -22.22, -29.93, -20.61, -30.20, -19.18, -27.40, -25.79, -21.08, -25.26, -27.09, 0.000, 0.000, 0.000, 16:49:21.702
83, -22.78, -35.96, -20.47, -18.89, -29.01, -15.38, -22.11, -29.66, -20.61, -30.20, -19.18, -27.40, -25.79, -21.08, -25.26, -27.09, 0.000, 0.000, 0.000, 16:49:21.703
84, -22.78, -35.96, -20.47, -18.89, -29.01, -15.38, -22.11, -29.66, -20.52, -30.11, -19.20, -27.22, -25.62, -21.17, -25.41, -27.05, 0.000, 0.000, 0.000, 16:49:21.703
85, -22.93, -36.19, -20.43, -18.98, -28.90, -15.20, -21.99, -29.75, -20.52, -30.11, -19.20, -27.22, -25.62, -21.17, -25.41, -27.05, 0.000, 0.000, 0.000, 16:49:21.703
86, -22.93, -36.19, -20.43, -18.98, -28.90, -15.20, -21.99, -29.75, -20.47, -30.00, -18.98, -27.36, -25.75, -21.17, -25.41, -27.29, 0.000, 0.000, 0.000, 16:49:21.703
87, -22.82, -36.34, -20.79, -18.98, -29.06, -15.42, -22.13, -29.79, -20.47, -30.00, -18.98, -27.36, -25.75, -21.17, -25.41, -27.29, 0.000, 0.000, 0.000, 16:49:21.703
88, -22.82, -36.34, -20.79, -18.98, -29.06, -15.42, -22.13, -29.79, -20.61, -30.33, -19.04, -27.18, -25.59, -21.08, -25.41, -27.22, 0.000, 0.000, 0.000, 16:49:21.704
89, -22.80, -36.14, -20.41, -18.84, -28.95, -15.45, -22.11, -29.75, -20.61, -30.33, -19.04, -27.18, -25.59, -21.08, -25.41, -27.22, -0.026, 0.954, 0.018, 16:49:21.704
90, -22.80, -36.14, -20.41, -18.84, -28.95, -15.45, -22.11, -29.75, -20.38, -30.00, -19.13, -27.40, -25.57, -21.28, -25.37, -27.18, 0.000, 0.000, 0.000, 16:49:22.159
91, -22.71, -36.28, -20.23, -18.78, -28.90, -15.80, -21.97, -29.48, -20.38, -30.00, -19.13, -27.40, -25.57, -21.28, -25.37, -27.18, 0.000, 0.000, 0.000, 16:49:22.160
92, -22.71, -36.28, -20.23, -18.78, -28.90, -15.80, -21.97, -29.48, -20.47, -30.22, -19.22, -27.36, -25.66, -21.03, -25.39, -27.02, 0.000, 0.000, 0.000, 16:49:22.160
93, -22.82, -36.17, -20.36, -19.00, -28.97, -15.62, -22.11, -29.57, -20.47, -30.22, -19.22, -27.36, -25.66, -21.03, -25.39, -27.02, 0.000, 0.000, 0.000, 16:49:22.160
94, -22.82, -36.17, -20.36, -19.00, -28.97, -15.62, -22.11, -29.57, -20.59, -30.31, -19.16, -27.31, -25.59, -20.94, -25.32, -27.18, 0.000, 0.000, 0.000, 16:49:22.161
95, -22.66, -36.12, -20.50, -19.00, -28.81, -15.78, -22.11, -29.59, -20.59, -30.31, -19.16, -27.31, -25.59, -20.94, -25.32, -27.18, 0.000, 0.000, 0.000, 16:49:22.161
96, -22.66, -36.12, -20.50, -19.00, -28.81, -15.78, -22.11, -29.59, -20.70, -30.15, -19.02, -27.51, -25.57, -21.14, -25.26, -27.18, 0.000, 0.000, 0.000, 16:49:22.161
97, -22.69, -36.30, -20.47, -18.98, -29.10, -15.53, -22.04, -29.35, -20.70, -30.15, -19.02, -27.51, -25.57, -21.14, -25.26, -27.18, 0.000, 0.000, 0.000, 16:49:22.161
98, -22.69, -36.30, -20.47, -18.98, -29.10, -15.53, -22.04, -29.35, -20.50, -30.26, -19.02, -27.40, -25.64, -20.90, -25.46, -27.14, 0.000, 0.000, 0.000, 16:49:22.161
99, -22.55, -36.23, -20.36, -19.18, -29.06, -15.51, -21.99, -29.71, -20.50, -30.26, -19.02, -27.40, -25.64, -20.90, -25.46, -27.14, -0.022, 0.946, 0.014, 16:49:22.162
100, -22.55, -36.23, -20.36, -19.18, -29.06, -15.51, -21.99, -29.71, -20.30, -30.15, -19.16, -27.27, -25.59, -21.03, -25.46, -27.18, 0.000, 0.000, 0.000, 16:49:22.162
101, -22.75, -36.28, -20.65, -18.89, -28.97, -15.36, -21.84, -29.53, -20.30, -30.15, -19.16, -27.27, -25.59, -21.03, -25.46, -27.18, 0.000, 0.000, 0.000, 16:49:22.162
102, -22.75, -36.28, -20.65, -18.89, -28.97, -15.36, -21.84, -29.53, -20.36, -30.40, -19.16, -27.29, -25.77, -21.08, -25.48, -27.11, 0.000, 0.000, 0.000, 16:49:22.162
103, -22.84, -36.32, -20.76, -19.22, -28.74, -15.65, -22.06, -29.59, -20.36, -30.40, -19.16, -27.29, -25.77, -21.08, -25.48, -27.11, 0.000, 0.000, 0.000, 16:49:22.163
104, -22.84, -36.32, -20.76, -19.22, -28.74, -15.65, -22.06, -29.59, -20.38, -30.38, -19.07, -27.20, -25.68, -21.12, -25.50, -27.07, 0.000, 0.000, 0.000, 16:49:22.163
105, -22.78, -36.23, -20.56, -19.09, -28.92, -15.42, -21.88, -29.48, -20.38, -30.38, -19.07, -27.20, -25.68, -21.12, -25.50, -27.07, 0.000, 0.000, 0.000, 16:49:22.163
106, -22.78, -36.23, -20.56, -19.09, -28.92, -15.42, -21.88, -29.48, -20.56, -30.38, -19.04, -27.22, -25.55, -21.14, -25.32, -27.09, 0.000, 0.000, 0.000, 16:49:22.163
107, -22.82, -36.23, -20.68, -19.02, -28.92, -15.60, -22.04, -29.62, -20.56, -30.38, -19.04, -27.22, -25.55, -21.14, -25.32, -27.09, 0.000, 0.000, 0.000, 16:49:22.163
108, -22.82, -36.23, -20.68, -19.02, -28.92, -15.60, -22.04, -29.62, -20.50, -30.33, -19.04, -27.20, -25.55, -20.83, -25.21, -27.22, 0.000, 0.000, 0.000, 16:49:22.164
109, -22.69, -36.14, -20.61, -18.84, -28.88, -15.53, -21.97, -29.62, -20.50, -30.33, -19.04, -27.20, -25.55, -20.83, -25.21, -27.22, -0.026, 0.948, 0.018, 16:49:22.164
110, -22.69, -36.14, -20.61, -18.84, -28.88, -15.53, -21.97, -29.62, -20.43, -30.29, -18.93, -27.38, -25.73, -21.14, -25.26, -27.07, 0.000, 0.000, 0.000, 16:49:22.164
111, -22.78, -36.23, -20.54, -18.89, -29.28, -15.42, -21.95, -29.64, -20.43, -30.29, -18.93, -27.38, -25.73, -21.14, -25.26, -27.07, 0.000, 0.000, 0.000, 16:49:22.164
112, -22.78, -36.23, -20.54, -18.89, -29.28, -15.42, -21.95, -29.64, -20.61, -30.29, -19.20, -27.27, -25.73, -21.03, -25.37, -27.07, 0.000, 0.000, 0.000, 16:49:22.164
113, -22.66, -36.21, -20.50, -18.98, -28.81, -15.29, -22.22, -29.59, -20.61, -30.29, -19.20, -27.27, -25.73, -21.03, -25.37, -27.07, 0.000, 0.000, 0.000, 16:49:22.164
114, -22.66, -36.21, -20.50, -18.98, -28.81, -15.29, -22.22, -29.59, -20.56, -30.35, -19.04, -27.20, -25.68, -20.97, -25.26, -27.00, 0.000, 0.000, 0.000, 16:49:22.165
115, -22.73, -36.21, -20.43, -18.80, -29.01, -15.56, -22.15, -29.48, -20.56, -30.35, -19.04, -27.20, -25.68, -20.97, -25.26, -27.00, 0.000, 0.000, 0.000, 16:49:22.165
116, -22.73, -36.21, -20.43, -18.80, -29.01, -15.56, -22.15, -29.48, -20.76, -30.24, -19.16, -27.25, -25.48, -21.10, -25.37, -27.25, 0.000, 0.000, 0.000, 16:49:22.165
117, -22.82, -36.19, -20.56, -18.66, -29.15, -15.58, -22.04, -29.71, -20.76, -30.24, -19.16, -27.25, -25.48, -21.10, -25.37, -27.25, 0.000, 0.000, 0.000, 16:49:22.165
118, -22.82, -36.19, -20.56, -18.66, -29.15, -15.58, -22.04, -29.71, -20.54, -30.38, -19.13, -27.14, -25.57, -21.14, -25.48, -27.31, 0.000, 0.000, 0.000, 16:49:22.165
119, -22.62, -36.25, -20.63, -18.86, -28.81, -15.45, -21.93, -29.68, -20.54, -30.38, -19.13, -27.14, -25.57, -21.14, -25.48, -27.31, -0.028, 0.946, 0.024, 16:49:22.165
120, -22.62, -36.25, -20.63, -18.86, -28.81, -15.45, -21.93, -29.68, -20.34, -30.35, -19.09, -27.34, -25.53, -20.94, -25.37, -27.16, 0.000, 0.000, 0.000, 16:49:22.165
121, -22.96, -36.19, -20.32, -19.00, -28.70, -15.38, -22.08, -29.66, -20.34, -30.35, -19.09, -27.34, -25.53, -20.94, -25.37, -27.16, 0.000, 0.000, 0.000, 16:49:22.166
122, -22.96, -36.19, -20.32, -19.00, -28.70, -15.38, -22.08, -29.66, -20.61, -30.38, -18.93, -27.25, -25.46, -21.19, -25.35, -27.07, 0.000, 0.000, 0.000, 16:49:22.166
123, -22.87, -36.19, -20.16, -19.04, -28.92, -15.53, -22.06, -29.50, -20.61, -30.38, -18.93, -27.25, -25.46, -21.19, -25.35, -27.07, 0.000, 0.000, 0.000, 16:49:22.166
124, -22.87, -36.19, -20.16, -19.04, -28.92, -15.53, -22.06, -29.50, -20.36, -30.31, -19.07, -27.05, -25.59, -21.17, -25.28, -27.34, 0.000, 0.000, 0.000, 16:49:22.166
125, -22.69, -36.05, -20.65, -19.13, -28.97, -15.45, -22.08, -29.37, -20.36, -30.31, -19.07, -27.05, -25.59, -21.17, -25.28, -27.34, 0.000, 0.000, 0.000, 16:49:22.166
126, -22.69, -36.05, -20.65, -19.13, -28.97, -15.45, -22.08, -29.37, -20.54, -30.33, -19.16, -27.54, -25.70, -20.94, -25.48, -27.31, 0.000, 0.000, 0.000, 16:49:22.166
127, -22.66, -36.03, -20.65, -19.02, -28.90, -15.49, -21.86, -29.46, -20.54, -30.33, -19.16, -27.54, -25.70, -20.94, -25.48, -27.31, 0.000, 0.000, 0.000, 16:49:22.167
128, -22.66, -36.03, -20.65, -19.02, -28.90, -15.49, -21.86, -29.46, -20.63, -30.42, -19.13, -27.34, -25.88, -21.08, -25.35, -27.02, 0.000, 0.000, 0.000, 16:49:22.167
129, -22.66, -36.14, -20.50, -19.00, -28.95, -15.65, -22.02, -29.59, -20.63, -30.42, -19.13, -27.34, -25.88, -21.08, -25.35, -27.02, -0.024, 0.948, 0.020, 16:49:22.167
130, -22.66, -36.14, -20.50, -19.00, -28.95, -15.65, -22.02, -29.59, -20.54, -30.20, -18.98, -27.45, -25.73, -21.17, -25.57, -27.05, 0.000, 0.000, 0.000, 16:49:22.167
131, -22.66, -36.23, -20.32, -19.02, -28.72, -15.29, -21.93, -29.41, -20.54, -30.20, -18.98, -27.45, -25.73, -21.17, -25.57, -27.05, 0.000, 0.000, 0.000, 16:49:22.167
132, -22.66, -36.23, -20.32, -19.02, -28.72, -15.29, -21.93, -29.41, -20.50, -30.26, -19.13, -27.43, -25.59, -21.30, -25.50, -27.22, 0.000, 0.000, 0.000, 16:49:22.167
133, -23.02, -36.34, -20.52, -18.84, -29.03, -15.31, -22.06, -29.39, -20.50, -30.26, -19.13, -27.43, -25.59, -21.30, -25.50, -27.22, 0.000, 0.000, 0.000, 16:49:22.168
134, -23.02, -36.34, -20.52, -18.84, -29.03, -15.31, -22.06, -29.39, -20.61, -30.15, -19.13, -27.38, -25.77, -21.19, -25.37, -27.29, 0.000, 0.000, 0.000, 16:49:22.168
135, -22.96, -36.28, -20.50, -19.20, -28.97, -15.42, -22.08, -29.44, -20.61, -30.15, -19.13, -27.38, -25.77, -21.19, -25.37, -27.29, 0.000, 0.000, 0.000, 16:49:22.168
136, -22.96, -36.28, -20.50, -19.20, -28.97, -15.42, -22.08, -29.44, -20.63, -30.31, -19.13, -27.36, -25.46, -21.14, -25.39, -27.07, 0.000, 0.000, 0.000, 16:49:22.168
137, -22.78, -36.28, -20.59, -19.07, -28.97, -15.36, -22.02, -29.59, -20.63, -30.31, -19.13, -27.36, -25.46, -21.14, -25.39, -27.07, 0.000, 0.000, 0.000, 16:49:22.168
138, -22.78, -36.28, -20.59, -19.07, -28.97, -15.36, -22.02, -29.59, -20.45, -30.17, -19.29, -27.20, -25.57, -21.12, -25.35, -26.98, 0.000, 0.000, 0.000, 16:49:22.168
139, -22.84, -35.96, -20.63, -19.07, -28.79, -15.58, -22.04, -29.73, -20.45, -30.17, -19.29, -27.20, -25.57, -21.12, -25.35, -26.98, -0.024, 0.944, 0.016, 16:49:22.169
140, -22.84, -35.96, -20.63, -19.07, -28.79, -15.58, -22.04, -29.73, -20.65, -30.15, -19.18, -27.29, -25.93, -21.10, -25.37, -27.20, 0.000, 0.000, 0.000, 16:49:22.169
141, -22.82, -36.17, -20.52, -18.93, -28.99, -15.42, -22.24, -29.62, -20.65, -30.15, -19.18, -27.29, -25.93, -21.10, -25.37, -27.20, 0.000, 0.000, 0.000, 16:49:22.169
142, -22.82, -36.17, -20.52, -18.93, -28.99, -15.42, -22.24, -29.62, -20.50, -30.20, -19.16, -27.34, -25.53, -21.17, -25.30, -27.25, 0.000, 0.000, 0.000, 16:49:22.169
143, -22.75, -36.30, -20.45, -18.91, -28.95, -15.58, -22.06, -29.50, -20.50, -30.20, -19.16, -27.34, -25.53, -21.17, -25.30, -27.25, 0.000, 0.000, 0.000, 16:49:22.169
144, -22.75, -36.30, -20.45, -18.91, -28.95, -15.58, -22.06, -29.50, -20.74, -30.17, -19.24, -27.27, -25.55, -21.23, -25.32, -27.20, 0.000, 0.000, 0.000, 16:49:22.169
145, -23.11, -36.19, -20.23, -18.98, -29.06, -15.45, -21.93, -29.46, -20.74, -30.17, -19.24, -27.27, -25.55, -21.23, -25.32, -27.20, 0.000, 0.000, 0.000, 16:49:22.170
146, -23.11, -36.19, -20.23, -18.98, -29.06, -15.45, -21.93, -29.46, -20.52, -30.29, -19.16, -27.34, -25.62, -21.12, -25.39, -27.07, 0.000, 0.000, 0.000, 16:49:22.170
147, -22.80, -35.94, -20.54, -18.86, -28.90, -15.36, -22.04, -29.44, -20.52, -30.29, -19.16, -27.34, -25.62, -21.12, -25.39, -27.07, 0.000, 0.000, 0.000, 16:49:22.170
148, -22.80, -35.94, -20.54, -18.86, -28.90, -15.36, -22.04, -29.44, -20.50, -30.31, -19.22, -27.31, -25.70, -21.03, -25.53, -27.09, 0.000, 0.000, 0.000, 16:49:22.170
149, -22.91, -36.08, -20.54, -19.00, -29.01, -15.53, -21.90, -29.59, -20.50, -30.31, -19.22, -27.31, -25.70, -21.03, -25.53, -27.09, -0.026, 0.946, 0.012, 16:49:22.170
150, -22.91, -36.08, -20.54, -19.00, -29.01, -15.53, -21.90, -29.59, -20.56, -30.00, -19.13, -27.16, -25.62, -21.08, -25.44, -27.09, 0.000, 0.000, 0.000, 16:49:22.170
151, -22.84, -36.08, -20.30, -18.78, -28.86, -15.65, -21.97, -29.62, -20.56, -30.00, -19.13, -27.16, -25.62, -21.08, -25.44, -27.09, 0.000, 0.000, 0.000, 16:49:22.171
152, -22.84, -36.08, -20.30, -18.78, -28.86, -15.65, -21.97, -29.62, -20.65, -30.06, -19.07, -27.05, -25.79, -21.19, -25.37, -27.25, 0.000, 0.000, 0.000, 16:49:22.171
153, -22.78, -36.34, -20.52, -18.95, -28.95, -15.47, -22.13, -29.53, -20.65, -30.06, -19.07, -27.05, -25.79, -21.19, -25.37, -27.25, 0.000, 0.000, 0.000, 16:49:22.171
154, -22.78, -36.34, -20.52, -18.95, -28.95, -15.47, -22.13, -29.53, -20.76, -30.20, -19.11, -27.36, -25.77, -21.14, -25.55, -27.29, 0.000, 0.000, 0.000, 16:49:22.171
155, -22.64, -36.19, -20.56, -19.13, -28.83, -15.15, -22.13, -29.57, -20.76, -30.20, -19.11, -27.36, -25.77, -21.14, -25.55, -27.29, 0.000, 0.000, 0.000, 16:49:22.171
156, -22.64, -36.19, -20.56, -19.13, -28.83, -15.15, -22.13, -29.57, -20.70, -30.17, -19.22, -27.40, -25.68, -21.19, -25.32, -27.07, 0.000, 0.000, 0.000, 16:49:22.171
157, -22.58, -36.17, -20.61, -18.86, -28.88, -15.22, -22.13, -29.79, -20.70, -30.17, -19.22, -27.40, -25.68, -21.19, -25.32, -27.07, 0.000, 0.000, 0.000, 16:49:22.172
158, -22.58, -36.17, -20.61, -18.86, -28.88, -15.22, -22.13, -29.79, -20.52, -30.38, -19.07, -27.09, -25.79, -21.19, -25.59, -27.27, 0.000, 0.000, 0.000, 16:49:22.172
159, -22.69, -36.23, -20.52, -18.93, -28.86, -15.27, -22.08, -29.64, -20.52, -30.38, -19.07, -27.09, -25.79, -21.19, -25.59, -27.27, -0.028, 0.948, 0.022, 16:49:22.172
160, -22.69, -36.23, -20.52, -18.93, -28.86, -15.27, -22.08, -29.64, -20.56, -30.33, -19.09, -27.09, -25.62, -21.23, -25.46, -27.14, 0.000, 0.000, 0.000, 16:49:22.172
161, -22.78, -36.05, -20.52, -18.84, -28.99, -15.45, -22.04, -29.64, -20.56, -30.33, -19.09, -27.09, -25.62, -21.23, -25.46, -27.14, 0.000, 0.000, 0.000, 16:49:22.172
162, -22.78, -36.05, -20.52, -18.84, -28.99, -15.45, -22.04, -29.64, -20.45, -30.20, -19.16, -27.40, -25.59, -21.17, -25.48, -27.09, 0.000, 0.000, 0.000, 16:49:22.172
163, -22.87, -36.14, -20.68, -18.78, -28.92, -15.33, -21.90, -29.62, -20.45, -30.20, -19.16, -27.40, -25.59, -21.17, -25.48, -27.09, 0.000, 0.000, 0.000, 16:49:22.173
164, -22.87, -36.14, -20.68, -18.78, -28.92, -15.33, -21.90, -29.62, -20.43, -30.55, -19.09, -27.25, -25.73, -21.06, -25.37, -27.22, 0.000, 0.000, 0.000, 16:49:22.173
165, -22.71, -36.14, -20.52, -18.95, -28.83, -15.24, -21.90, -29.44, -20.43, -30.55, -19.09, -27.25, -25.73, -21.06, -25.37, -27.22, 0.000, 0.000, 0.000, 16:49:22.173
166, -22.71, -36.14, -20.52, -18.95, -28.83, -15.24, -21.90, -29.44, -20.59, -30.42, -19.09, -27.43, -25.79, -21.08, -25.26, -27.22, 0.000, 0.000, 0.000, 16:49:22.173
167, -22.73, -36.39, -20.43, -18.98, -28.97, -15.40, -22.06, -29.48, -20.59, -30.42, -19.09, -27.43, -25.79, -21.08, -25.26, -27.22, 0.000, 0.000, 0.000, 16:49:22.173
168, -22.73, -36.39, -20.43, -18.98, -28.97, -15.40, -22.06, -29.48, -20.56, -30.17, -19.02, -27.29, -25.68, -21.17, -25.46, -27.02, -0.028, 0.946, 0.020, 16:49:22.173
169, -22.87, -36.17, -20.63, -18.98, -28.90, -15.45, -21.84, -29.64, -20.56, -30.17, -19.02, -27.29, -25.68, -21.17, -25.46, -27.02, 0.000, 0.000, 0.000, 16:49:22.174
170, -22.87, -36.17, -20.63, -18.98, -28.90, -15.45, -21.84, -29.64, -20.81, -30.24, -19.13, -27.56, -25.59, -20.88, -25.53, -27.18, 0.000, 0.000, 0.000, 16:49:22.174
171, -22.80, -36.12, -20.63, -19.13, -28.86, -15.40, -22.22, -29.79, -20.81, -30.24, -19.13, -27.56, -25.59, -20.88, -25.53, -27.18, 0.000, 0.000, 0.000, 16:49:22.174
172, -22.80, -36.12, -20.63, -19.13, -28.86, -15.40, -22.22, -29.79, -20.83, -30.29, -19.16, -27.31, -25.57, -21.19, -25.44, -27.31, 0.000, 0.000, 0.000, 16:49:22.175
173, -22.71, -36.14, -20.59, -18.82, -28.92, -15.56, -22.13, -29.62, -20.83, -30.29, -19.16, -27.31, -25.57, -21.19, -25.44, -27.31, 0.000, 0.000, 0.000, 16:49:22.175
174, -22.71, -36.14, -20.59, -18.82, -28.92, -15.56, -22.13, -29.62, -20.45, -30.35, -19.13, -27.43, -25.62, -21.23, -25.24, -27.20, 0.000, 0.000, 0.000, 16:49:22.175
175, -22.89, -36.41, -20.56, -19.07, -29.06, -15.51, -22.15, -29.57, -20.45, -30.35, -19.13, -27.43, -25.62, -21.23, -25.24, -27.20, 0.000, 0.000, 0.000, 16:49:22.176
176, -22.89, -36.41, -20.56, -19.07, -29.06, -15.51, -22.15, -29.57, -20.47, -30.29, -19.18, -27.31, -25.73, -21.12, -25.41, -27.36, 0.000, 0.000, 0.000, 16:49:22.176
177, -22.80, -36.32, -20.50, -19.00, -29.08, -15.38, -22.08, -29.53, -20.47, -30.29, -19.18, -27.31, -25.73, -21.12, -25.41, -27.36, 0.000, 0.000, 0.000, 16:49:22.176
178, -22.80, -36.32, -20.50, -19.00, -29.08, -15.38, -22.08, -29.53, -20.65, -30.29, -19.16, -27.47, -25.84, -21.14, -25.41, -27.16, -0.028, 0.948, 0.022, 16:49:22.176
179, -22.80, -36.12, -20.36, -19.04, -28.74, -15.38, -22.24, -29.55, -20.65, -30.29, -19.16, -27.47, -25.84, -21.14, -25.41, -27.16, 0.000, 0.000, 0.000, 16:49:22.177
180, -22.80, -36.12, -20.36, -19.04, -28.74, -15.38, -22.24, -29.55, -20.38, -30.51, -19.22, -27.31, -25.79, -21.12, -25.37, -27.18, 0.000, 0.000, 0.000, 16:49:22.177
181, -22.82, -36.08, -20.47, -18.86, -28.74, -15.49, -22.15, -29.53, -20.38, -30.51, -19.22, -27.31, -25.79, -21.12, -25.37, -27.18, 0.000, 0.000, 0.000, 16:49:22.177
182, -22.82, -36.08, -20.47, -18.86, -28.74, -15.49, -22.15, -29.53, -20.61, -30.17, -19.09, -27.31, -25.73, -20.97, -25.12, -27.22, 0.000, 0.000, 0.000, 16:49:22.177
183, -22.96, -36.12, -20.54, -18.91, -28.95, -15.58, -22.20, -29.64, -20.61, -30.17, -19.09, -27.31, -25.73, -20.97, -25.12, -27.22, 0.000, 0.000, 0.000, 16:49:22.177
184, -22.96, -36.12, -20.54, -18.91, -28.95, -15.58, -22.20, -29.64, -20.52, -30.24, -19.20, -27.25, -25.70, -21.06, -25.30, -27.29, 0.000, 0.000, 0.000, 16:49:22.177
185, -22.84, -35.96, -20.52, -19.09, -28.72, -15.45, -22.04, -29.64, -20.52, -30.24, -19.20, -27.25, -25.70, -21.06, -25.30, -27.29, 0.000, 0.000, 0.000, 16:49:22.178
186, -22.84, -35.96, -20.52, -19.09, -28.72, -15.45, -22.04, -29.64, -20.25, -30.35, -19.31, -27.36, -25.82, -20.94, -25.44, -27.20, 0.000, 0.000, 0.000, 16:49:22.178
187, -22.62, -36.01, -20.61, -18.78, -28.92, -15.42, -21.95, -29.48, -20.25, -30.35, -19.31, -27.36, -25.82, -20.94, -25.44, -27.20, 0.000, 0.000, 0.000, 16:49:22.178
188, -22.62, -36.01, -20.61, -18.78, -28.92, -15.42, -21.95, -29.48, -20.43, -30.13, -19.18, -27.31, -25.77, -21.10, -25.50, -27.07, -0.028, 0.952, 0.018, 16:49:22.178
189, -22.49, -35.99, -20.52, -18.89, -28.90, -15.51, -21.90, -29.50, -20.43, -30.13, -19.18, -27.31, -25.77, -21.10, -25.50, -27.07, 0.000, 0.000, 0.000, 16:49:22.178
190, -22.49, -35.99, -20.52, -18.89, -28.90, -15.51, -21.90, -29.50, -20.41, -30.06, -19.11, -27.25, -25.93, -21.08, -25.44, -27.34, 0.000, 0.000, 0.000, 16:49:22.179
191, -22.73, -36.21, -20.63, -18.86, -28.79, -15.42, -21.97, -29.41, -20.41, -30.06, -19.11, -27.25, -25.93, -21.08, -25.44, -27.34, 0.000, 0.000, 0.000, 16:49:22.179
192, -22.73, -36.21, -20.63, -18.86, -28.79, -15.42, -21.97, -29.41, -20.59, -30.20, -19.11, -27.20, -26.11, -20.94, -25.32, -27.16, 0.000, 0.000, 0.000, 16:49:22.179
193, -22.66, -36.30, -20.61, -18.95, -28.95, -15.53, -21.86, -29.59, -20.59, -30.20, -19.11, -27.20, -26.11, -20.94, -25.32, -27.16, 0.000, 0.000, 0.000, 16:49:22.180
194, -22.66, -36.30, -20.61, -18.95, -28.95, -15.53, -21.86, -29.59, -20.47, -30.17, -19.09, -27.34, -25.70, -20.94, -25.46, -27.11, 0.000, 0.000, 0.000, 16:49:22.180
195, -22.58, -36.34, -20.54, -19.00, -28.81, -15.38, -22.02, -29.50, -20.47, -30.17, -19.09, -27.34, -25.70, -20.94, -25.46, -27.11, 0.000, 0.000, 0.000, 16:49:22.180
196, -22.58, -36.34, -20.54, -19.00, -28.81, -15.38, -22.02, -29.50, -20.76, -30.38, -19.07, -27.31, -25.68, -21.19, -25.30, -27.14, 0.000, 0.000, 0.000, 16:49:22.180
197, -22.69, -36.14, -20.59, -18.98, -28.81, -15.40, -21.97, -29.62, -20.76, -30.38, -19.07, -27.31, -25.68, -21.19, -25.30, -27.14, 0.000, 0.000, 0.000, 16:49:22.181
198, -22.69, -36.14, -20.59, -18.98, -28.81, -15.40, -21.97, -29.62, -20.54, -30.38, -19.04, -27.25, -25.75, -21.10, -25.37, -27.20, -0.026, 0.954, 0.018, 16:49:22.181
199, -22.73, -36.05, -20.36, -19.00, -28.99, -15.67, -21.97, -29.53, -20.54, -30.38, -19.04, -27.25, -25.75, -21.10, -25.37, -27.20, 0.000, 0.000, 0.000, 16:49:22.181
200, -22.73, -36.05, -20.36, -19.00, -28.99, -15.67, -21.97, -29.53, -20.36, -30.26, -19.00, -27.47, -25.75, -21.23, -25.39, -27.51, 0.000, 0.000, 0.000, 16:49:22.181
201, -22.75, -35.99, -20.47, -19.00, -28.97, -15.42, -22.04, -29.53, -20.36, -30.26, -19.00, -27.47, -25.75, -21.23, -25.39, -27.51, 0.000, 0.000, 0.000, 16:49:22.182
202, -22.75, -35.99, -20.47, -19.00, -28.97, -15.42, -22.04, -29.53, -20.56, -30.17, -19.24, -27.38, -25.73, -21.23, -25.44, -27.34, 0.000, 0.000, 0.000, 16:49:22.182
203, -22.91, -36.14, -20.68, -18.95, -29.03, -15.60, -22.13, -29.64, -20.56, -30.17, -19.24, -27.38, -25.73, -21.23, -25.44, -27.34, 0.000, 0.000, 0.000, 16:49:22.182
204, -22.91, -36.14, -20.68, -18.95, -29.03, -15.60, -22.13, -29.64, -20.32, -30.09, -18.95, -27.47, -25.62, -20.88, -25.35, -27.38, 0.000, 0.000, 0.000, 16:49:22.183
205, -22.69, -36.10, -20.59, -18.95, -29.01, -15.38, -22.15, -29.64, -20.32, -30.09, -18.95, -27.47, -25.62, -20.88, -25.35, -27.38, 0.000, 0.000, 0.000, 16:49:22.183
