%OpenBCI Raw EEG Data
%
%Sample Rate = 250.0 Hz
%First Column = SampleIndex
%Last Column = Timestamp 
%Other Columns = EEG data in microvolts followed by Accel Data (in G) interleaved with Aux Data
0, 0.00, 0.00, 0.00, 0.00, 0.00, 0.00, 0.00, 0.00, -22988.23, -20656.19, 65134.75, -22240.39, 28265.86, -25332.57, 67418.20, 4321.91, -0.002, 0.888, -0.210, 14:53:34.258
1, 0.00, -17.52, -10.44, -9.81, -14.22, -8.36, -11.15, -14.84, -22988.23, -20656.19, 65134.75, -22240.39, 28265.86, -25332.57, 67418.20, 4321.91, 0.000, 0.000, 0.000, 14:53:34.735
2, 0.00, -17.52, -10.44, -9.81, -14.22, -8.36, -11.15, -14.84, -20.88, -27.78, -22.84, -32.97, -26.31, -21.93, -25.15, -19.24, 0.000, 0.000, 0.000, 14:53:34.735
3, 0.00, -34.87, -20.83, -19.78, -28.30, -16.79, -22.35, -29.68, -20.88, -27.78, -22.84, -32.97, -26.31, -21.93, -25.15, -19.24, 0.000, 0.000, 0.000, 14:53:34.736
4, 0.00, -34.87, -20.83, -19.78, -28.30, -16.79, -22.35, -29.68, -20.97, -27.98, -22.87, -33.08, -26.33, -22.02, -25.17, -19.31, 0.000, 0.000, 0.000, 14:53:34.736
5, 0.00, -34.76, -20.94, -19.80, -28.16, -16.50, -22.13, -29.68, -20.97, -27.98, -22.87, -33.08, -26.33, -22.02, -25.17, -19.31, 0.000, 0.000, 0.000, 14:53:34.737
6, 0.00, -34.76, -20.94, -19.80, -28.16, -16.50, -22.13, -29.68, -20.88, -27.87, -22.87, -32.86, -26.22, -21.75, -25.35, -19.36, 0.000, 0.000, 0.000, 14:53:34.737
7, 0.00, -35.09, -20.72, -19.94, -28.16, -16.43, -22.35, -29.64, -20.88, -27.87, -22.87, -32.86, -26.22, -21.75, -25.35, -19.36, -0.068, 0.936, 0.012, 14:53:34.738
8, 0.00, -35.09, -20.72, -19.94, -28.16, -16.43, -22.35, -29.64, -20.97, -27.74, -22.98, -33.10, -26.22, -21.90, -25.28, -19.29, 0.000, 0.000, 0.000, 14:53:34.738
9, 0.00, -35.09, -20.81, -19.85, -28.14, -16.67, -22.24, -29.71, -20.97, -27.74, -22.98, -33.10, -26.22, -21.90, -25.28, -19.29, 0.000, 0.000, 0.000, 14:53:34.738
10, 0.00, -35.09, -20.81, -19.85, -28.14, -16.67, -22.24, -29.71, -20.99, -28.01, -22.80, -33.04, -26.46, -22.04, -25.19, -19.42, 0.000, 0.000, 0.000, 14:53:34.739
11, 0.00, -35.23, -20.85, -19.89, -28.41, -16.52, -22.53, -29.68, -20.99, -28.01, -22.80, -33.04, -26.46, -22.04, -25.19, -19.42, 0.000, 0.000, 0.000, 14:53:34.740
12, 0.00, -35.23, -20.85, -19.89, -28.41, -16.52, -22.53, -29.68, -20.79, -27.94, -22.80, -32.86, -26.29, -22.11, -25.19, -19.42, 0.000, 0.000, 0.000, 14:53:34.740
13, 0.00, -34.91, -20.74, -19.76, -28.23, -16.63, -22.55, -29.73, -20.79, -27.94, -22.80, -32.86, -26.29, -22.11, -25.19, -19.42, 0.000, 0.000, 0.000, 14:53:34.740
14, 0.00, -34.91, -20.74, -19.76, -28.23, -16.63, -22.55, -29.73, -20.92, -27.78, -22.84, -32.81, -26.49, -22.11, -25.32, -19.47, 0.000, 0.000, 0.000, 14:53:34.741
15, 0.00, -35.05, -20.68, -19.78, -28.34, -16.79, -22.33, -29.66, -20.92, -27.78, -22.84, -32.81, -26.49, -22.11, -25.32, -19.47, 0.000, 0.000, 0.000, 14:53:34.741
16, 0.00, -35.05, -20.68, -19.78, -28.34, -16.79, -22.33, -29.66, -20.97, -28.14, -23.00, -32.88, -26.22, -22.26, -25.30, -19.45, 0.000, 0.000, 0.000, 14:53:34.741
17, 0.00, -34.96, -20.74, -19.54, -28.52, -16.63, -22.20, -29.55, -20.97, -28.14, -23.00, -32.88, -26.22, -22.26, -25.30, -19.45, -0.072, 0.940, 0.016, 14:53:34.742
18, 0.00, -34.96, -20.74, -19.54, -28.52, -16.63, -22.20, -29.55, -20.76, -28.03, -22.96, -32.83, -26.29, -22.06, -25.06, -19.36, 0.000, 0.000, 0.000, 14:53:34.742
19, 0.00, -34.73, -20.65, -19.69, -28.68, -16.63, -22.31, -29.75, -20.76, -28.03, -22.96, -32.83, -26.29, -22.06, -25.06, -19.36, 0.000, 0.000, 0.000, 14:53:34.742
20, 0.00, -34.73, -20.65, -19.69, -28.68, -16.63, -22.31, -29.75, -20.70, -27.65, -23.02, -32.88, -26.11, -22.11, -25.24, -19.49, 0.000, 0.000, 0.000, 14:53:34.743
21, 0.00, -35.03, -20.61, -19.69, -28.48, -16.70, -22.37, -29.66, -20.70, -27.65, -23.02, -32.88, -26.11, -22.11, -25.24, -19.49, 0.000, 0.000, 0.000, 14:53:34.743
22, 0.00, -35.03, -20.61, -19.69, -28.48, -16.70, -22.37, -29.66, -20.88, -27.83, -22.87, -32.90, -26.22, -22.06, -25.28, -19.33, 0.000, 0.000, 0.000, 14:53:34.743
23, 0.00, -34.94, -20.72, -19.62, -28.16, -16.50, -22.44, -29.64, -20.88, -27.83, -22.87, -32.90, -26.22, -22.06, -25.28, -19.33, 0.000, 0.000, 0.000, 14:53:34.743
24, 0.00, -34.94, -20.72, -19.62, -28.16, -16.50, -22.44, -29.64, -21.12, -28.05, -22.80, -32.86, -26.13, -21.93, -25.12, -19.31, 0.000, 0.000, 0.000, 14:53:34.744
25, 0.00, -35.11, -20.63, -19.87, -28.27, -16.47, -22.15, -29.62, -21.12, -28.05, -22.80, -32.86, -26.13, -21.93, -25.12, -19.31, 0.000, 0.000, 0.000, 14:53:34.744
26, 0.00, -35.11, -20.63, -19.87, -28.27, -16.47, -22.15, -29.62, -20.79, -28.01, -22.98, -33.17, -26.35, -21.77, -25.24, -19.42, 0.000, 0.000, 0.000, 14:53:34.744
27, 0.00, -34.82, -20.68, -19.71, -28.34, -16.50, -22.26, -29.73, -20.79, -28.01, -22.98, -33.17, -26.35, -21.77, -25.24, -19.42, -0.072, 0.944, 0.012, 14:53:34.745
28, 0.00, -34.82, -20.68, -19.71, -28.34, -16.50, -22.26, -29.73, -20.92, -27.83, -22.91, -32.75, -26.46, -21.88, -25.01, -19.33, 0.000, 0.000, 0.000, 14:53:34.745
29, 0.00, -34.87, -20.94, -19.71, -28.36, -16.56, -22.37, -29.82, -20.92, -27.83, -22.91, -32.75, -26.46, -21.88, -25.01, -19.33, 0.000, 0.000, 0.000, 14:53:34.745
30, 0.00, -34.87, -20.94, -19.71, -28.36, -16.56, -22.37, -29.82, -20.99, -28.03, -23.00, -32.86, -26.29, -21.84, -25.30, -19.40, 0.000, 0.000, 0.000, 14:53:34.746
31, 0.00, -34.89, -20.88, -19.62, -28.59, -16.43, -22.22, -29.46, -20.99, -28.03, -23.00, -32.86, -26.29, -21.84, -25.30, -19.40, 0.000, 0.000, 0.000, 14:53:34.746
32, 0.00, -34.89, -20.88, -19.62, -28.59, -16.43, -22.22, -29.46, -21.12, -28.01, -22.93, -32.99, -26.42, -21.84, -25.28, -19.42, 0.000, 0.000, 0.000, 14:53:34.747
33, 0.00, -35.00, -20.68, -19.51, -28.52, -16.52, -22.35, -29.57, -21.12, -28.01, -22.93, -32.99, -26.42, -21.84, -25.28, -19.42, 0.000, 0.000, 0.000, 14:53:34.747
34, 0.00, -35.00, -20.68, -19.51, -28.52, -16.52, -22.35, -29.57, -20.97, -28.01, -22.96, -32.99, -26.11, -22.11, -25.19, -19.47, 0.000, 0.000, 0.000, 14:53:34.748
35, 0.00, -35.05, -20.68, -19.80, -28.45, -16.43, -22.31, -29.44, -20.97, -28.01, -22.96, -32.99, -26.11, -22.11, -25.19, -19.47, 0.000, 0.000, 0.000, 14:53:34.748
36, 0.00, -35.05, -20.68, -19.80, -28.45, -16.43, -22.31, -29.44, -20.79, -28.10, -22.91, -32.95, -26.29, -22.02, -25.15, -19.27, 0.000, 0.000, 0.000, 14:53:34.748
37, 0.00, -35.00, -20.85, -19.71, -28.45, -16.43, -22.55, -29.66, -20.79, -28.10, -22.91, -32.95, -26.29, -22.02, -25.15, -19.27, -0.070, 0.938, 0.014, 14:53:34.749
38, 0.00, -35.00, -20.85, -19.71, -28.45, -16.43, -22.55, -29.66, -21.01, -27.89, -23.00, -33.15, -26.35, -22.13, -25.30, -19.36, 0.000, 0.000, 0.000, 14:53:34.749
39, 0.00, -34.98, -20.83, -19.76, -28.23, -16.54, -22.60, -29.71, -21.01, -27.89, -23.00, -33.15, -26.35, -22.13, -25.30, -19.36, 0.000, 0.000, 0.000, 14:53:34.749
40, 0.00, -34.98, -20.83, -19.76, -28.23, -16.54, -22.60, -29.71, -20.88, -27.69, -22.96, -33.04, -26.17, -21.82, -25.26, -19.33, 0.000, 0.000, 0.000, 14:53:34.750
41, 0.00, -34.87, -20.81, -19.67, -28.30, -16.63, -22.35, -29.71, -20.88, -27.69, -22.96, -33.04, -26.17, -21.82, -25.26, -19.33, 0.000, 0.000, 0.000, 14:53:34.750
42, 0.00, -34.87, -20.81, -19.67, -28.30, -16.63, -22.35, -29.71, -20.97, -27.96, -23.00, -32.61, -26.22, -22.20, -25.21, -19.27, 0.000, 0.000, 0.000, 14:53:34.751
43, 0.00, -35.07, -20.83, -19.80, -28.50, -16.45, -22.44, -29.64, -20.97, -27.96, -23.00, -32.61, -26.22, -22.20, -25.21, -19.27, 0.000, 0.000, 0.000, 14:53:34.751
44, 0.00, -35.07, -20.83, -19.80, -28.50, -16.45, -22.44, -29.64, -21.19, -27.89, -22.73, -32.86, -26.02, -21.88, -25.15, -19.45, 0.000, 0.000, 0.000, 14:53:34.752
45, 0.00, -35.11, -20.92, -19.69, -28.48, -16.45, -22.44, -29.68, -21.19, -27.89, -22.73, -32.86, -26.02, -21.88, -25.15, -19.45, 0.000, 0.000, 0.000, 14:53:34.752
46, 0.00, -35.11, -20.92, -19.69, -28.48, -16.45, -22.44, -29.68, -20.63, -27.83, -22.96, -32.86, -26.04, -22.13, -25.55, -19.27, 0.000, 0.000, 0.000, 14:53:34.752
47, 0.00, -34.94, -20.88, -19.58, -28.41, -16.56, -22.37, -29.77, -20.63, -27.83, -22.96, -32.86, -26.04, -22.13, -25.55, -19.27, -0.060, 0.948, 0.022, 14:53:34.753
48, 0.00, -34.94, -20.88, -19.58, -28.41, -16.56, -22.37, -29.77, -20.83, -27.94, -22.78, -32.99, -26.24, -21.77, -25.41, -19.60, 0.000, 0.000, 0.000, 14:53:34.753
49, 0.00, -35.03, -20.63, -19.69, -28.27, -16.41, -22.20, -29.71, -20.83, -27.94, -22.78, -32.99, -26.24, -21.77, -25.41, -19.60, 0.000, 0.000, 0.000, 14:53:34.753
50, 0.00, -35.03, -20.63, -19.69, -28.27, -16.41, -22.20, -29.71, -20.76, -27.94, -22.73, -32.86, -26.20, -21.70, -25.21, -19.67, 0.000, 0.000, 0.000, 14:53:34.754
51, 0.00, -34.98, -20.74, -19.85, -28.30, -16.45, -22.55, -29.73, -20.76, -27.94, -22.73, -32.86, -26.20, -21.70, -25.21, -19.67, 0.000, 0.000, 0.000, 14:53:34.754
52, 0.00, -34.98, -20.74, -19.85, -28.30, -16.45, -22.55, -29.73, -20.97, -27.94, -22.80, -32.97, -26.24, -21.93, -25.35, -19.42, 0.000, 0.000, 0.000, 14:53:34.755
53, 0.00, -34.94, -20.72, -19.83, -28.70, -16.41, -22.46, -29.64, -20.97, -27.94, -22.80, -32.97, -26.24, -21.93, -25.35, -19.42, 0.000, 0.000, 0.000, 14:53:34.755
54, 0.00, -34.94, -20.72, -19.83, -28.70, -16.41, -22.46, -29.64, -20.68, -27.98, -22.75, -32.81, -26.29, -21.77, -25.26, -19.38, 0.000, 0.000, 0.000, 14:53:34.756
55, 0.00, -35.32, -20.61, -19.67, -28.39, -16.43, -22.46, -29.62, -20.68, -27.98, -22.75, -32.81, -26.29, -21.77, -25.26, -19.38, 0.000, 0.000, 0.000, 14:53:34.756
56, 0.00, -35.32, -20.61, -19.67, -28.39, -16.43, -22.46, -29.62, -20.85, -27.83, -23.09, -32.95, -26.20, -21.97, -25.03, -19.54, 0.000, 0.000, 0.000, 14:53:34.756
57, 0.00, -35.07, -20.63, -19.89, -28.41, -16.43, -22.44, -29.82, -20.85, -27.83, -23.09, -32.95, -26.20, -21.97, -25.03, -19.54, -0.058, 0.950, 0.020, 14:53:34.757
58, 0.00, -35.07, -20.63, -19.89, -28.41, -16.43, -22.44, -29.82, -21.10, -28.05, -22.78, -32.86, -26.35, -21.79, -25.12, -19.36, 0.000, 0.000, 0.000, 14:53:34.757
59, 0.00, -34.96, -20.79, -19.74, -28.34, -16.61, -22.20, -29.77, -21.10, -28.05, -22.78, -32.86, -26.35, -21.79, -25.12, -19.36, 0.000, 0.000, 0.000, 14:53:34.757
60, 0.00, -34.96, -20.79, -19.74, -28.34, -16.61, -22.20, -29.77, -20.97, -28.12, -22.91, -32.97, -26.53, -22.02, -25.24, -19.31, 0.000, 0.000, 0.000, 14:53:34.757
61, 0.00, -34.87, -20.79, -19.85, -28.32, -16.36, -22.17, -29.73, -20.97, -28.12, -22.91, -32.97, -26.53, -22.02, -25.24, -19.31, 0.000, 0.000, 0.000, 14:53:34.758
62, 0.00, -34.87, -20.79, -19.85, -28.32, -16.36, -22.17, -29.73, -20.83, -27.83, -22.93, -32.75, -26.53, -21.86, -25.24, -19.38, 0.000, 0.000, 0.000, 14:53:34.758
63, 0.00, -34.80, -20.70, -20.05, -28.19, -16.38, -22.31, -29.55, -20.83, -27.83, -22.93, -32.75, -26.53, -21.86, -25.24, -19.38, 0.000, 0.000, 0.000, 14:53:34.758
64, 0.00, -34.80, -20.70, -20.05, -28.19, -16.38, -22.31, -29.55, -20.79, -27.74, -22.89, -32.99, -26.15, -21.97, -25.08, -19.31, 0.000, 0.000, 0.000, 14:53:34.759
65, 0.00, -34.94, -20.52, -19.83, -28.45, -16.50, -22.31, -29.84, -20.79, -27.74, -22.89, -32.99, -26.15, -21.97, -25.08, -19.31, 0.000, 0.000, 0.000, 14:53:34.759
66, 0.00, -34.94, -20.52, -19.83, -28.45, -16.50, -22.31, -29.84, -20.92, -27.76, -23.00, -32.72, -26.24, -21.77, -25.17, -19.54, 0.000, 0.000, 0.000, 14:53:34.759
67, 0.00, -34.82, -20.68, -19.76, -28.27, -16.58, -22.37, -29.53, -20.92, -27.76, -23.00, -32.72, -26.24, -21.77, -25.17, -19.54, -0.064, 0.952, 0.018, 14:53:34.760
68, 0.00, -34.82, -20.68, -19.76, -28.27, -16.58, -22.37, -29.53, -20.94, -28.05, -23.20, -32.70, -26.17, -22.06, -25.17, -19.38, 0.000, 0.000, 0.000, 14:53:34.760
69, 0.00, -35.20, -20.74, -19.65, -28.36, -16.70, -22.26, -29.75, -20.94, -28.05, -23.20, -32.70, -26.17, -22.06, -25.17, -19.38, 0.000, 0.000, 0.000, 14:53:34.760
70, 0.00, -35.20, -20.74, -19.65, -28.36, -16.70, -22.26, -29.75, -20.81, -27.83, -22.80, -32.68, -26.24, -21.68, -25.03, -19.36, 0.000, 0.000, 0.000, 14:53:34.761
71, 0.00, -35.03, -20.85, -19.80, -28.25, -16.50, -22.26, -29.41, -20.81, -27.83, -22.80, -32.68, -26.24, -21.68, -25.03, -19.36, 0.000, 0.000, 0.000, 14:53:34.761
72, 0.00, -35.03, -20.85, -19.80, -28.25, -16.50, -22.26, -29.41, -20.83, -27.81, -22.91, -33.01, -26.20, -21.93, -25.21, -19.29, 0.000, 0.000, 0.000, 14:53:34.761
73, 0.00, -35.07, -20.50, -19.80, -28.41, -16.43, -22.33, -29.62, -20.83, -27.81, -22.91, -33.01, -26.20, -21.93, -25.21, -19.29, 0.000, 0.000, 0.000, 14:53:34.762
74, 0.00, -35.07, -20.50, -19.80, -28.41, -16.43, -22.33, -29.62, -20.72, -27.94, -22.91, -33.04, -26.33, -22.02, -25.26, -19.31, 0.000, 0.000, 0.000, 14:53:34.762
75, 0.00, -35.00, -20.76, -19.85, -28.21, -16.54, -22.51, -29.66, -20.72, -27.94, -22.91, -33.04, -26.33, -22.02, -25.26, -19.31, 0.000, 0.000, 0.000, 14:53:34.762
76, 0.00, -35.00, -20.76, -19.85, -28.21, -16.54, -22.51, -29.66, -20.85, -27.74, -23.16, -32.95, -26.44, -21.86, -25.26, -19.45, 0.000, 0.000, 0.000, 14:53:34.763
77, 0.00, -34.96, -20.72, -19.71, -28.25, -16.58, -22.17, -29.57, -20.85, -27.74, -23.16, -32.95, -26.44, -21.86, -25.26, -19.45, -0.060, 0.954, 0.018, 14:53:34.763
78, 0.00, -34.96, -20.72, -19.71, -28.25, -16.58, -22.17, -29.57, -20.99, -27.85, -23.09, -32.92, -26.20, -21.57, -25.37, -19.42, 0.000, 0.000, 0.000, 14:53:34.763
79, 0.00, -34.87, -20.79, -19.87, -28.21, -16.52, -22.37, -29.84, -20.99, -27.85, -23.09, -32.92, -26.20, -21.57, -25.37, -19.42, 0.000, 0.000, 0.000, 14:53:34.764
80, 0.00, -34.87, -20.79, -19.87, -28.21, -16.52, -22.37, -29.84, -21.01, -27.85, -22.80, -32.75, -26.24, -21.70, -25.32, -19.31, 0.000, 0.000, 0.000, 14:53:34.764
81, 0.00, -35.00, -20.63, -19.83, -28.27, -16.45, -22.40, -29.71, -21.01, -27.85, -22.80, -32.75, -26.24, -21.70, -25.32, -19.31, 0.000, 0.000, 0.000, 14:53:34.764
82, 0.00, -35.00, -20.63, -19.83, -28.27, -16.45, -22.40, -29.71, -21.03, -27.94, -22.96, -32.86, -26.15, -21.99, -25.26, -19.22, 0.000, 0.000, 0.000, 14:53:34.765
83, 0.00, -35.00, -20.65, -19.69, -28.52, -16.54, -22.26, -29.46, -21.03, -27.94, -22.96, -32.86, -26.15, -21.99, -25.26, -19.22, 0.000, 0.000, 0.000, 14:53:34.765
84, 0.00, -35.00, -20.65, -19.69, -28.52, -16.54, -22.26, -29.46, -20.63, -27.94, -22.75, -33.04, -26.29, -21.97, -25.41, -19.31, 0.000, 0.000, 0.000, 14:53:34.765
85, 0.00, -34.96, -20.56, -19.92, -28.59, -16.72, -22.40, -29.59, -20.63, -27.94, -22.75, -33.04, -26.29, -21.97, -25.41, -19.31, 0.000, 0.000, 0.000, 14:53:34.765
86, 0.00, -34.96, -20.56, -19.92, -28.59, -16.72, -22.40, -29.59, -20.94, -28.05, -22.71, -32.90, -26.31, -21.61, -25.19, -19.36, 0.000, 0.000, 0.000, 14:53:34.765
87, 0.00, -34.89, -20.54, -19.60, -28.34, -16.54, -22.24, -29.53, -20.94, -28.05, -22.71, -32.90, -26.31, -21.61, -25.19, -19.36, -0.068, 0.944, 0.020, 14:53:34.766
88, 0.00, -34.89, -20.54, -19.60, -28.34, -16.54, -22.24, -29.53, -20.88, -27.87, -23.02, -32.72, -26.11, -21.84, -25.17, -19.42, 0.000, 0.000, 0.000, 14:53:34.766
89, 0.00, -35.09, -20.56, -19.67, -28.25, -16.63, -22.11, -29.57, -20.88, -27.87, -23.02, -32.72, -26.11, -21.84, -25.17, -19.42, 0.000, 0.000, 0.000, 14:53:34.766
90, 0.00, -35.09, -20.56, -19.67, -28.25, -16.63, -22.11, -29.57, -20.83, -27.87, -22.98, -32.90, -26.24, -21.77, -25.21, -19.31, 0.000, 0.000, 0.000, 14:53:34.766
91, 0.00, -35.05, -20.76, -19.71, -28.43, -16.54, -22.31, -29.55, -20.83, -27.87, -22.98, -32.90, -26.24, -21.77, -25.21, -19.31, 0.000, 0.000, 0.000, 14:53:34.767
92, 0.00, -35.05, -20.76, -19.71, -28.43, -16.54, -22.31, -29.55, -20.72, -28.07, -22.84, -32.88, -26.22, -21.86, -25.08, -19.40, 0.000, 0.000, 0.000, 14:53:34.767
93, 0.00, -34.85, -20.83, -19.69, -28.21, -16.67, -22.31, -29.59, -20.72, -28.07, -22.84, -32.88, -26.22, -21.86, -25.08, -19.40, 0.000, 0.000, 0.000, 14:53:34.767
94, 0.00, -34.85, -20.83, -19.69, -28.21, -16.67, -22.31, -29.59, -20.79, -28.12, -22.98, -33.01, -26.26, -21.79, -24.94, -19.49, 0.000, 0.000, 0.000, 14:53:34.767
95, 0.00, -34.76, -20.81, -19.80, -28.41, -16.65, -22.15, -29.59, -20.79, -28.12, -22.98, -33.01, -26.26, -21.79, -24.94, -19.49, 0.000, 0.000, 0.000, 14:53:34.767
96, 0.00, -34.76, -20.81, -19.80, -28.41, -16.65, -22.15, -29.59, -20.61, -27.98, -22.91, -33.10, -26.20, -21.86, -25.15, -19.56, 0.000, 0.000, 0.000, 14:53:34.768
97, 0.00, -35.03, -20.65, -19.60, -28.27, -16.56, -22.24, -29.57, -20.61, -27.98, -22.91, -33.10, -26.20, -21.86, -25.15, -19.56, -0.060, 0.942, 0.018, 14:53:34.768
98, 0.00, -35.03, -20.65, -19.60, -28.27, -16.56, -22.24, -29.57, -20.94, -27.92, -23.00, -32.86, -26.26, -21.84, -25.37, -19.38, 0.000, 0.000, 0.000, 14:53:34.768
99, 0.00, -34.98, -20.74, -19.67, -28.36, -16.54, -22.40, -29.64, -20.94, -27.92, -23.00, -32.86, -26.26, -21.84, -25.37, -19.38, 0.000, 0.000, 0.000, 14:53:34.768
100, 0.00, -34.98, -20.74, -19.67, -28.36, -16.54, -22.40, -29.64, -21.14, -28.07, -22.87, -32.72, -26.46, -22.15, -25.21, -19.36, 0.000, 0.000, 0.000, 14:53:34.769
101, 0.00, -34.71, -20.72, -19.47, -28.41, -16.58, -22.22, -29.55, -21.14, -28.07, -22.87, -32.72, -26.46, -22.15, -25.21, -19.36, 0.000, 0.000, 0.000, 14:53:34.769
102, 0.00, -34.71, -20.72, -19.47, -28.41, -16.58, -22.22, -29.55, -20.90, -27.92, -23.00, -33.01, -26.44, -22.04, -25.17, -19.31, 0.000, 0.000, 0.000, 14:53:34.770
103, 0.00, -34.96, -20.83, -19.85, -28.65, -16.74, -22.44, -29.64, -20.90, -27.92, -23.00, -33.01, -26.44, -22.04, -25.17, -19.31, 0.000, 0.000, 0.000, 14:53:34.770
104, 0.00, -34.96, -20.83, -19.85, -28.65, -16.74, -22.44, -29.64, -20.81, -27.74, -23.16, -33.06, -26.17, -21.95, -25.19, -19.29, 0.000, 0.000, 0.000, 14:53:34.770
105, 0.00, -34.96, -20.59, -19.78, -28.36, -16.58, -22.31, -29.55, -20.81, -27.74, -23.16, -33.06, -26.17, -21.95, -25.19, -19.29, 0.000, 0.000, 0.000, 14:53:34.771
106, 0.00, -34.96, -20.59, -19.78, -28.36, -16.58, -22.31, -29.55, -20.79, -27.92, -23.00, -32.95, -26.31, -21.88, -25.26, -19.45, -0.054, 0.942, 0.022, 14:53:34.771
107, 0.00, -34.76, -20.79, -19.87, -28.14, -16.74, -22.31, -29.77, -20.79, -27.92, -23.00, -32.95, -26.31, -21.88, -25.26, -19.45, 0.000, 0.000, 0.000, 14:53:34.771
108, 0.00, -34.76, -20.79, -19.87, -28.14, -16.74, -22.31, -29.77, -20.70, -27.74, -22.93, -32.70, -26.20, -21.88, -25.21, -19.40, 0.000, 0.000, 0.000, 14:53:34.772
109, 0.00, -34.96, -20.83, -19.78, -28.34, -16.70, -22.35, -29.84, -20.70, -27.74, -22.93, -32.70, -26.20, -21.88, -25.21, -19.40, 0.000, 0.000, 0.000, 14:53:34.772
110, 0.00, -34.96, -20.83, -19.78, -28.34, -16.70, -22.35, -29.84, -20.74, -27.92, -22.89, -32.90, -26.15, -22.02, -25.26, -19.29, 0.000, 0.000, 0.000, 14:53:34.773
111, 0.00, -34.80, -20.72, -19.62, -28.45, -16.70, -22.40, -29.79, -20.74, -27.92, -22.89, -32.90, -26.15, -22.02, -25.26, -19.29, 0.000, 0.000, 0.000, 14:53:34.773
112, 0.00, -34.80, -20.72, -19.62, -28.45, -16.70, -22.40, -29.79, -20.79, -28.01, -22.80, -33.01, -26.20, -21.95, -25.44, -19.36, 0.000, 0.000, 0.000, 14:53:34.773
113, 0.00, -34.76, -20.88, -19.85, -28.45, -16.47, -22.44, -29.68, -20.79, -28.01, -22.80, -33.01, -26.20, -21.95, -25.44, -19.36, 0.000, 0.000, 0.000, 14:53:34.774
114, 0.00, -34.76, -20.88, -19.85, -28.45, -16.47, -22.44, -29.68, -20.88, -27.98, -22.89, -33.08, -26.20, -22.13, -25.15, -19.45, 0.000, 0.000, 0.000, 14:53:34.774
115, 0.00, -34.87, -20.81, -19.62, -28.27, -16.50, -22.40, -29.62, -20.88, -27.98, -22.89, -33.08, -26.20, -22.13, -25.15, -19.45, 0.000, 0.000, 0.000, 14:53:34.774
116, 0.00, -34.87, -20.81, -19.62, -28.27, -16.50, -22.40, -29.62, -20.81, -27.94, -22.93, -32.95, -26.38, -21.90, -25.10, -19.45, -0.058, 0.944, 0.024, 14:53:34.775
117, 0.00, -34.82, -20.74, -19.67, -28.30, -16.58, -22.55, -29.55, -20.81, -27.94, -22.93, -32.95, -26.38, -21.90, -25.10, -19.45, 0.000, 0.000, 0.000, 14:53:34.775
118, 0.00, -34.82, -20.74, -19.67, -28.30, -16.58, -22.55, -29.55, -20.92, -27.76, -22.84, -32.95, -26.38, -21.97, -25.19, -19.36, 0.000, 0.000, 0.000, 14:53:34.775
119, 0.00, -35.05, -21.08, -19.60, -28.30, -16.50, -22.17, -29.86, -20.92, -27.76, -22.84, -32.95, -26.38, -21.97, -25.19, -19.36, 0.000, 0.000, 0.000, 14:53:34.776
120, 0.00, -35.05, -21.08, -19.60, -28.30, -16.50, -22.17, -29.86, -20.97, -27.96, -22.73, -32.79, -26.58, -21.90, -25.30, -19.36, 0.000, 0.000, 0.000, 14:53:34.776
121, 0.00, -34.98, -20.65, -19.62, -28.39, -16.52, -22.35, -29.93, -20.97, -27.96, -22.73, -32.79, -26.58, -21.90, -25.30, -19.36, 0.000, 0.000, 0.000, 14:53:35.215
122, 0.00, -34.98, -20.65, -19.62, -28.39, -16.52, -22.35, -29.93, -20.63, -28.01, -22.75, -32.97, -26.29, -22.20, -25.35, -19.22, 0.000, 0.000, 0.000, 14:53:35.216
123, 0.00, -34.82, -20.76, -19.76, -28.43, -16.47, -22.35, -29.68, -20.63, -28.01, -22.75, -32.97, -26.29, -22.20, -25.35, -19.22, 0.000, 0.000, 0.000, 14:53:35.216
124, 0.00, -34.82, -20.76, -19.76, -28.43, -16.47, -22.35, -29.68, -20.81, -28.05, -22.82, -32.79, -26.33, -21.79, -25.21, -19.33, 0.000, 0.000, 0.000, 14:53:35.216
125, 0.00, -34.96, -20.88, -19.69, -28.57, -16.67, -22.33, -29.73, -20.81, -28.05, -22.82, -32.79, -26.33, -21.79, -25.21, -19.33, 0.000, 0.000, 0.000, 14:53:35.217
126, 0.00, -34.96, -20.88, -19.69, -28.57, -16.67, -22.33, -29.73, -20.70, -27.87, -23.09, -32.75, -26.29, -21.84, -25.10, -19.51, -0.054, 0.946, 0.022, 14:53:35.217
127, 0.00, -35.07, -20.63, -19.76, -28.41, -16.79, -22.42, -29.53, -20.70, -27.87, -23.09, -32.75, -26.29, -21.84, -25.10, -19.51, 0.000, 0.000, 0.000, 14:53:35.217
128, 0.00, -35.07, -20.63, -19.76, -28.41, -16.79, -22.42, -29.53, -20.90, -27.74, -22.98, -32.68, -26.44, -21.84, -25.15, -19.54, 0.000, 0.000, 0.000, 14:53:35.218
129, 0.00, -35.14, -20.76, -19.85, -28.32, -16.74, -22.49, -29.64, -20.90, -27.74, -22.98, -32.68, -26.44, -21.84, -25.15, -19.54, 0.000, 0.000, 0.000, 14:53:35.218
130, 0.00, -35.14, -20.76, -19.85, -28.32, -16.74, -22.49, -29.64, -20.85, -28.01, -22.96, -32.86, -26.26, -21.99, -25.26, -19.22, 0.000, 0.000, 0.000, 14:53:35.219
131, 0.00, -34.89, -20.72, -19.67, -28.21, -16.54, -22.58, -29.73, -20.85, -28.01, -22.96, -32.86, -26.26, -21.99, -25.26, -19.22, 0.000, 0.000, 0.000, 14:53:35.219
132, 0.00, -34.89, -20.72, -19.67, -28.21, -16.54, -22.58, -29.73, -20.88, -27.92, -22.89, -32.92, -26.35, -22.13, -25.32, -19.45, 0.000, 0.000, 0.000, 14:53:35.220
133, 0.00, -34.98, -20.76, -19.78, -28.48, -16.56, -22.24, -29.53, -20.88, -27.92, -22.89, -32.92, -26.35, -22.13, -25.32, -19.45, 0.000, 0.000, 0.000, 14:53:35.220
134, 0.00, -34.98, -20.76, -19.78, -28.48, -16.56, -22.24, -29.53, -20.83, -27.85, -22.93, -33.08, -26.29, -22.04, -25.17, -19.45, 0.000, 0.000, 0.000, 14:53:35.221
135, 0.00, -34.87, -20.74, -19.65, -28.36, -16.63, -22.24, -29.62, -20.83, -27.85, -22.93, -33.08, -26.29, -22.04, -25.17, -19.45, 0.000, 0.000, 0.000, 14:53:35.221
136, 0.00, -34.87, -20.74, -19.65, -28.36, -16.63, -22.24, -29.62, -20.63, -27.87, -22.91, -32.83, -26.35, -21.77, -25.24, -19.31, -0.054, 0.948, 0.020, 14:53:35.221
137, 0.00, -34.87, -20.70, -19.69, -28.30, -16.56, -22.42, -29.57, -20.63, -27.87, -22.91, -32.83, -26.35, -21.77, -25.24, -19.31, 0.000, 0.000, 0.000, 14:53:35.222
138, 0.00, -34.87, -20.70, -19.69, -28.30, -16.56, -22.42, -29.57, -20.85, -27.87, -22.82, -32.88, -26.38, -21.79, -25.35, -19.33, 0.000, 0.000, 0.000, 14:53:35.222
139, 0.00, -35.07, -20.70, -19.69, -28.36, -16.81, -22.42, -29.50, -20.85, -27.87, -22.82, -32.88, -26.38, -21.79, -25.35, -19.33, 0.000, 0.000, 0.000, 14:53:35.223
140, 0.00, -35.07, -20.70, -19.69, -28.36, -16.81, -22.42, -29.50, -21.06, -27.94, -23.09, -32.77, -26.22, -22.02, -25.15, -19.60, 0.000, 0.000, 0.000, 14:53:35.223
141, 0.00, -34.89, -20.74, -19.42, -28.30, -16.38, -22.44, -29.95, -21.06, -27.94, -23.09, -32.77, -26.22, -22.02, -25.15, -19.60, 0.000, 0.000, 0.000, 14:53:35.223
142, 0.00, -34.89, -20.74, -19.42, -28.30, -16.38, -22.44, -29.95, -20.97, -27.96, -22.78, -32.99, -26.33, -21.79, -25.32, -19.24, 0.000, 0.000, 0.000, 14:53:35.224
143, 0.00, -35.03, -20.76, -19.60, -28.32, -16.61, -22.44, -29.57, -20.97, -27.96, -22.78, -32.99, -26.33, -21.79, -25.32, -19.24, 0.000, 0.000, 0.000, 14:53:35.224
144, 0.00, -35.03, -20.76, -19.60, -28.32, -16.61, -22.44, -29.57, -20.92, -27.87, -22.78, -32.70, -26.26, -21.75, -25.48, -19.24, 0.000, 0.000, 0.000, 14:53:35.225
145, 0.00, -35.14, -20.65, -19.62, -28.36, -16.58, -22.26, -29.68, -20.92, -27.87, -22.78, -32.70, -26.26, -21.75, -25.48, -19.24, 0.000, 0.000, 0.000, 14:53:35.225
146, 0.00, -35.14, -20.65, -19.62, -28.36, -16.58, -22.26, -29.68, -20.92, -27.92, -23.07, -32.88, -26.31, -21.84, -25.30, -19.20, -0.056, 0.942, 0.016, 14:53:35.225
147, 0.00, -34.94, -20.68, -19.60, -28.14, -16.76, -22.35, -29.73, -20.92, -27.92, -23.07, -32.88, -26.31, -21.84, -25.30, -19.20, 0.000, 0.000, 0.000, 14:53:35.226
148, 0.00, -34.94, -20.68, -19.60, -28.14, -16.76, -22.35, -29.73, -20.94, -28.05, -22.98, -32.95, -26.17, -21.88, -25.24, -19.36, 0.000, 0.000, 0.000, 14:53:35.226
149, 0.00, -35.16, -20.72, -19.89, -28.19, -16.56, -22.46, -29.68, -20.94, -28.05, -22.98, -32.95, -26.17, -21.88, -25.24, -19.36, 0.000, 0.000, 0.000, 14:53:35.226
150, 0.00, -35.16, -20.72, -19.89, -28.19, -16.56, -22.46, -29.68, -20.81, -28.01, -23.07, -32.95, -26.31, -22.08, -25.21, -19.36, 0.000, 0.000, 0.000, 14:53:35.227
151, 0.00, -35.07, -20.63, -19.60, -28.30, -16.47, -22.33, -29.77, -20.81, -28.01, -23.07, -32.95, -26.31, -22.08, -25.21, -19.36, 0.000, 0.000, 0.000, 14:53:35.227
152, 0.00, -35.07, -20.63, -19.60, -28.30, -16.47, -22.33, -29.77, -20.79, -28.05, -22.98, -32.88, -26.26, -21.97, -25.41, -19.51, 0.000, 0.000, 0.000, 14:53:35.228
153, 0.00, -34.80, -20.61, -19.62, -28.21, -16.54, -22.24, -29.64, -20.79, -28.05, -22.98, -32.88, -26.26, -21.97, -25.41, -19.51, 0.000, 0.000, 0.000, 14:53:35.228
154, 0.00, -34.80, -20.61, -19.62, -28.21, -16.54, -22.24, -29.64, -20.81, -27.78, -22.96, -32.88, -26.17, -22.02, -25.12, -19.47, 0.000, 0.000, 0.000, 14:53:35.228
155, 0.00, -34.76, -20.68, -19.76, -28.21, -16.67, -22.31, -29.57, -20.81, -27.78, -22.96, -32.88, -26.17, -22.02, -25.12, -19.47, 0.000, 0.000, 0.000, 14:53:35.229
156, 0.00, -34.76, -20.68, -19.76, -28.21, -16.67, -22.31, -29.57, -20.68, -27.83, -23.02, -33.01, -26.29, -22.04, -25.06, -19.40, -0.058, 0.948, 0.012, 14:53:35.229
157, 0.00, -34.96, -20.74, -19.69, -28.34, -16.76, -22.24, -29.48, -20.68, -27.83, -23.02, -33.01, -26.29, -22.04, -25.06, -19.40, 0.000, 0.000, 0.000, 14:53:35.229
158, 0.00, -34.96, -20.74, -19.69, -28.34, -16.76, -22.24, -29.48, -20.79, -27.72, -22.89, -32.83, -26.42, -22.11, -25.19, -19.20, 0.000, 0.000, 0.000, 14:53:35.230
159, 0.00, -34.89, -20.90, -19.62, -28.30, -16.52, -22.28, -29.48, -20.79, -27.72, -22.89, -32.83, -26.42, -22.11, -25.19, -19.20, 0.000, 0.000, 0.000, 14:53:35.230
160, 0.00, -34.89, -20.90, -19.62, -28.30, -16.52, -22.28, -29.48, -20.76, -28.05, -22.98, -32.90, -26.20, -21.99, -25.21, -19.16, 0.000, 0.000, 0.000, 14:53:35.231
161, 0.00, -35.07, -20.63, -19.58, -28.32, -16.50, -22.44, -29.68, -20.76, -28.05, -22.98, -32.90, -26.20, -21.99, -25.21, -19.16, 0.000, 0.000, 0.000, 14:53:35.231
162, 0.00, -35.07, -20.63, -19.58, -28.32, -16.50, -22.44, -29.68, -20.90, -28.10, -23.11, -32.72, -26.42, -21.88, -25.21, -19.51, 0.000, 0.000, 0.000, 14:53:35.231
163, 0.00, -34.89, -20.81, -19.51, -28.21, -16.45, -22.37, -29.73, -20.90, -28.10, -23.11, -32.72, -26.42, -21.88, -25.21, -19.51, 0.000, 0.000, 0.000, 14:53:35.232
164, 0.00, -34.89, -20.81, -19.51, -28.21, -16.45, -22.37, -29.73, -20.92, -27.96, -22.91, -32.92, -26.24, -21.84, -25.19, -19.38, 0.000, 0.000, 0.000, 14:53:35.232
165, 0.00, -34.87, -20.74, -20.00, -28.41, -16.54, -22.31, -29.73, -20.92, -27.96, -22.91, -32.92, -26.24, -21.84, -25.19, -19.38, 0.000, 0.000, 0.000, 14:53:35.232
166, 0.00, -34.87, -20.74, -20.00, -28.41, -16.54, -22.31, -29.73, -20.76, -28.01, -23.13, -32.97, -26.51, -21.97, -25.37, -19.47, -0.074, 0.942, 0.006, 14:53:35.233
167, 0.00, -34.89, -20.83, -19.85, -28.30, -16.45, -22.31, -29.71, -20.76, -28.01, -23.13, -32.97, -26.51, -21.97, -25.37, -19.47, 0.000, 0.000, 0.000, 14:53:35.233
168, 0.00, -34.89, -20.83, -19.85, -28.30, -16.45, -22.31, -29.71, -20.90, -28.01, -22.93, -32.79, -26.31, -22.02, -25.19, -19.47, 0.000, 0.000, 0.000, 14:53:35.233
169, 0.00, -34.87, -20.68, -20.05, -28.41, -16.56, -22.35, -29.66, -20.90, -28.01, -22.93, -32.79, -26.31, -22.02, -25.19, -19.47, 0.000, 0.000, 0.000, 14:53:35.234
170, 0.00, -34.87, -20.68, -20.05, -28.41, -16.56, -22.35, -29.66, -20.85, -27.85, -22.66, -32.72, -26.08, -22.02, -25.24, -19.24, 0.000, 0.000, 0.000, 14:53:35.234
171, 0.00, -34.89, -20.68, -19.69, -28.48, -16.52, -22.22, -29.62, -20.85, -27.85, -22.66, -32.72, -26.08, -22.02, -25.24, -19.24, 0.000, 0.000, 0.000, 14:53:35.234
172, 0.00, -34.89, -20.68, -19.69, -28.48, -16.52, -22.22, -29.62, -20.74, -27.98, -22.87, -32.79, -26.35, -21.95, -25.41, -19.56, 0.000, 0.000, 0.000, 14:53:35.234
173, 0.00, -35.07, -20.63, -19.62, -28.43, -16.47, -22.40, -29.50, -20.74, -27.98, -22.87, -32.79, -26.35, -21.95, -25.41, -19.56, 0.000, 0.000, 0.000, 14:53:35.235
174, 0.00, -35.07, -20.63, -19.62, -28.43, -16.47, -22.40, -29.50, -20.88, -27.76, -23.02, -32.72, -26.35, -21.95, -25.28, -19.58, 0.000, 0.000, 0.000, 14:53:35.235
175, 0.00, -35.07, -20.59, -19.67, -28.39, -16.63, -22.17, -29.57, -20.88, -27.76, -23.02, -32.72, -26.35, -21.95, -25.28, -19.58, 0.000, 0.000, 0.000, 14:53:35.235
176, 0.00, -35.07, -20.59, -19.67, -28.39, -16.63, -22.17, -29.57, -20.97, -27.87, -23.09, -33.01, -26.33, -22.15, -25.15, -19.45, -0.080, 0.944, 0.004, 14:53:35.236
177, 0.00, -35.07, -20.83, -19.69, -28.52, -16.56, -22.49, -29.41, -20.97, -27.87, -23.09, -33.01, -26.33, -22.15, -25.15, -19.45, 0.000, 0.000, 0.000, 14:53:35.236
178, 0.00, -35.07, -20.83, -19.69, -28.52, -16.56, -22.49, -29.41, -20.85, -27.69, -23.00, -32.99, -26.35, -22.06, -25.24, -19.47, 0.000, 0.000, 0.000, 14:53:35.236
179, 0.00, -34.87, -20.99, -19.80, -28.45, -16.47, -22.13, -29.50, -20.85, -27.69, -23.00, -32.99, -26.35, -22.06, -25.24, -19.47, 0.000, 0.000, 0.000, 14:53:35.236
180, 0.00, -34.87, -20.99, -19.80, -28.45, -16.47, -22.13, -29.50, -20.88, -27.69, -22.82, -32.92, -26.40, -21.99, -25.21, -19.42, 0.000, 0.000, 0.000, 14:53:35.237
181, 0.00, -35.09, -20.74, -19.71, -28.43, -16.72, -22.06, -29.82, -20.88, -27.69, -22.82, -32.92, -26.40, -21.99, -25.21, -19.42, 0.000, 0.000, 0.000, 14:53:35.237
182, 0.00, -35.09, -20.74, -19.71, -28.43, -16.72, -22.06, -29.82, -20.92, -27.85, -22.96, -32.86, -26.42, -21.88, -25.28, -19.60, 0.000, 0.000, 0.000, 14:53:35.237
183, 0.00, -34.94, -20.76, -19.62, -28.25, -16.61, -22.40, -29.57, -20.92, -27.85, -22.96, -32.86, -26.42, -21.88, -25.28, -19.60, 0.000, 0.000, 0.000, 14:53:35.238
184, 0.00, -34.94, -20.76, -19.62, -28.25, -16.61, -22.40, -29.57, -20.65, -27.89, -22.69, -32.88, -26.17, -22.04, -25.24, -19.54, 0.000, 0.000, 0.000, 14:53:35.238
185, 0.00, -34.96, -20.85, -19.76, -28.34, -16.72, -22.51, -29.64, -20.65, -27.89, -22.69, -32.88, -26.17, -22.04, -25.24, -19.54, 0.000, 0.000, 0.000, 14:53:35.239
186, 0.00, -34.96, -20.85, -19.76, -28.34, -16.72, -22.51, -29.64, -20.72, -28.03, -22.89, -32.68, -26.53, -21.90, -25.26, -19.42, -0.076, 0.942, 0.002, 14:53:35.239
187, 0.00, -34.89, -20.65, -19.74, -28.21, -16.67, -22.44, -29.64, -20.72, -28.03, -22.89, -32.68, -26.53, -21.90, -25.26, -19.42, 0.000, 0.000, 0.000, 14:53:35.240
188, 0.00, -34.89, -20.65, -19.74, -28.21, -16.67, -22.44, -29.64, -20.79, -27.83, -22.75, -32.97, -26.26, -22.04, -25.15, -19.49, 0.000, 0.000, 0.000, 14:53:35.240
189, 0.00, -35.05, -20.65, -19.74, -28.34, -16.72, -22.26, -29.84, -20.79, -27.83, -22.75, -32.97, -26.26, -22.04, -25.15, -19.49, 0.000, 0.000, 0.000, 14:53:35.240
190, 0.00, -35.05, -20.65, -19.74, -28.34, -16.72, -22.26, -29.84, -20.79, -27.98, -22.87, -32.86, -26.46, -21.97, -25.32, -19.36, 0.000, 0.000, 0.000, 14:53:35.241
191, 0.00, -35.05, -20.83, -19.54, -28.43, -16.45, -22.28, -29.75, -20.79, -27.98, -22.87, -32.86, -26.46, -21.97, -25.32, -19.36, 0.000, 0.000, 0.000, 14:53:35.241
192, 0.00, -35.05, -20.83, -19.54, -28.43, -16.45, -22.28, -29.75, -20.85, -27.89, -23.07, -33.19, -26.55, -21.90, -25.24, -19.45, 0.000, 0.000, 0.000, 14:53:35.241
193, 0.00, -35.03, -20.83, -19.74, -28.57, -16.74, -22.51, -29.50, -20.85, -27.89, -23.07, -33.19, -26.55, -21.90, -25.24, -19.45, 0.000, 0.000, 0.000, 14:53:35.242
194, 0.00, -35.03, -20.83, -19.74, -28.57, -16.74, -22.51, -29.50, -20.92, -28.01, -22.89, -32.92, -26.26, -21.99, -25.15, -19.42, 0.000, 0.000, 0.000, 14:53:35.242
195, 0.00, -35.09, -20.70, -19.74, -28.52, -16.58, -22.40, -29.55, -20.92, -28.01, -22.89, -32.92, -26.26, -21.99, -25.15, -19.42, -0.064, 0.948, 0.004, 14:53:35.242
196, 0.00, -35.09, -20.70, -19.74, -28.52, -16.58, -22.40, -29.55, -21.03, -27.96, -22.87, -32.88, -26.20, -21.88, -25.17, -19.36, 0.000, 0.000, 0.000, 14:53:35.243
197, 0.00, -35.14, -20.88, -19.87, -28.34, -16.56, -22.15, -29.66, -21.03, -27.96, -22.87, -32.88, -26.20, -21.88, -25.17, -19.36, 0.000, 0.000, 0.000, 14:53:35.243
198, 0.00, -35.14, -20.88, -19.87, -28.34, -16.56, -22.15, -29.66, -21.03, -27.89, -22.80, -32.88, -26.49, -22.02, -25.17, -19.31, 0.000, 0.000, 0.000, 14:53:35.244
199, 0.00, -34.91, -20.63, -19.80, -28.34, -16.63, -22.31, -29.88, -21.03, -27.89, -22.80, -32.88, -26.49, -22.02, -25.17, -19.31, 0.000, 0.000, 0.000, 14:53:35.244
200, 0.00, -34.91, -20.63, -19.80, -28.34, -16.63, -22.31, -29.88, -20.92, -27.94, -23.02, -32.72, -26.35, -21.90, -25.12, -19.49, 0.000, 0.000, 0.000, 14:53:35.244
201, 0.00, -34.87, -20.74, -19.87, -28.45, -16.61, -22.42, -29.59, -20.92, -27.94, -23.02, -32.72, -26.35, -21.90, -25.12, -19.49, 0.000, 0.000, 0.000, 14:53:35.245
202, 0.00, -34.87, -20.74, -19.87, -28.45, -16.61, -22.42, -29.59, -20.68, -27.98, -22.89, -32.79, -26.22, -21.84, -25.26, -19.31, 0.000, 0.000, 0.000, 14:53:35.245
203, 0.00, -34.87, -20.79, -19.69, -28.23, -16.52, -22.15, -29.77, -20.68, -27.98, -22.89, -32.79, -26.22, -21.84, -25.26, -19.31, 0.000, 0.000, 0.000, 14:53:35.246
204, 0.00, -34.87, -20.79, -19.69, -28.23, -16.52, -22.15, -29.77, -20.92, -27.78, -22.91, -32.90, -26.35, -21.77, -25.32, -19.31, 0.000, 0.000, 0.000, 14:53:35.246
205, 0.00, -35.03, -20.63, -19.92, -28.12, -16.67, -22.35, -29.71, -20.92, -27.78, -22.91, -32.90, -26.35, -21.77, -25.32, -19.31, -0.056, 0.948, 0.010, 14:53:35.246
206, 0.00, -35.03, -20.63, -19.92, -28.12, -16.67, -22.35, -29.71, -20.79, -27.83, -22.98, -32.86, -26.22, -22.02, -25.24, -19.24, 0.000, 0.000, 0.000, 14:53:35.247
207, 0.00, -35.00, -20.70, -19.74, -28.14, -16.56, -22.35, -29.55, -20.79, -27.83, -22.98, -32.86, -26.22, -22.02, -25.24, -19.24, 0.000, 0.000, 0.000, 14:53:35.247
208, 0.00, -35.00, -20.70, -19.74, -28.14, -16.56, -22.35, -29.55, -20.90, -27.96, -22.91, -32.79, -26.17, -22.08, -25.24, -19.33, 0.000, 0.000, 0.000, 14:53:35.248
209, 0.00, -34.89, -20.76, -19.62, -28.19, -16.76, -22.49, -29.55, -20.90, -27.96, -22.91, -32.79, -26.17, -22.08, -25.24, -19.33, 0.000, 0.000, 0.000, 14:53:35.248
210, 0.00, -34.89, -20.76, -19.62, -28.19, -16.76, -22.49, -29.55, -20.76, -27.89, -23.09, -33.06, -26.15, -22.20, -25.12, -19.56, 0.000, 0.000, 0.000, 14:53:35.248
211, 0.00, -35.00, -20.63, -19.56, -28.19, -16.65, -22.51, -29.55, -20.76, -27.89, -23.09, -33.06, -26.15, -22.20, -25.12, -19.56, 0.000, 0.000, 0.000, 14:53:35.249
212, 0.00, -35.00, -20.63, -19.56, -28.19, -16.65, -22.51, -29.55, -20.79, -27.92, -23.00, -32.75, -26.17, -21.88, -25.10, -19.51, 0.000, 0.000, 0.000, 14:53:35.249
213, 0.00, -34.85, -20.88, -19.67, -28.25, -16.52, -22.37, -29.59, -20.79, -27.92, -23.00, -32.75, -26.17, -21.88, -25.10, -19.51, 0.000, 0.000, 0.000, 14:53:35.249
214, 0.00, -34.85, -20.88, -19.67, -28.25, -16.52, -22.37, -29.59, -20.79, -27.74, -22.91, -32.75, -26.24, -21.70, -25.15, -19.45, 0.000, 0.000, 0.000, 14:53:35.249
215, 0.00, -34.96, -20.52, -19.69, -28.12, -16.50, -22.24, -29.73, -20.79, -27.74, -22.91, -32.75, -26.24, -21.70, -25.15, -19.45, -0.058, 0.940, 0.016, 14:53:35.250
216, 0.00, -34.96, -20.52, -19.69, -28.12, -16.50, -22.24, -29.73, -20.83, -27.76, -22.96, -32.83, -26.29, -21.90, -25.12, -19.45, 0.000, 0.000, 0.000, 14:53:35.250
217, 0.00, -34.87, -20.76, -19.76, -28.30, -16.56, -22.42, -29.68, -20.83, -27.76, -22.96, -32.83, -26.29, -21.90, -25.12, -19.45, 0.000, 0.000, 0.000, 14:53:35.250
218, 0.00, -34.87, -20.76, -19.76, -28.30, -16.56, -22.42, -29.68, -21.08, -27.98, -22.91, -32.86, -26.40, -21.88, -25.24, -19.62, 0.000, 0.000, 0.000, 14:53:35.251
219, 0.00, -35.07, -20.72, -19.60, -28.32, -16.54, -22.42, -29.73, -21.08, -27.98, -22.91, -32.86, -26.40, -21.88, -25.24, -19.62, 0.000, 0.000, 0.000, 14:53:35.251
220, 0.00, -35.07, -20.72, -19.60, -28.32, -16.54, -22.42, -29.73, -20.81, -28.01, -22.98, -32.88, -26.42, -21.88, -25.17, -19.54, 0.000, 0.000, 0.000, 14:53:35.252
221, 0.00, -35.16, -20.74, -19.74, -28.48, -16.50, -22.40, -29.66, -20.81, -28.01, -22.98, -32.88, -26.42, -21.88, -25.17, -19.54, 0.000, 0.000, 0.000, 14:53:35.252
222, 0.00, -35.16, -20.74, -19.74, -28.48, -16.50, -22.40, -29.66, -21.14, -27.85, -22.73, -32.90, -26.24, -21.93, -25.39, -19.45, 0.000, 0.000, 0.000, 14:53:35.252
223, 0.00, -35.05, -20.90, -19.76, -28.25, -16.70, -22.31, -29.57, -21.14, -27.85, -22.73, -32.90, -26.24, -21.93, -25.39, -19.45, 0.000, 0.000, 0.000, 14:53:35.253
224, 0.00, -35.05, -20.90, -19.76, -28.25, -16.70, -22.31, -29.57, -20.94, -27.83, -22.84, -32.97, -26.40, -21.97, -25.32, -19.29, 0.000, 0.000, 0.000, 14:53:35.253
225, 0.00, -34.91, -20.45, -19.67, -28.19, -16.65, -22.40, -29.71, -20.94, -27.83, -22.84, -32.97, -26.40, -21.97, -25.32, -19.29, -0.060, 0.932, 0.016, 14:53:35.254
226, 0.00, -34.91, -20.45, -19.67, -28.19, -16.65, -22.40, -29.71, -21.03, -27.98, -22.93, -32.97, -26.26, -21.99, -25.19, -19.27, 0.000, 0.000, 0.000, 14:53:35.254
227, 0.00, -35.05, -20.81, -19.45, -28.25, -16.45, -22.66, -29.53, -21.03, -27.98, -22.93, -32.97, -26.26, -21.99, -25.19, -19.27, 0.000, 0.000, 0.000, 14:53:35.254
228, 0.00, -35.05, -20.81, -19.45, -28.25, -16.45, -22.66, -29.53, -21.01, -27.85, -23.02, -32.83, -26.20, -21.93, -25.19, -19.27, 0.000, 0.000, 0.000, 14:53:35.255
229, 0.00, -35.09, -20.50, -19.56, -28.48, -16.38, -22.46, -29.79, -21.01, -27.85, -23.02, -32.83, -26.20, -21.93, -25.19, -19.27, 0.000, 0.000, 0.000, 14:53:35.255
230, 0.00, -35.09, -20.50, -19.56, -28.48, -16.38, -22.46, -29.79, -20.81, -27.96, -22.84, -32.86, -26.31, -21.88, -24.97, -19.33, 0.000, 0.000, 0.000, 14:53:35.255
231, 0.00, -35.05, -20.68, -19.80, -28.57, -16.70, -22.40, -29.66, -20.81, -27.96, -22.84, -32.86, -26.31, -21.88, -24.97, -19.33, 0.000, 0.000, 0.000, 14:53:35.255
232, 0.00, -35.05, -20.68, -19.80, -28.57, -16.70, -22.40, -29.66, -20.83, -27.89, -22.71, -32.97, -26.11, -21.84, -25.15, -19.38, 0.000, 0.000, 0.000, 14:53:35.256
233, 0.00, -34.91, -20.63, -19.62, -28.41, -16.58, -22.28, -29.82, -20.83, -27.89, -22.71, -32.97, -26.11, -21.84, -25.15, -19.38, 0.000, 0.000, 0.000, 14:53:35.256
234, 0.00, -34.91, -20.63, -19.62, -28.41, -16.58, -22.28, -29.82, -20.92, -27.87, -22.80, -32.83, -26.31, -21.95, -25.03, -19.31, 0.000, 0.000, 0.000, 14:53:35.256
235, 0.00, -34.98, -20.83, -19.92, -28.43, -16.65, -22.33, -29.75, -20.92, -27.87, -22.80, -32.83, -26.31, -21.95, -25.03, -19.31, -0.062, 0.934, 0.012, 14:53:35.257
236, 0.00, -34.98, -20.83, -19.92, -28.43, -16.65, -22.33, -29.75, -21.03, -27.85, -22.78, -32.86, -26.33, -21.97, -25.15, -19.42, 0.000, 0.000, 0.000, 14:53:35.257
237, 0.00, -35.07, -20.61, -19.76, -28.36, -16.50, -22.28, -29.48, -21.03, -27.85, -22.78, -32.86, -26.33, -21.97, -25.15, -19.42, 0.000, 0.000, 0.000, 14:53:35.258
238, 0.00, -35.07, -20.61, -19.76, -28.36, -16.50, -22.28, -29.48, -20.97, -27.94, -22.87, -32.95, -26.38, -22.06, -25.32, -19.49, 0.000, 0.000, 0.000, 14:53:35.258
239, 0.00, -34.94, -20.61, -19.83, -28.45, -16.36, -22.28, -29.68, -20.97, -27.94, -22.87, -32.95, -26.38, -22.06, -25.32, -19.49, 0.000, 0.000, 0.000, 14:53:35.258
240, 0.00, -34.94, -20.61, -19.83, -28.45, -16.36, -22.28, -29.68, -21.19, -28.03, -22.84, -32.92, -26.24, -21.79, -25.15, -19.54, 0.000, 0.000, 0.000, 14:53:35.259
241, 0.00, -35.05, -20.74, -19.78, -28.45, -16.38, -22.28, -29.77, -21.19, -28.03, -22.84, -32.92, -26.24, -21.79, -25.15, -19.54, 0.000, 0.000, 0.000, 14:53:35.697
242, 0.00, -35.05, -20.74, -19.78, -28.45, -16.38, -22.28, -29.77, -20.94, -28.05, -22.78, -32.81, -26.24, -21.79, -25.21, -19.27, 0.000, 0.000, 0.000, 14:53:35.698
243, 0.00, -35.11, -20.54, -19.83, -28.45, -16.56, -22.37, -29.71, -20.94, -28.05, -22.78, -32.81, -26.24, -21.79, -25.21, -19.27, 0.000, 0.000, 0.000, 14:53:35.698
244, 0.00, -35.11, -20.54, -19.83, -28.45, -16.56, -22.37, -29.71, -20.88, -27.98, -22.87, -32.86, -26.22, -21.79, -25.26, -19.29, 0.000, 0.000, 0.000, 14:53:35.698
245, 0.00, -34.94, -20.61, -19.96, -28.43, -16.72, -22.26, -29.79, -20.88, -27.98, -22.87, -32.86, -26.22, -21.79, -25.26, -19.29, -0.068, 0.942, 0.010, 14:53:35.699
246, 0.00, -34.94, -20.61, -19.96, -28.43, -16.72, -22.26, -29.79, -20.92, -27.87, -22.91, -32.90, -26.22, -21.86, -25.15, -19.65, 0.000, 0.000, 0.000, 14:53:35.699
247, 0.00, -35.00, -20.63, -19.60, -28.14, -16.58, -22.28, -29.62, -20.92, -27.87, -22.91, -32.90, -26.22, -21.86, -25.15, -19.65, 0.000, 0.000, 0.000, 14:53:35.699
248, 0.00, -35.00, -20.63, -19.60, -28.14, -16.58, -22.28, -29.62, -20.85, -27.89, -22.84, -32.88, -26.53, -21.77, -25.10, -19.33, 0.000, 0.000, 0.000, 14:53:35.699
249, 0.00, -35.00, -20.61, -19.60, -28.34, -16.74, -22.33, -29.53, -20.85, -27.89, -22.84, -32.88, -26.53, -21.77, -25.10, -19.33, 0.000, 0.000, 0.000, 14:53:35.700
250, 0.00, -35.00, -20.61, -19.60, -28.34, -16.74, -22.33, -29.53, -21.03, -27.94, -22.84, -33.08, -26.29, -21.61, -25.24, -19.42, 0.000, 0.000, 0.000, 14:53:35.700
251, 0.00, -35.09, -20.92, -19.92, -28.32, -16.56, -22.28, -29.68, -21.03, -27.94, -22.84, -33.08, -26.29, -21.61, -25.24, -19.42, 0.000, 0.000, 0.000, 14:53:35.700
252, 0.00, -35.09, -20.92, -19.92, -28.32, -16.56, -22.28, -29.68, -20.85, -27.74, -23.04, -32.95, -26.20, -21.88, -25.30, -19.45, 0.000, 0.000, 0.000, 14:53:35.701
253, 0.00, -35.09, -20.72, -19.85, -28.27, -16.74, -22.37, -29.71, -20.85, -27.74, -23.04, -32.95, -26.20, -21.88, -25.30, -19.45, 0.000, 0.000, 0.000, 14:53:35.701
254, 0.00, -35.09, -20.72, -19.85, -28.27, -16.74, -22.37, -29.71, -20.83, -27.76, -23.07, -32.97, -26.20, -21.97, -25.32, -19.24, 0.000, 0.000, 0.000, 14:53:35.701
255, 0.00, -34.94, -20.85, -19.62, -28.27, -16.50, -22.24, -29.73, -20.83, -27.76, -23.07, -32.97, -26.20, -21.97, -25.32, -19.24, -0.070, 0.948, 0.006, 14:53:35.701
0, 0.00, -34.94, -20.85, -19.62, -28.27, -16.50, -22.24, -29.73, -21.08, -27.78, -22.87, -32.90, -26.20, -21.82, -25.48, -19.09, 0.000, 0.000, 0.000, 14:53:35.702
1, 0.00, -34.94, -20.68, -19.71, -28.41, -16.52, -22.28, -29.68, -21.08, -27.78, -22.87, -32.90, -26.20, -21.82, -25.48, -19.09, 0.000, 0.000, 0.000, 14:53:35.702
2, 0.00, -34.94, -20.68, -19.71, -28.41, -16.52, -22.28, -29.68, -21.12, -28.05, -23.04, -32.86, -26.26, -21.97, -25.39, -19.29, 0.000, 0.000, 0.000, 14:53:35.702
3, 0.00, -34.85, -20.79, -20.05, -28.39, -16.52, -22.24, -29.57, -21.12, -28.05, -23.04, -32.86, -26.26, -21.97, -25.39, -19.29, 0.000, 0.000, 0.000, 14:53:35.702
4, 0.00, -34.85, -20.79, -20.05, -28.39, -16.52, -22.24, -29.57, -20.85, -28.01, -23.02, -32.90, -26.44, -21.77, -25.44, -19.51, 0.000, 0.000, 0.000, 14:53:35.703
5, 0.00, -35.00, -20.61, -19.62, -28.23, -16.47, -22.44, -29.64, -20.85, -28.01, -23.02, -32.90, -26.44, -21.77, -25.44, -19.51, 0.000, 0.000, 0.000, 14:53:35.703
6, 0.00, -35.00, -20.61, -19.62, -28.23, -16.47, -22.44, -29.64, -20.92, -28.05, -22.93, -32.95, -26.38, -21.97, -25.32, -19.47, 0.000, 0.000, 0.000, 14:53:35.703
7, 0.00, -34.82, -20.56, -19.65, -28.27, -16.47, -22.53, -29.62, -20.92, -28.05, -22.93, -32.95, -26.38, -21.97, -25.32, -19.47, 0.000, 0.000, 0.000, 14:53:35.703
8, 0.00, -34.82, -20.56, -19.65, -28.27, -16.47, -22.53, -29.62, -20.72, -28.01, -23.00, -32.92, -26.40, -21.95, -25.12, -19.45, 0.000, 0.000, 0.000, 14:53:35.704
9, 0.00, -35.00, -20.70, -19.78, -28.43, -16.41, -21.95, -29.71, -20.72, -28.01, -23.00, -32.92, -26.40, -21.95, -25.12, -19.45, -0.062, 0.944, 0.006, 14:53:35.704
10, 0.00, -35.00, -20.70, -19.78, -28.43, -16.41, -21.95, -29.71, -20.83, -27.96, -22.80, -32.83, -26.17, -22.02, -25.19, -19.31, 0.000, 0.000, 0.000, 14:53:35.705
11, 0.00, -35.03, -20.85, -19.80, -28.27, -16.43, -22.24, -29.66, -20.83, -27.96, -22.80, -32.83, -26.17, -22.02, -25.19, -19.31, 0.000, 0.000, 0.000, 14:53:35.705
12, 0.00, -35.03, -20.85, -19.80, -28.27, -16.43, -22.24, -29.66, -20.79, -27.81, -22.93, -32.72, -26.40, -21.99, -24.86, -19.24, 0.000, 0.000, 0.000, 14:53:35.705
13, 0.00, -35.05, -20.63, -19.65, -28.52, -16.47, -22.22, -29.57, -20.79, -27.81, -22.93, -32.72, -26.40, -21.99, -24.86, -19.24, 0.000, 0.000, 0.000, 14:53:35.706
14, 0.00, -35.05, -20.63, -19.65, -28.52, -16.47, -22.22, -29.57, -21.01, -27.74, -22.78, -32.99, -26.38, -21.95, -25.19, -19.33, 0.000, 0.000, 0.000, 14:53:35.706
15, 0.00, -34.96, -20.85, -19.76, -28.27, -16.65, -22.33, -29.68, -21.01, -27.74, -22.78, -32.99, -26.38, -21.95, -25.19, -19.33, 0.000, 0.000, 0.000, 14:53:35.706
16, 0.00, -34.96, -20.85, -19.76, -28.27, -16.65, -22.33, -29.68, -20.92, -28.03, -22.73, -33.08, -26.38, -21.99, -25.17, -19.42, 0.000, 0.000, 0.000, 14:53:35.706
17, 0.00, -34.91, -20.83, -19.69, -28.23, -16.58, -22.37, -29.64, -20.92, -28.03, -22.73, -33.08, -26.38, -21.99, -25.17, -19.42, 0.000, 0.000, 0.000, 14:53:35.707
18, 0.00, -34.91, -20.83, -19.69, -28.23, -16.58, -22.37, -29.64, -20.83, -27.92, -23.00, -32.97, -26.38, -21.97, -25.26, -19.49, 0.000, 0.000, 0.000, 14:53:35.707
19, 0.00, -35.05, -20.72, -19.83, -28.41, -16.45, -22.17, -29.68, -20.83, -27.92, -23.00, -32.97, -26.38, -21.97, -25.26, -19.49, -0.058, 0.938, 0.006, 14:53:35.707
20, 0.00, -35.05, -20.72, -19.83, -28.41, -16.45, -22.17, -29.68, -20.68, -27.81, -22.98, -32.97, -26.38, -21.86, -25.21, -19.40, 0.000, 0.000, 0.000, 14:53:35.707
21, 0.00, -34.91, -20.83, -19.56, -28.63, -16.72, -22.31, -29.73, -20.68, -27.81, -22.98, -32.97, -26.38, -21.86, -25.21, -19.40, 0.000, 0.000, 0.000, 14:53:35.708
22, 0.00, -34.91, -20.83, -19.56, -28.63, -16.72, -22.31, -29.73, -21.03, -27.81, -23.00, -32.90, -26.08, -21.86, -25.21, -19.31, 0.000, 0.000, 0.000, 14:53:35.708
23, 0.00, -35.00, -20.56, -19.60, -28.10, -16.58, -22.08, -29.71, -21.03, -27.81, -23.00, -32.90, -26.08, -21.86, -25.21, -19.31, 0.000, 0.000, 0.000, 14:53:35.708
24, 0.00, -35.00, -20.56, -19.60, -28.10, -16.58, -22.08, -29.71, -20.97, -27.98, -22.80, -32.88, -26.31, -21.95, -25.08, -19.45, 0.000, 0.000, 0.000, 14:53:35.708
25, 0.00, -34.98, -20.76, -19.71, -28.25, -16.63, -22.02, -29.62, -20.97, -27.98, -22.80, -32.88, -26.31, -21.95, -25.08, -19.45, 0.000, 0.000, 0.000, 14:53:35.709
26, 0.00, -34.98, -20.76, -19.71, -28.25, -16.63, -22.02, -29.62, -20.88, -28.05, -22.71, -32.81, -26.11, -22.15, -25.01, -19.51, 0.000, 0.000, 0.000, 14:53:35.709
27, 0.00, -34.91, -20.85, -19.58, -28.32, -16.58, -22.26, -29.86, -20.88, -28.05, -22.71, -32.81, -26.11, -22.15, -25.01, -19.51, 0.000, 0.000, 0.000, 14:53:35.709
28, 0.00, -34.91, -20.85, -19.58, -28.32, -16.58, -22.26, -29.86, -20.70, -27.94, -22.73, -32.90, -26.44, -22.02, -25.12, -19.45, 0.000, 0.000, 0.000, 14:53:35.710
29, 0.00, -34.73, -20.70, -19.80, -28.48, -16.34, -22.40, -29.75, -20.70, -27.94, -22.73, -32.90, -26.44, -22.02, -25.12, -19.45, -0.054, 0.940, 0.012, 14:53:35.710
30, 0.00, -34.73, -20.70, -19.80, -28.48, -16.34, -22.40, -29.75, -20.90, -27.96, -22.71, -32.77, -26.38, -21.79, -25.17, -19.31, 0.000, 0.000, 0.000, 14:53:35.710
31, 0.00, -34.98, -21.03, -19.71, -28.34, -16.58, -22.35, -29.77, -20.90, -27.96, -22.71, -32.77, -26.38, -21.79, -25.17, -19.31, 0.000, 0.000, 0.000, 14:53:35.711
32, 0.00, -34.98, -21.03, -19.71, -28.34, -16.58, -22.35, -29.77, -20.85, -27.76, -22.75, -33.01, -26.33, -22.08, -25.26, -19.29, 0.000, 0.000, 0.000, 14:53:35.711
33, 0.00, -35.05, -20.79, -19.67, -28.16, -16.76, -22.26, -29.68, -20.85, -27.76, -22.75, -33.01, -26.33, -22.08, -25.26, -19.29, 0.000, 0.000, 0.000, 14:53:35.711
34, 0.00, -35.05, -20.79, -19.67, -28.16, -16.76, -22.26, -29.68, -20.92, -27.78, -22.87, -32.95, -26.17, -21.90, -25.15, -19.22, 0.000, 0.000, 0.000, 14:53:35.712
35, 0.00, -35.11, -20.74, -19.85, -28.59, -16.74, -22.37, -29.55, -20.92, -27.78, -22.87, -32.95, -26.17, -21.90, -25.15, -19.22, 0.000, 0.000, 0.000, 14:53:35.712
36, 0.00, -35.11, -20.74, -19.85, -28.59, -16.74, -22.37, -29.55, -21.03, -27.98, -23.00, -32.81, -26.58, -21.90, -25.28, -19.24, 0.000, 0.000, 0.000, 14:53:35.712
37, 0.00, -34.96, -20.63, -19.71, -28.34, -16.38, -22.35, -29.39, -21.03, -27.98, -23.00, -32.81, -26.58, -21.90, -25.28, -19.24, 0.000, 0.000, 0.000, 14:53:35.713
38, 0.00, -34.96, -20.63, -19.71, -28.34, -16.38, -22.35, -29.39, -21.03, -27.94, -22.89, -32.77, -26.44, -22.11, -25.19, -19.33, -0.056, 0.944, 0.008, 14:53:35.713
39, 0.00, -34.96, -20.76, -19.71, -28.45, -16.54, -22.46, -29.55, -21.03, -27.94, -22.89, -32.77, -26.44, -22.11, -25.19, -19.33, 0.000, 0.000, 0.000, 14:53:35.714
40, 0.00, -34.96, -20.76, -19.71, -28.45, -16.54, -22.46, -29.55, -21.10, -27.98, -23.04, -32.77, -26.22, -21.93, -25.10, -19.42, 0.000, 0.000, 0.000, 14:53:35.714
41, 0.00, -35.09, -20.76, -19.78, -28.36, -16.79, -22.35, -29.82, -21.10, -27.98, -23.04, -32.77, -26.22, -21.93, -25.10, -19.42, 0.000, 0.000, 0.000, 14:53:35.714
42, 0.00, -35.09, -20.76, -19.78, -28.36, -16.79, -22.35, -29.82, -20.94, -27.89, -22.93, -32.99, -26.31, -21.82, -25.17, -19.36, 0.000, 0.000, 0.000, 14:53:35.715
43, 0.00, -35.20, -20.83, -19.76, -28.34, -16.47, -22.28, -29.53, -20.94, -27.89, -22.93, -32.99, -26.31, -21.82, -25.17, -19.36, 0.000, 0.000, 0.000, 14:53:35.715
44, 0.00, -35.20, -20.83, -19.76, -28.34, -16.47, -22.28, -29.53, -20.90, -28.01, -22.91, -32.88, -26.35, -21.84, -25.24, -19.36, 0.000, 0.000, 0.000, 14:53:35.715
45, 0.00, -35.00, -20.72, -19.92, -28.16, -16.54, -22.08, -29.71, -20.90, -28.01, -22.91, -32.88, -26.35, -21.84, -25.24, -19.36, 0.000, 0.000, 0.000, 14:53:35.716
46, 0.00, -35.00, -20.72, -19.92, -28.16, -16.54, -22.08, -29.71, -20.85, -27.96, -22.93, -32.86, -26.11, -22.04, -25.21, -19.38, 0.000, 0.000, 0.000, 14:53:35.716
47, 0.00, -34.94, -20.61, -19.78, -28.41, -16.54, -22.31, -29.53, -20.85, -27.96, -22.93, -32.86, -26.11, -22.04, -25.21, -19.38, 0.000, 0.000, 0.000, 14:53:35.717
48, 0.00, -34.94, -20.61, -19.78, -28.41, -16.54, -22.31, -29.53, -21.08, -27.72, -22.71, -32.77, -26.29, -21.86, -25.12, -19.40, -0.062, 0.948, 0.006, 14:53:35.717
49, 0.00, -35.07, -20.72, -19.74, -28.32, -16.52, -22.35, -29.77, -21.08, -27.72, -22.71, -32.77, -26.29, -21.86, -25.12, -19.40, 0.000, 0.000, 0.000, 14:53:35.717
50, 0.00, -35.07, -20.72, -19.74, -28.32, -16.52, -22.35, -29.77, -20.59, -27.92, -22.96, -32.99, -26.55, -21.93, -25.19, -19.49, 0.000, 0.000, 0.000, 14:53:35.717
51, 0.00, -35.16, -20.74, -19.69, -28.30, -16.58, -22.33, -29.64, -20.59, -27.92, -22.96, -32.99, -26.55, -21.93, -25.19, -19.49, 0.000, 0.000, 0.000, 14:53:35.718
52, 0.00, -35.16, -20.74, -19.69, -28.30, -16.58, -22.33, -29.64, -20.88, -27.94, -22.75, -32.97, -26.44, -21.79, -25.12, -19.22, 0.000, 0.000, 0.000, 14:53:35.718
53, 0.00, -35.09, -20.63, -19.78, -28.45, -16.61, -22.28, -29.59, -20.88, -27.94, -22.75, -32.97, -26.44, -21.79, -25.12, -19.22, 0.000, 0.000, 0.000, 14:53:35.718
54, 0.00, -35.09, -20.63, -19.78, -28.45, -16.61, -22.28, -29.59, -20.92, -27.89, -22.89, -32.81, -26.35, -22.02, -25.37, -19.56, 0.000, 0.000, 0.000, 14:53:35.718
55, 0.00, -34.82, -20.81, -19.76, -28.36, -16.50, -22.17, -29.46, -20.92, -27.89, -22.89, -32.81, -26.35, -22.02, -25.37, -19.56, 0.000, 0.000, 0.000, 14:53:35.719
56, 0.00, -34.82, -20.81, -19.76, -28.36, -16.50, -22.17, -29.46, -20.61, -27.74, -22.87, -32.88, -26.29, -22.13, -25.10, -19.36, 0.000, 0.000, 0.000, 14:53:35.719
57, 0.00, -35.00, -20.74, -19.80, -28.10, -16.56, -22.49, -29.57, -20.61, -27.74, -22.87, -32.88, -26.29, -22.13, -25.10, -19.36, 0.000, 0.000, 0.000, 14:53:35.719
58, 0.00, -35.00, -20.74, -19.80, -28.10, -16.56, -22.49, -29.57, -20.94, -27.83, -23.02, -32.75, -26.44, -22.02, -25.12, -19.16, -0.060, 0.946, 0.008, 14:53:35.719
59, 0.00, -35.14, -20.70, -19.71, -28.52, -16.63, -22.49, -29.57, -20.94, -27.83, -23.02, -32.75, -26.44, -22.02, -25.12, -19.16, 0.000, 0.000, 0.000, 14:53:35.720
60, 0.00, -35.14, -20.70, -19.71, -28.52, -16.63, -22.49, -29.57, -20.94, -27.98, -23.04, -32.81, -26.29, -22.04, -25.24, -19.40, 0.000, 0.000, 0.000, 14:53:35.720
61, 0.00, -35.09, -20.94, -19.67, -28.54, -16.56, -22.31, -29.57, -20.94, -27.98, -23.04, -32.81, -26.29, -22.04, -25.24, -19.40, 0.000, 0.000, 0.000, 14:53:35.720
62, 0.00, -35.09, -20.94, -19.67, -28.54, -16.56, -22.31, -29.57, -20.88, -27.92, -22.93, -33.06, -26.38, -21.95, -25.12, -19.36, 0.000, 0.000, 0.000, 14:53:35.720
63, 0.00, -34.96, -20.81, -19.62, -28.50, -16.65, -22.33, -29.62, -20.88, -27.92, -22.93, -33.06, -26.38, -21.95, -25.12, -19.36, 0.000, 0.000, 0.000, 14:53:35.721
64, 0.00, -34.96, -20.81, -19.62, -28.50, -16.65, -22.33, -29.62, -20.88, -27.85, -22.93, -33.01, -26.40, -22.04, -25.08, -19.22, 0.000, 0.000, 0.000, 14:53:35.721
65, 0.00, -35.03, -20.59, -19.80, -28.32, -16.63, -22.55, -29.84, -20.88, -27.85, -22.93, -33.01, -26.40, -22.04, -25.08, -19.22, 0.000, 0.000, 0.000, 14:53:35.721
66, 0.00, -35.03, -20.59, -19.80, -28.32, -16.63, -22.55, -29.84, -21.03, -27.92, -22.89, -32.97, -26.24, -22.04, -25.26, -19.65, 0.000, 0.000, 0.000, 14:53:35.721
67, 0.00, -35.00, -20.85, -19.92, -28.27, -16.67, -22.33, -29.66, -21.03, -27.92, -22.89, -32.97, -26.24, -22.04, -25.26, -19.65, 0.000, 0.000, 0.000, 14:53:35.722
68, 0.00, -35.00, -20.85, -19.92, -28.27, -16.67, -22.33, -29.66, -20.81, -27.94, -22.75, -32.97, -26.35, -21.84, -25.32, -19.33, -0.062, 0.938, 0.014, 14:53:35.722
69, 0.00, -35.03, -20.76, -19.62, -28.39, -16.67, -22.17, -29.64, -20.81, -27.94, -22.75, -32.97, -26.35, -21.84, -25.32, -19.33, 0.000, 0.000, 0.000, 14:53:35.722
70, 0.00, -35.03, -20.76, -19.62, -28.39, -16.67, -22.17, -29.64, -20.85, -28.12, -22.69, -32.90, -26.15, -21.84, -25.37, -19.36, 0.000, 0.000, 0.000, 14:53:35.722
71, 0.00, -35.05, -20.74, -19.83, -28.43, -16.58, -22.28, -29.62, -20.85, -28.12, -22.69, -32.90, -26.15, -21.84, -25.37, -19.36, 0.000, 0.000, 0.000, 14:53:35.723
72, 0.00, -35.05, -20.74, -19.83, -28.43, -16.58, -22.28, -29.62, -20.94, -28.01, -23.07, -33.01, -26.13, -21.90, -25.26, -19.49, 0.000, 0.000, 0.000, 14:53:35.723
73, 0.00, -35.11, -20.65, -20.00, -28.25, -16.43, -22.28, -29.53, -20.94, -28.01, -23.07, -33.01, -26.13, -21.90, -25.26, -19.49, 0.000, 0.000, 0.000, 14:53:35.723
74, 0.00, -35.11, -20.65, -20.00, -28.25, -16.43, -22.28, -29.53, -20.88, -28.05, -22.93, -32.72, -26.08, -22.02, -25.26, -19.42, 0.000, 0.000, 0.000, 14:53:35.723
75, 0.00, -34.94, -20.54, -19.69, -28.39, -16.41, -22.15, -29.48, -20.88, -28.05, -22.93, -32.72, -26.08, -22.02, -25.26, -19.42, 0.000, 0.000, 0.000, 14:53:35.724
76, 0.00, -34.94, -20.54, -19.69, -28.39, -16.41, -22.15, -29.48, -21.06, -27.81, -22.98, -32.75, -26.40, -21.97, -25.15, -19.42, 0.000, 0.000, 0.000, 14:53:35.724
77, 0.00, -35.18, -20.79, -19.60, -28.10, -16.63, -22.37, -29.57, -21.06, -27.81, -22.98, -32.75, -26.40, -21.97, -25.15, -19.42, 0.000, 0.000, 0.000, 14:53:35.724
78, 0.00, -35.18, -20.79, -19.60, -28.10, -16.63, -22.37, -29.57, -20.94, -27.81, -22.93, -32.88, -26.20, -21.93, -25.17, -19.31, -0.060, 0.942, 0.012, 14:53:35.725
79, 0.00, -35.11, -20.70, -19.74, -28.30, -16.63, -22.35, -29.64, -20.94, -27.81, -22.93, -32.88, -26.20, -21.93, -25.17, -19.31, 0.000, 0.000, 0.000, 14:53:35.725
80, 0.00, -35.11, -20.70, -19.74, -28.30, -16.63, -22.35, -29.64, -21.03, -27.94, -22.84, -32.86, -26.31, -21.70, -25.30, -19.40, 0.000, 0.000, 0.000, 14:53:35.725
81, 0.00, -35.09, -20.68, -19.62, -28.30, -16.65, -22.42, -29.62, -21.03, -27.94, -22.84, -32.86, -26.31, -21.70, -25.30, -19.40, 0.000, 0.000, 0.000, 14:53:35.726
82, 0.00, -35.09, -20.68, -19.62, -28.30, -16.65, -22.42, -29.62, -20.88, -27.87, -23.04, -32.81, -26.38, -22.02, -25.10, -19.36, 0.000, 0.000, 0.000, 14:53:35.726
83, 0.00, -35.00, -20.68, -19.56, -28.25, -16.54, -22.46, -29.59, -20.88, -27.87, -23.04, -32.81, -26.38, -22.02, -25.10, -19.36, 0.000, 0.000, 0.000, 14:53:35.726
84, 0.00, -35.00, -20.68, -19.56, -28.25, -16.54, -22.46, -29.59, -20.90, -27.89, -22.96, -32.83, -26.11, -21.93, -25.44, -19.16, 0.000, 0.000, 0.000, 14:53:35.727
85, 0.00, -35.00, -20.63, -19.78, -28.41, -16.63, -22.53, -29.68, -20.90, -27.89, -22.96, -32.83, -26.11, -21.93, -25.44, -19.16, 0.000, 0.000, 0.000, 14:53:35.727
86, 0.00, -35.00, -20.63, -19.78, -28.41, -16.63, -22.53, -29.68, -20.90, -27.85, -22.87, -32.92, -26.26, -22.02, -25.24, -19.27, 0.000, 0.000, 0.000, 14:53:35.727
87, 0.00, -34.87, -20.70, -19.80, -28.45, -16.50, -22.55, -29.73, -20.90, -27.85, -22.87, -32.92, -26.26, -22.02, -25.24, -19.27, 0.000, 0.000, 0.000, 14:53:35.728
88, 0.00, -34.87, -20.70, -19.80, -28.45, -16.50, -22.55, -29.73, -20.97, -27.85, -22.89, -33.15, -26.11, -21.95, -25.28, -19.45, -0.058, 0.944, 0.016, 14:53:35.728
89, 0.00, -34.78, -20.81, -19.76, -28.50, -16.45, -22.31, -29.59, -20.97, -27.85, -22.89, -33.15, -26.11, -21.95, -25.28, -19.45, 0.000, 0.000, 0.000, 14:53:35.728
90, 0.00, -34.78, -20.81, -19.76, -28.50, -16.45, -22.31, -29.59, -21.03, -27.92, -22.89, -32.86, -26.15, -22.11, -25.26, -19.36, 0.000, 0.000, 0.000, 14:53:35.729
91, 0.00, -34.71, -20.68, -19.76, -28.39, -16.54, -22.28, -29.66, -21.03, -27.92, -22.89, -32.86, -26.15, -22.11, -25.26, -19.36, 0.000, 0.000, 0.000, 14:53:35.729
92, 0.00, -34.71, -20.68, -19.76, -28.39, -16.54, -22.28, -29.66, -20.83, -27.78, -22.80, -32.68, -26.15, -22.13, -25.15, -19.36, 0.000, 0.000, 0.000, 14:53:35.729
93, 0.00, -34.96, -20.63, -19.62, -28.57, -16.52, -22.31, -29.77, -20.83, -27.78, -22.80, -32.68, -26.15, -22.13, -25.15, -19.36, 0.000, 0.000, 0.000, 14:53:35.730
94, 0.00, -34.96, -20.63, -19.62, -28.57, -16.52, -22.31, -29.77, -20.83, -27.87, -22.80, -32.95, -26.42, -21.84, -25.21, -19.27, 0.000, 0.000, 0.000, 14:53:35.730
95, 0.00, -35.03, -20.76, -19.62, -28.41, -16.63, -22.35, -29.75, -20.83, -27.87, -22.80, -32.95, -26.42, -21.84, -25.21, -19.27, 0.000, 0.000, 0.000, 14:53:35.730
96, 0.00, -35.03, -20.76, -19.62, -28.41, -16.63, -22.35, -29.75, -20.99, -27.83, -23.04, -32.97, -26.38, -22.04, -25.35, -19.42, 0.000, 0.000, 0.000, 14:53:35.731
97, 0.00, -35.00, -20.70, -19.71, -28.30, -16.50, -22.46, -29.41, -20.99, -27.83, -23.04, -32.97, -26.38, -22.04, -25.35, -19.42, 0.000, 0.000, 0.000, 14:53:35.731
98, 0.00, -35.00, -20.70, -19.71, -28.30, -16.50, -22.46, -29.41, -20.99, -27.98, -22.78, -33.10, -26.42, -21.93, -25.21, -19.33, -0.060, 0.952, 0.010, 14:53:35.731
99, 0.00, -34.85, -20.74, -19.87, -28.41, -16.56, -22.49, -29.55, -20.99, -27.98, -22.78, -33.10, -26.42, -21.93, -25.21, -19.33, 0.000, 0.000, 0.000, 14:53:35.732
100, 0.00, -34.85, -20.74, -19.87, -28.41, -16.56, -22.49, -29.55, -20.92, -27.92, -22.84, -32.92, -26.53, -22.02, -25.21, -19.56, 0.000, 0.000, 0.000, 14:53:35.732
101, 0.00, -34.89, -20.70, -19.69, -28.32, -16.65, -22.26, -29.62, -20.92, -27.92, -22.84, -32.92, -26.53, -22.02, -25.21, -19.56, 0.000, 0.000, 0.000, 14:53:35.732
102, 0.00, -34.89, -20.70, -19.69, -28.32, -16.65, -22.26, -29.62, -20.92, -27.78, -23.22, -33.06, -26.31, -21.84, -25.39, -19.24, 0.000, 0.000, 0.000, 14:53:35.733
103, 0.00, -34.91, -20.70, -19.85, -28.23, -16.47, -22.46, -29.82, -20.92, -27.78, -23.22, -33.06, -26.31, -21.84, -25.39, -19.24, 0.000, 0.000, 0.000, 14:53:35.733
104, 0.00, -34.91, -20.70, -19.85, -28.23, -16.47, -22.46, -29.82, -20.83, -27.72, -23.22, -32.90, -26.13, -22.06, -25.57, -19.42, 0.000, 0.000, 0.000, 14:53:35.734
105, 0.00, -35.11, -20.63, -19.71, -28.39, -16.45, -22.33, -29.68, -20.83, -27.72, -23.22, -32.90, -26.13, -22.06, -25.57, -19.42, 0.000, 0.000, 0.000, 14:53:35.734
106, 0.00, -35.11, -20.63, -19.71, -28.39, -16.45, -22.33, -29.68, -20.79, -27.72, -23.09, -33.01, -26.02, -21.97, -25.21, -19.49, 0.000, 0.000, 0.000, 14:53:35.990
107, 0.00, -35.07, -20.72, -19.60, -28.41, -16.67, -22.46, -29.55, -20.79, -27.72, -23.09, -33.01, -26.02, -21.97, -25.21, -19.49, 0.000, 0.000, 0.000, 14:53:35.991
108, 0.00, -35.07, -20.72, -19.60, -28.41, -16.67, -22.46, -29.55, -20.94, -27.98, -22.96, -33.10, -26.20, -22.06, -25.32, -19.31, -0.058, 0.952, 0.014, 14:53:35.991
109, 0.00, -34.91, -20.72, -19.74, -28.39, -16.58, -22.35, -29.66, -20.94, -27.98, -22.96, -33.10, -26.20, -22.06, -25.32, -19.31, 0.000, 0.000, 0.000, 14:53:35.992
110, 0.00, -34.91, -20.72, -19.74, -28.39, -16.58, -22.35, -29.66, -21.03, -27.96, -22.89, -32.92, -26.08, -21.82, -25.53, -19.33, 0.000, 0.000, 0.000, 14:53:35.992
111, 0.00, -34.85, -20.70, -19.76, -28.34, -16.52, -22.28, -29.55, -21.03, -27.96, -22.89, -32.92, -26.08, -21.82, -25.53, -19.33, 0.000, 0.000, 0.000, 14:53:35.992
112, 0.00, -34.85, -20.70, -19.76, -28.34, -16.52, -22.28, -29.55, -20.81, -27.96, -22.89, -32.88, -26.20, -21.93, -25.41, -19.31, 0.000, 0.000, 0.000, 14:53:35.993
113, 0.00, -35.11, -20.68, -19.80, -28.19, -16.65, -22.35, -29.64, -20.81, -27.96, -22.89, -32.88, -26.20, -21.93, -25.41, -19.31, 0.000, 0.000, 0.000, 14:53:35.993
114, 0.00, -35.11, -20.68, -19.80, -28.19, -16.65, -22.35, -29.64, -20.90, -27.94, -22.93, -32.92, -26.29, -21.86, -25.26, -19.22, 0.000, 0.000, 0.000, 14:53:35.993
115, 0.00, -34.89, -20.45, -19.71, -28.10, -16.54, -22.49, -29.73, -20.90, -27.94, -22.93, -32.92, -26.29, -21.86, -25.26, -19.22, 0.000, 0.000, 0.000, 14:53:35.993
116, 0.00, -34.89, -20.45, -19.71, -28.10, -16.54, -22.49, -29.73, -20.90, -27.85, -22.69, -32.90, -26.44, -21.82, -25.19, -19.29, 0.000, 0.000, 0.000, 14:53:35.994
117, 0.00, -35.07, -20.59, -19.56, -28.27, -16.45, -22.37, -29.64, -20.90, -27.85, -22.69, -32.90, -26.44, -21.82, -25.19, -19.29, 0.000, 0.000, 0.000, 14:53:35.994
118, 0.00, -35.07, -20.59, -19.56, -28.27, -16.45, -22.37, -29.64, -20.88, -27.96, -22.93, -32.99, -26.17, -21.90, -25.44, -19.56, -0.054, 0.950, 0.010, 14:53:35.994
119, 0.00, -34.91, -20.63, -19.80, -28.30, -16.47, -22.40, -29.73, -20.88, -27.96, -22.93, -32.99, -26.17, -21.90, -25.44, -19.56, 0.000, 0.000, 0.000, 14:53:35.994
120, 0.00, -34.91, -20.63, -19.80, -28.30, -16.47, -22.40, -29.73, -20.76, -27.85, -22.98, -32.88, -26.17, -21.90, -25.37, -19.11, 0.000, 0.000, 0.000, 14:53:35.995
121, 0.00, -35.20, -20.74, -19.67, -28.43, -16.58, -22.33, -29.77, -20.76, -27.85, -22.98, -32.88, -26.17, -21.90, -25.37, -19.11, 0.000, 0.000, 0.000, 14:53:35.995
122, 0.00, -35.20, -20.74, -19.67, -28.43, -16.58, -22.33, -29.77, -20.92, -28.05, -23.02, -32.81, -26.44, -22.06, -25.26, -19.27, 0.000, 0.000, 0.000, 14:53:35.995
123, 0.00, -34.94, -20.68, -19.67, -28.43, -16.65, -22.20, -29.39, -20.92, -28.05, -23.02, -32.81, -26.44, -22.06, -25.26, -19.27, 0.000, 0.000, 0.000, 14:53:35.996
124, 0.00, -34.94, -20.68, -19.67, -28.43, -16.65, -22.20, -29.39, -21.03, -27.94, -22.75, -32.90, -26.38, -22.15, -25.35, -19.38, 0.000, 0.000, 0.000, 14:53:35.996
125, 0.00, -34.85, -20.88, -19.71, -28.30, -16.54, -22.28, -29.68, -21.03, -27.94, -22.75, -32.90, -26.38, -22.15, -25.35, -19.38, 0.000, 0.000, 0.000, 14:53:35.996
126, 0.00, -34.85, -20.88, -19.71, -28.30, -16.54, -22.28, -29.68, -21.08, -27.87, -22.64, -33.08, -26.24, -21.99, -25.44, -19.58, 0.000, 0.000, 0.000, 14:53:35.997
127, 0.00, -35.00, -20.59, -19.74, -28.41, -16.50, -22.28, -29.57, -21.08, -27.87, -22.64, -33.08, -26.24, -21.99, -25.44, -19.58, -0.056, 0.954, 0.008, 14:53:35.997
128, 0.00, -35.00, -20.59, -19.74, -28.41, -16.50, -22.28, -29.57, -21.08, -27.83, -22.75, -33.01, -26.33, -21.93, -25.01, -19.40, 0.000, 0.000, 0.000, 14:53:35.997
129, 0.00, -35.20, -20.81, -19.51, -28.48, -16.70, -22.26, -29.68, -21.08, -27.83, -22.75, -33.01, -26.33, -21.93, -25.01, -19.40, 0.000, 0.000, 0.000, 14:53:35.997
130, 0.00, -35.20, -20.81, -19.51, -28.48, -16.70, -22.26, -29.68, -20.90, -27.85, -22.93, -33.08, -26.26, -21.73, -25.12, -19.56, 0.000, 0.000, 0.000, 14:53:35.998
131, 0.00, -35.09, -20.70, -19.83, -28.39, -16.47, -22.11, -29.75, -20.90, -27.85, -22.93, -33.08, -26.26, -21.73, -25.12, -19.56, 0.000, 0.000, 0.000, 14:53:35.998
132, 0.00, -35.09, -20.70, -19.83, -28.39, -16.47, -22.11, -29.75, -20.94, -27.92, -23.00, -32.90, -26.29, -21.77, -25.08, -19.31, 0.000, 0.000, 0.000, 14:53:35.999
133, 0.00, -35.00, -20.68, -19.62, -28.25, -16.65, -22.20, -29.62, -20.94, -27.92, -23.00, -32.90, -26.29, -21.77, -25.08, -19.31, 0.000, 0.000, 0.000, 14:53:35.999
134, 0.00, -35.00, -20.68, -19.62, -28.25, -16.65, -22.20, -29.62, -20.85, -27.94, -23.04, -32.97, -26.38, -21.79, -25.06, -19.36, 0.000, 0.000, 0.000, 14:53:35.999
135, 0.00, -34.98, -20.81, -19.67, -28.27, -16.47, -22.40, -29.71, -20.85, -27.94, -23.04, -32.97, -26.38, -21.79, -25.06, -19.36, 0.000, 0.000, 0.000, 14:53:35.999
136, 0.00, -34.98, -20.81, -19.67, -28.27, -16.47, -22.40, -29.71, -20.85, -27.74, -22.93, -32.79, -26.22, -22.08, -24.94, -19.27, 0.000, 0.000, 0.000, 14:53:36.000
137, 0.00, -34.80, -20.65, -19.65, -28.43, -16.56, -22.17, -29.75, -20.85, -27.74, -22.93, -32.79, -26.22, -22.08, -24.94, -19.27, -0.054, 0.950, 0.014, 14:53:36.000
138, 0.00, -34.80, -20.65, -19.65, -28.43, -16.56, -22.17, -29.75, -20.94, -27.83, -23.09, -32.79, -26.33, -21.90, -25.28, -19.47, 0.000, 0.000, 0.000, 14:53:36.000
139, 0.00, -34.91, -20.76, -19.83, -28.45, -16.88, -22.51, -29.68, -20.94, -27.83, -23.09, -32.79, -26.33, -21.90, -25.28, -19.47, 0.000, 0.000, 0.000, 14:53:36.000
140, 0.00, -34.91, -20.76, -19.83, -28.45, -16.88, -22.51, -29.68, -21.08, -27.78, -23.11, -32.97, -26.22, -21.88, -25.28, -19.45, 0.000, 0.000, 0.000, 14:53:36.001
141, 0.00, -35.09, -20.70, -19.71, -28.41, -16.63, -22.31, -29.48, -21.08, -27.78, -23.11, -32.97, -26.22, -21.88, -25.28, -19.45, 0.000, 0.000, 0.000, 14:53:36.001
142, 0.00, -35.09, -20.7