%OpenBCI Raw EEG Data
%
%Sample Rate = 250.0 Hz
%First Column = SampleIndex
%Last Column = Timestamp 
%Other Columns = EEG data in microvolts followed by Accel Data (in G) interleaved with Aux Data
0, 0.00, 0.00, 0.00, 0.00, 0.00, 0.00, 0.00, 0.00, -7072.47, -47935.53, -20304.77, -10922.05, -23894.33, -32052.89, -12583.32, -42930.28, 0.000, 0.000, 0.000, 15:19:45.269
1, -21231.12, 27994.29, 161.87, 37312.26, 70986.43, 55137.53, 35145.32, 42680.30, -7072.47, -47935.53, -20304.77, -10922.05, -23894.33, -32052.89, -12583.32, -42930.28, -0.054, 0.964, -0.120, 15:19:45.757
2, -21231.12, 27994.29, 161.87, 37312.26, 70986.43, 55137.53, 35145.32, 42680.30, 1230.71, -81552.82, -35006.59, -9432.32, -38123.76, -59332.93, -20400.66, -79549.92, 0.000, 0.000, 0.000, 15:19:45.757
3, -42481.48, 56039.35, 373.14, 74685.31, 142023.30, 110238.22, 70053.49, 85178.13, 1230.71, -81552.82, -35006.59, -9432.32, -38123.76, -59332.93, -20400.66, -79549.92, 0.000, 0.000, 0.000, 15:19:45.757
4, -42481.48, 56039.35, 373.14, 74685.31, 142023.30, 110238.22, 70053.49, 85178.13, 754.75, -81525.05, -34942.91, -9403.33, -38692.66, -59320.81, -20559.60, -79530.63, 0.000, 0.000, 0.000, 15:19:45.758
5, -42321.44, 56000.35, 342.81, 74634.80, 141977.77, 110269.04, 69776.55, 84991.59, 754.75, -81525.05, -34942.91, -9403.33, -38692.66, -59320.81, -20559.60, -79530.63, 0.000, 0.000, 0.000, 15:19:45.758
6, -42321.44, 56000.35, 342.81, 74634.80, 141977.77, 110269.04, 69776.55, 84991.59, 1564.38, -81580.78, -34977.86, -9460.76, -38072.57, -59372.78, -20370.44, -79565.05, 0.000, 0.000, 0.000, 15:19:45.758
7, -42490.17, 55997.55, 341.89, 74648.97, 141992.27, 110255.83, 70329.49, 85375.95, 1564.38, -81580.78, -34977.86, -9460.76, -38072.57, -59372.78, -20370.44, -79565.05, 0.000, 0.000, 0.000, 15:19:45.758
8, -42490.17, 55997.55, 341.89, 74648.97, 141992.27, 110255.83, 70329.49, 85375.95, 909.25, -81523.00, -34934.68, -9393.66, -38530.11, -59312.25, -20523.79, -79508.44, -0.052, 0.952, -0.148, 15:19:45.759
9, -42378.37, 56036.34, 376.20, 74688.42, 142030.42, 110267.61, 69714.64, 84936.91, 909.25, -81523.00, -34934.68, -9393.66, -38530.11, -59312.25, -20523.79, -79508.44, 0.000, 0.000, 0.000, 15:19:45.759
10, -42378.37, 56036.34, 376.20, 74688.42, 142030.42, 110267.61, 69714.64, 84936.91, 1400.52, -81562.25, -34944.89, -9447.57, -38388.25, -59352.06, -20458.26, -79528.71, 0.000, 0.000, 0.000, 15:19:45.759
11, -42413.39, 55979.36, 320.19, 74627.87, 141975.95, 110295.13, 70094.82, 85209.48, 1400.52, -81562.25, -34944.89, -9447.57, -38388.25, -59352.06, -20458.26, -79528.71, 0.000, 0.000, 0.000, 15:19:45.760
12, -42413.39, 55979.36, 320.19, 74627.87, 141975.95, 110295.13, 70094.82, 85209.48, 1499.94, -81558.16, -34957.86, -9439.25, -38120.99, -59353.34, -20403.68, -79535.02, 0.000, 0.000, 0.000, 15:19:45.760
13, -42497.62, 56026.14, 352.67, 74677.29, 142026.98, 110251.49, 70063.98, 85175.45, 1499.94, -81558.16, -34957.86, -9439.25, -38120.99, -59353.34, -20403.68, -79535.02, 0.000, 0.000, 0.000, 15:19:45.760
14, -42497.62, 56026.14, 352.67, 74677.29, 142026.98, 110251.49, 70063.98, 85175.45, 1035.49, -81535.67, -34920.46, -9421.80, -38661.14, -59325.39, -20559.40, -79533.83, 0.000, 0.000, 0.000, 15:19:45.760
15, -42339.54, 55991.36, 326.92, 74633.34, 141987.69, 110283.21, 69813.73, 85012.13, 1035.49, -81535.67, -34920.46, -9421.80, -38661.14, -59325.39, -20559.40, -79533.83, 0.000, 0.000, 0.000, 15:19:45.761
16, -42339.54, 55991.36, 326.92, 74633.34, 141987.69, 110283.21, 69813.73, 85012.13, 1820.82, -81566.54, -34964.90, -9454.38, -38040.88, -59361.54, -20371.36, -79564.25, 0.000, 0.000, 0.000, 15:19:45.761
17, -42491.56, 56003.55, 342.79, 74656.19, 142018.78, 110271.92, 70336.49, 85368.39, 1820.82, -81566.54, -34964.90, -9454.38, -38040.88, -59361.54, -20371.36, -79564.25, -0.048, 0.952, -0.142, 15:19:45.761
18, -42491.56, 56003.55, 342.79, 74656.19, 142018.78, 110271.92, 70336.49, 85368.39, 1136.52, -81513.61, -34920.71, -9389.97, -38499.83, -59317.82, -20517.36, -79532.98, 0.000, 0.000, 0.000, 15:19:45.761
19, -42376.76, 56046.13, 381.12, 74689.24, 142047.95, 110253.75, 69743.27, 84947.34, 1136.52, -81513.61, -34920.71, -9389.97, -38499.83, -59317.82, -20517.36, -79532.98, 0.000, 0.000, 0.000, 15:19:45.761
20, -42376.76, 56046.13, 381.12, 74689.24, 142047.95, 110253.75, 69743.27, 84947.34, 1605.86, -81537.66, -34909.91, -9420.68, -38356.73, -59342.67, -20442.17, -79547.76, 0.000, 0.000, 0.000, 15:19:45.762
21, -42394.57, 56014.99, 346.30, 74646.29, 142004.66, 110288.11, 70102.76, 85200.42, 1605.86, -81537.66, -34909.91, -9420.68, -38356.73, -59342.67, -20442.17, -79547.76, 0.000, 0.000, 0.000, 15:19:45.762
22, -42394.57, 56014.99, 346.30, 74646.29, 142004.66, 110288.11, 70102.76, 85200.42, 1682.01, -81545.95, -34941.65, -9424.08, -38099.53, -59351.52, -20392.48, -79558.77, 0.000, 0.000, 0.000, 15:19:45.762
23, -42483.24, 56056.07, 379.96, 74697.27, 142050.38, 110240.14, 70067.71, 85164.97, 1682.01, -81545.95, -34941.65, -9424.08, -38099.53, -59351.52, -20392.48, -79558.77, 0.000, 0.000, 0.000, 15:19:45.762
24, -42483.24, 56056.07, 379.96, 74697.27, 142050.38, 110240.14, 70067.71, 85164.97, 1194.23, -81516.72, -34890.25, -9400.05, -38658.59, -59330.63, -20553.14, -79536.51, 0.000, 0.000, 0.000, 15:19:45.762
25, -42325.39, 56025.65, 352.20, 74653.23, 142010.16, 110282.79, 69792.07, 84978.55, 1194.23, -81516.72, -34890.25, -9400.05, -38658.59, -59330.63, -20553.14, -79536.51, 0.000, 0.000, 0.000, 15:19:45.763
26, -42325.39, 56025.65, 352.20, 74653.23, 142010.16, 110282.79, 69792.07, 84978.55, 1958.48, -81552.02, -34937.32, -9440.82, -38055.07, -59370.46, -20368.00, -79561.63, 0.000, 0.000, 0.000, 15:19:45.763
27, -42489.41, 56032.18, 357.20, 74670.78, 142023.52, 110268.48, 70316.24, 85342.76, 1958.48, -81552.02, -34937.32, -9440.82, -38055.07, -59370.46, -20368.00, -79561.63, -0.042, 0.954, -0.142, 15:19:45.763
28, -42489.41, 56032.18, 357.20, 74670.78, 142023.52, 110268.48, 70316.24, 85342.76, 1280.08, -81502.91, -34907.16, -9384.92, -38501.77, -59309.48, -20520.17, -79524.42, 0.000, 0.000, 0.000, 15:19:45.763
29, -42378.05, 56067.14, 392.00, 74710.28, 142045.69, 110261.46, 69735.85, 84941.92, 1280.08, -81502.91, -34907.16, -9384.92, -38501.77, -59309.48, -20520.17, -79524.42, 0.000, 0.000, 0.000, 15:19:45.763
30, -42378.05, 56067.14, 392.00, 74710.28, 142045.69, 110261.46, 69735.85, 84941.92, 1753.43, -81517.14, -34894.54, -9409.66, -38355.88, -59335.79, -20440.58, -79529.60, 0.000, 0.000, 0.000, 15:19:45.764
31, -42380.98, 56048.85, 372.83, 74687.30, 142012.39, 110315.69, 70096.05, 85193.09, 1753.43, -81517.14, -34894.54, -9409.66, -38355.88, -59335.79, -20440.58, -79529.60, 0.000, 0.000, 0.000, 15:19:45.764
32, -42380.98, 56048.85, 372.83, 74687.30, 142012.39, 110315.69, 70096.05, 85193.09, 1809.04, -81504.54, -34920.40, -9390.26, -38120.63, -59323.65, -20386.73, -79513.76, 0.000, 0.000, 0.000, 15:19:45.764
33, -42462.97, 56087.16, 401.10, 74736.05, 142049.22, 110270.54, 70051.75, 85147.49, 1809.04, -81504.54, -34920.40, -9390.26, -38120.63, -59323.65, -20386.73, -79513.76, 0.000, 0.000, 0.000, 15:19:45.764
34, -42462.97, 56087.16, 401.10, 74736.05, 142049.22, 110270.54, 70051.75, 85147.49, 1328.32, -81484.60, -34876.21, -9370.72, -38667.27, -59309.41, -20551.91, -79496.70, 0.000, 0.000, 0.000, 15:19:45.765
35, -42307.29, 56051.18, 367.11, 74683.10, 142004.16, 110297.63, 69775.46, 84964.97, 1328.32, -81484.60, -34876.21, -9370.72, -38667.27, -59309.41, -20551.91, -79496.70, 0.000, 0.000, 0.000, 15:19:45.765
36, -42307.29, 56051.18, 367.11, 74683.10, 142004.16, 110297.63, 69775.46, 84964.97, 2079.94, -81526.94, -34931.11, -9417.86, -38064.41, -59351.28, -20377.64, -79536.34, 0.000, 0.000, 0.000, 15:19:45.765
37, -42467.42, 56060.81, 368.27, 74696.53, 142017.84, 110289.43, 70287.52, 85317.48, 2079.94, -81526.94, -34931.11, -9417.86, -38064.41, -59351.28, -20377.64, -79536.34, -0.042, 0.956, -0.140, 15:19:45.766
38, -42467.42, 56060.81, 368.27, 74696.53, 142017.84, 110289.43, 70287.52, 85317.48, 1395.35, -81479.41, -34902.98, -9365.36, -38517.80, -59310.11, -20533.88, -79508.20, 0.000, 0.000, 0.000, 15:19:45.766
39, -42368.78, 56083.27, 395.74, 74722.46, 142042.50, 110281.60, 69699.29, 84911.86, 1395.35, -81479.41, -34902.98, -9365.36, -38517.80, -59310.11, -20533.88, -79508.20, 0.000, 0.000, 0.000, 15:19:45.767
40, -42368.78, 56083.27, 395.74, 74722.46, 142042.50, 110281.60, 69699.29, 84911.86, 1857.59, -81511.49, -34904.44, -9406.93, -38366.95, -59342.65, -20465.61, -79532.94, 0.000, 0.000, 0.000, 15:19:45.767
41, -42388.00, 56055.45, 371.13, 74687.73, 142013.70, 110313.99, 70058.70, 85169.87, 1857.59, -81511.49, -34904.44, -9406.93, -38366.95, -59342.65, -20465.61, -79532.94, 0.000, 0.000, 0.000, 15:19:45.768
42, -42388.00, 56055.45, 371.13, 74687.73, 142013.70, 110313.99, 70058.70, 85169.87, 1895.76, -81500.80, -34926.14, -9384.47, -38122.64, -59325.21, -20411.08, -79525.98, 0.000, 0.000, 0.000, 15:19:45.768
43, -42464.56, 56099.32, 417.51, 74744.14, 142066.05, 110262.56, 69997.97, 85113.02, 1895.76, -81500.80, -34926.14, -9384.47, -38122.64, -59325.21, -20411.08, -79525.98, 0.000, 0.000, 0.000, 15:19:45.768
44, -42464.56, 56099.32, 417.51, 74744.14, 142066.05, 110262.56, 69997.97, 85113.02, 1398.55, -81473.02, -34870.44, -9355.66, -38674.62, -59307.69, -20560.81, -79510.43, 0.000, 0.000, 0.000, 15:19:45.768
45, -42301.39, 56069.77, 392.63, 74696.91, 142020.83, 110295.22, 69723.34, 84932.63, 1398.55, -81473.02, -34870.44, -9355.66, -38674.62, -59307.69, -20560.81, -79510.43, 0.000, 0.000, 0.000, 15:19:45.768
46, -42301.39, 56069.77, 392.63, 74696.91, 142020.83, 110295.22, 69723.34, 84932.63, 2162.58, -81510.33, -34917.22, -9397.17, -38048.01, -59347.70, -20370.89, -79543.17, 0.000, 0.000, 0.000, 15:19:45.769
47, -42461.21, 56075.54, 398.06, 74712.05, 142040.13, 110279.28, 70260.92, 85311.82, 2162.58, -81510.33, -34917.22, -9397.17, -38048.01, -59347.70, -20370.89, -79543.17, -0.038, 0.960, -0.138, 15:19:45.769
48, -42461.21, 56075.54, 398.06, 74712.05, 142040.13, 110279.28, 70260.92, 85311.82, 1481.25, -81461.65, -34884.05, -9339.83, -38481.81, -59305.57, -20519.30, -79512.26, 0.000, 0.000, 0.000, 15:19:45.769
49, -42354.81, 56118.21, 434.94, 74752.10, 142070.16, 110275.52, 69666.61, 84896.46, 1481.25, -81461.65, -34884.05, -9339.83, -38481.81, -59305.57, -20519.30, -79512.26, 0.000, 0.000, 0.000, 15:19:45.769
50, -42354.81, 56118.21, 434.94, 74752.10, 142070.16, 110275.52, 69666.61, 84896.46, 1927.84, -81476.95, -34874.00, -9365.13, -38349.36, -59323.63, -20444.27, -79516.15, 0.000, 0.000, 0.000, 15:19:45.769
51, -42369.96, 56081.53, 403.76, 74712.91, 142028.97, 110319.71, 70029.45, 85154.13, 1927.84, -81476.95, -34874.00, -9365.13, -38349.36, -59323.63, -20444.27, -79516.15, 0.000, 0.000, 0.000, 15:19:45.770
52, -42369.96, 56081.53, 403.76, 74712.91, 142028.97, 110319.71, 70029.45, 85154.13, 1989.17, -81482.52, -34918.97, -9365.51, -38085.34, -59328.32, -20381.88, -79522.52, 0.000, 0.000, 0.000, 15:19:45.770
53, -42460.38, 56120.45, 437.67, 74762.56, 142073.42, 110278.20, 69997.03, 85122.64, 1989.17, -81482.52, -34918.97, -9365.51, -38085.34, -59328.32, -20381.88, -79522.52, 0.000, 0.000, 0.000, 15:19:45.770
54, -42460.38, 56120.45, 437.67, 74762.56, 142073.42, 110278.20, 69997.03, 85122.64, 1486.19, -81447.54, -34869.61, -9334.80, -38652.94, -59300.76, -20548.58, -79495.50, 0.000, 0.000, 0.000, 15:19:45.770
55, -42301.10, 56083.30, 409.31, 74716.07, 142036.48, 110320.70, 69708.79, 84921.67, 1486.19, -81447.54, -34869.61, -9334.80, -38652.94, -59300.76, -20548.58, -79495.50, 0.000, 0.000, 0.000, 15:19:45.770
56, -42301.10, 56083.30, 409.31, 74716.07, 142036.48, 110320.70, 69708.79, 84921.67, 2233.01, -81500.13, -34932.71, -9389.92, -38040.52, -59334.54, -20369.28, -79533.52, 0.000, 0.000, 0.000, 15:19:45.771
57, -42477.61, 56072.41, 395.04, 74714.97, 142041.44, 110301.61, 70251.38, 85304.87, 2233.01, -81500.13, -34932.71, -9389.92, -38040.52, -59334.54, -20369.28, -79533.52, -0.036, 0.958, -0.144, 15:19:45.771
58, -42477.61, 56072.41, 395.04, 74714.97, 142041.44, 110301.61, 70251.38, 85304.87, 1552.80, -81463.14, -34910.41, -9341.24, -38468.87, -59310.22, -20531.87, -79507.50, 0.000, 0.000, 0.000, 15:19:45.771
59, -42377.07, 56106.59, 426.85, 74748.30, 142075.66, 110293.74, 69678.37, 84912.17, 1552.80, -81463.14, -34910.41, -9341.24, -38468.87, -59310.22, -20531.87, -79507.50, 0.000, 0.000, 0.000, 15:19:45.771
60, -42377.07, 56106.59, 426.85, 74748.30, 142075.66, 110293.74, 69678.37, 84912.17, 1988.52, -81477.58, -34892.08, -9361.87, -38342.85, -59330.67, -20471.40, -79515.45, 0.000, 0.000, 0.000, 15:19:45.772
61, -42388.27, 56077.20, 390.13, 74706.30, 142037.47, 110322.80, 70028.26, 85155.59, 1988.52, -81477.58, -34892.08, -9361.87, -38342.85, -59330.67, -20471.40, -79515.45, 0.000, 0.000, 0.000, 15:19:45.772
62, -42388.27, 56077.20, 390.13, 74706.30, 142037.47, 110322.80, 70028.26, 85155.59, 2028.78, -81480.76, -34930.52, -9360.11, -38100.34, -59332.97, -20425.36, -79534.79, 0.000, 0.000, 0.000, 15:19:45.772
63, -42477.93, 56123.82, 422.63, 74756.79, 142079.48, 110270.25, 69981.45, 85106.01, 2028.78, -81480.76, -34930.52, -9360.11, -38100.34, -59332.97, -20425.36, -79534.79, 0.000, 0.000, 0.000, 15:19:45.773
64, -42477.93, 56123.82, 422.63, 74756.79, 142079.48, 110270.25, 69981.45, 85106.01, 1536.59, -81452.15, -34878.31, -9335.00, -38658.14, -59313.95, -20597.65, -79521.23, 0.000, 0.000, 0.000, 15:19:45.773
65, -42320.86, 56097.31, 398.46, 74716.18, 142030.98, 110301.66, 69710.84, 84924.06, 1536.59, -81452.15, -34878.31, -9335.00, -38658.14, -59313.95, -20597.65, -79521.23, 0.000, 0.000, 0.000, 15:19:45.773
66, -42320.86, 56097.31, 398.46, 74716.18, 142030.98, 110301.66, 69710.84, 84924.06, 2276.75, -81484.04, -34921.09, -9373.32, -38058.47, -59342.20, -20419.28, -79548.20, -0.040, 0.956, -0.148, 15:19:45.773
67, -42473.03, 56106.50, 413.60, 74741.91, 142048.89, 110295.38, 70224.73, 85278.79, 2276.75, -81484.04, -34921.09, -9373.32, -38058.47, -59342.20, -20419.28, -79548.20, 0.000, 0.000, 0.000, 15:19:45.774
68, -42473.03, 56106.50, 413.60, 74741.91, 142048.89, 110295.38, 70224.73, 85278.79, 1581.16, -81428.61, -34875.61, -9308.79, -38502.73, -59284.38, -20565.13, -79499.20, 0.000, 0.000, 0.000, 15:19:45.774
69, -42359.41, 56137.19, 446.07, 74773.58, 142069.88, 110286.95, 69624.25, 84860.79, 1581.16, -81428.61, -34875.61, -9308.79, -38502.73, -59284.38, -20565.13, -79499.20, 0.000, 0.000, 0.000, 15:19:45.774
70, -42359.41, 56137.19, 446.07, 74773.58, 142069.88, 110286.95, 69624.25, 84860.79, 2042.41, -81463.39, -34879.79, -9357.92, -38336.70, -59321.41, -20496.53, -79521.91, 0.000, 0.000, 0.000, 15:19:45.774
71, -42381.95, 56101.60, 405.62, 74722.77, 142025.30, 110312.16, 70005.91, 85136.88, 2042.41, -81463.39, -34879.79, -9357.92, -38336.70, -59321.41, -20496.53, -79521.91, 0.000, 0.000, 0.000, 15:19:45.775
72, -42381.95, 56101.60, 405.62, 74722.77, 142025.30, 110312.16, 70005.91, 85136.88, 2106.90, -81461.78, -34910.83, -9353.33, -38064.48, -59320.99, -20432.80, -79515.41, 0.000, 0.000, 0.000, 15:19:45.775
73, -42469.95, 56142.11, 444.42, 74776.95, 142081.50, 110272.53, 69978.95, 85109.02, 2106.90, -81461.78, -34910.83, -9353.33, -38064.48, -59320.99, -20432.80, -79515.41, 0.000, 0.000, 0.000, 15:19:45.775
74, -42469.95, 56142.11, 444.42, 74776.95, 142081.50, 110272.53, 69978.95, 85109.02, 1640.15, -81422.69, -34850.44, -9326.47, -38598.11, -59295.31, -20569.97, -79474.93, 0.000, 0.000, 0.000, 15:19:45.776
75, -42310.62, 56104.64, 420.44, 74733.37, 142049.52, 110314.77, 69711.31, 84932.65, 1640.15, -81422.69, -34850.44, -9326.47, -38598.11, -59295.31, -20569.97, -79474.93, 0.000, 0.000, 0.000, 15:19:45.776
76, -42310.62, 56104.64, 420.44, 74733.37, 142049.52, 110314.77, 69711.31, 84932.65, 2386.58, -81464.04, -34906.76, -9384.27, -37995.26, -59314.62, -20370.46, -79494.34, -0.036, 0.958, -0.142, 15:19:45.776
77, -42477.43, 56104.71, 423.39, 74745.39, 142066.97, 110312.43, 70230.16, 85293.92, 2386.58, -81464.04, -34906.76, -9384.27, -37995.26, -59314.62, -20370.46, -79494.34, 0.000, 0.000, 0.000, 15:19:45.776
78, -42477.43, 56104.71, 423.39, 74745.39, 142066.97, 110312.43, 70230.16, 85293.92, 1709.01, -81423.27, -34884.70, -9349.82, -38438.43, -59281.65, -20507.86, -79456.18, 0.000, 0.000, 0.000, 15:19:45.777
79, -42375.31, 56129.57, 451.89, 74769.31, 142093.09, 110312.41, 69655.92, 84894.29, 1709.01, -81423.27, -34884.70, -9349.82, -38438.43, -59281.65, -20507.86, -79456.18, 0.000, 0.000, 0.000, 15:19:45.777
80, -42375.31, 56129.57, 451.89, 74769.31, 142093.09, 110312.41, 69655.92, 84894.29, 2199.84, -81444.68, -34878.09, -9391.04, -38283.60, -59306.55, -20431.08, -79460.52, 0.000, 0.000, 0.000, 15:19:45.777
81, -42394.91, 56098.96, 419.90, 74731.49, 142056.59, 110359.39, 70011.05, 85147.88, 2199.84, -81444.68, -34878.09, -9391.04, -38283.60, -59306.55, -20431.08, -79460.52, 0.000, 0.000, 0.000, 15:19:45.778
82, -42394.91, 56098.96, 419.90, 74731.49, 142056.59, 110359.39, 70011.05, 85147.88, 2265.33, -81449.64, -34921.20, -9402.80, -38053.08, -59303.85, -20368.85, -79460.70, 0.000, 0.000, 0.000, 15:19:45.778
83, -42488.99, 56119.35, 433.13, 74761.30, 142089.59, 110317.48, 69971.84, 85108.89, 2265.33, -81449.64, -34921.20, -9402.80, -38053.08, -59303.85, -20368.85, -79460.70, 0.000, 0.000, 0.000, 15:19:45.778
84, -42488.99, 56119.35, 433.13, 74761.30, 142089.59, 110317.48, 69971.84, 85108.89, 1811.92, -81428.14, -34880.54, -9401.93, -38610.60, -59288.85, -20532.49, -79442.21, 0.000, 0.000, 0.000, 15:19:45.778
85, -42328.66, 56087.63, 404.03, 74710.13, 142060.58, 110353.98, 69666.20, 84892.57, 1811.92, -81428.14, -34880.54, -9401.93, -38610.60, -59288.85, -20532.49, -79442.21, 0.000, 0.000, 0.000, 15:19:45.778
86, -42328.66, 56087.63, 404.03, 74710.13, 142060.58, 110353.98, 69666.20, 84892.57, 2539.45, -81485.13, -34946.35, -9474.70, -38028.23, -59341.73, -20349.59, -79491.27, -0.040, 0.958, -0.132, 15:19:45.778
87, -42502.22, 56072.37, 381.97, 74697.25, 142057.64, 110318.39, 70186.33, 85253.66, 2539.45, -81485.13, -34946.35, -9474.70, -38028.23, -59341.73, -20349.59, -79491.27, 0.000, 0.000, 0.000, 15:19:45.779
88, -42502.22, 56072.37, 381.97, 74697.25, 142057.64, 110318.39, 70186.33, 85253.66, 1873.61, -81443.77, -34920.84, -9430.04, -38446.70, -59307.80, -20493.17, -79479.67, 0.000, 0.000, 0.000, 15:19:45.779
89, -42387.38, 56107.64, 416.23, 74731.52, 142077.89, 110306.81, 69613.43, 84853.08, 1873.61, -81443.77, -34920.84, -9430.04, -38446.70, -59307.80, -20493.17, -79479.67, 0.000, 0.000, 0.000, 15:19:45.779
90, -42387.38, 56107.64, 416.23, 74731.52, 142077.89, 110306.81, 69613.43, 84853.08, 2343.40, -81455.25, -34903.10, -9448.42, -38291.44, -59325.98, -20417.40, -79493.87, 0.000, 0.000, 0.000, 15:19:45.779
91, -42392.38, 56084.93, 393.21, 74704.55, 142031.83, 110344.79, 69975.93, 85109.52, 2343.40, -81455.25, -34903.10, -9448.42, -38291.44, -59325.98, -20417.40, -79493.87, 0.000, 0.000, 0.000, 15:19:45.780
92, -42392.38, 56084.93, 393.21, 74704.55, 142031.83, 110344.79, 69975.93, 85109.52, 2383.46, -81451.79, -34932.89, -9431.21, -38042.49, -59323.99, -20357.30, -79496.59, 0.000, 0.000, 0.000, 15:19:45.780
93, -42470.04, 56123.38, 419.30, 74754.67, 142064.23, 110293.34, 69958.50, 85090.09, 2383.46, -81451.79, -34932.89, -9431.21, -38042.49, -59323.99, -20357.30, -79496.59, 0.000, 0.000, 0.000, 15:19:45.780
94, -42470.04, 56123.38, 419.30, 74754.67, 142064.23, 110293.34, 69958.50, 85090.09, 1922.94, -81416.31, -34879.32, -9394.46, -38578.86, -59299.73, -20517.43, -79472.43, 0.000, 0.000, 0.000, 15:19:45.780
95, -42292.76, 56119.19, 412.28, 74735.52, 142040.89, 110346.11, 69682.43, 84895.52, 1922.94, -81416.31, -34879.32, -9394.46, -38578.86, -59299.73, -20517.43, -79472.43, 0.000, 0.000, 0.000, 15:19:45.780
96, -42292.76, 56119.19, 412.28, 74735.52, 142040.89, 110346.11, 69682.43, 84895.52, 2623.33, -81442.60, -34917.22, -9421.77, -38009.14, -59313.84, -20329.45, -79492.10, -0.040, 0.956, -0.140, 15:19:45.780
97, -42452.38, 56121.92, 414.74, 74749.02, 142051.55, 110332.41, 70195.98, 85246.51, 2623.33, -81442.60, -34917.22, -9421.77, -38009.14, -59313.84, -20329.45, -79492.10, 0.000, 0.000, 0.000, 15:19:45.781
98, -42452.38, 56121.92, 414.74, 74749.02, 142051.55, 110332.41, 70195.98, 85246.51, 1929.09, -81394.70, -34881.59, -9360.51, -38452.15, -59278.25, -20467.56, -79458.57, 0.000, 0.000, 0.000, 15:19:45.781
99, -42342.25, 56153.55, 446.32, 74780.48, 142079.73, 110321.21, 69616.59, 84838.97, 1929.09, -81394.70, -34881.59, -9360.51, -38452.15, -59278.25, -20467.56, -79458.57, 0.000, 0.000, 0.000, 15:19:45.781
100, -42342.25, 56153.55, 446.32, 74780.48, 142079.73, 110321.21, 69616.59, 84838.97, 2387.19, -81418.98, -34869.91, -9390.30, -38289.18, -59303.96, -20388.12, -79471.27, 0.000, 0.000, 0.000, 15:19:45.782
101, -42353.47, 56130.17, 429.18, 74754.78, 142057.56, 110372.48, 69978.68, 85096.58, 2387.19, -81418.98, -34869.91, -9390.30, -38289.18, -59303.96, -20388.12, -79471.27, 0.000, 0.000, 0.000, 15:19:45.782
102, -42353.47, 56130.17, 429.18, 74754.78, 142057.56, 110372.48, 69978.68, 85096.58, 2388.84, -81410.46, -34883.02, -9369.05, -38056.30, -59289.72, -20325.45, -79453.41, 0.000, 0.000, 0.000, 15:19:45.783
103, -42441.45, 56170.65, 466.06, 74808.38, 142113.27, 110335.54, 69924.08, 85039.91, 2388.84, -81410.46, -34883.02, -9369.05, -38056.30, -59289.72, -20325.45, -79453.41, 0.000, 0.000, 0.000, 15:19:45.783
104, -42441.45, 56170.65, 466.06, 74808.38, 142113.27, 110335.54, 69924.08, 85039.91, 1908.88, -81385.34, -34835.35, -9347.39, -38592.77, -59267.95, -20468.41, -79434.27, 0.000, 0.000, 0.000, 15:19:45.783
105, -42288.54, 56149.48, 441.47, 74772.87, 142088.36, 110388.31, 69647.45, 84849.37, 1908.88, -81385.34, -34835.35, -9347.39, -38592.77, -59267.95, -20468.41, -79434.27, 0.000, 0.000, 0.000, 15:19:45.783
106, -42288.54, 56149.48, 441.47, 74772.87, 142088.36, 110388.31, 69647.45, 84849.37, 2614.35, -81424.38, -34887.12, -9389.95, -38004.67, -59309.61, -20285.88, -79460.16, -0.038, 0.956, -0.140, 15:19:45.784
107, -42455.17, 56130.73, 422.43, 74774.36, 142095.95, 110372.93, 70156.16, 85206.50, 2614.35, -81424.38, -34887.12, -9389.95, -38004.67, -59309.61, -20285.88, -79460.16, 0.000, 0.000, 0.000, 15:19:45.784
108, -42455.17, 56130.73, 422.43, 74774.36, 142095.95, 110372.93, 70156.16, 85206.50, 1928.49, -81401.83, -34865.46, -9352.44, -38438.94, -59265.09, -20434.37, -79437.52, 0.000, 0.000, 0.000, 15:19:45.784
109, -42357.49, 56149.93, 441.40, 74794.45, 142129.55, 110358.98, 69585.45, 84811.34, 1928.49, -81401.83, -34865.46, -9352.44, -38438.94, -59265.09, -20434.37, -79437.52, 0.000, 0.000, 0.000, 15:19:45.784
110, -42357.49, 56149.93, 441.40, 74794.45, 142129.55, 110358.98, 69585.45, 84811.34, 2377.24, -81438.16, -34870.96, -9402.53, -38291.31, -59313.73, -20363.44, -79459.33, 0.000, 0.000, 0.000, 15:19:45.784
111, -42388.63, 56105.07, 393.01, 74739.85, 142091.84, 110379.52, 69963.93, 85085.60, 2377.24, -81438.16, -34870.96, -9402.53, -38291.31, -59313.73, -20363.44, -79459.33, 0.000, 0.000, 0.000, 15:19:45.785
112, -42388.63, 56105.07, 393.01, 74739.85, 142091.84, 110379.52, 69963.93, 85085.60, 2383.84, -81436.23, -34910.56, -9401.03, -38052.28, -59314.26, -20313.26, -79469.48, 0.000, 0.000, 0.000, 15:19:45.785
113, -42461.90, 56156.54, 431.66, 74796.53, 142141.17, 110330.60, 69931.86, 85050.51, 2383.84, -81436.23, -34910.56, -9401.03, -38052.28, -59314.26, -20313.26, -79469.48, 0.000, 0.000, 0.000, 15:19:45.785
114, -42461.90, 56156.54, 431.66, 74796.53, 142141.17, 110330.60, 69931.86, 85050.51, 1872.96, -81391.70, -34842.93, -9360.96, -38597.53, -59285.59, -20480.30, -79444.87, 0.000, 0.000, 0.000, 15:19:45.786
115, -42289.88, 56136.67, 417.17, 74767.23, 142094.86, 110381.07, 69649.35, 84856.07, 1872.96, -81391.70, -34842.93, -9360.96, -38597.53, -59285.59, -20480.30, -79444.87, 0.000, 0.000, 0.000, 15:19:45.786
116, -42289.88, 56136.67, 417.17, 74767.23, 142094.86, 110381.07, 69649.35, 84856.07, 2573.65, -81422.93, -34874.22, -9388.25, -38005.30, -59309.52, -20300.61, -79466.84, -0.036, 0.956, -0.138, 15:19:45.786
117, -42443.66, 56147.16, 421.42, 74788.95, 142098.38, 110369.49, 70174.80, 85230.28, 2573.65, -81422.93, -34874.22, -9388.25, -38005.30, -59309.52, -20300.61, -79466.84, 0.000, 0.000, 0.000, 15:19:45.786
118, -42443.66, 56147.16, 421.42, 74788.95, 142098.38, 110369.49, 70174.80, 85230.28, 1868.02, -81359.34, -34835.19, -9322.31, -38444.71, -59258.03, -20445.23, -79431.64, 0.000, 0.000, 0.000, 15:19:45.787
119, -42323.63, 56193.94, 457.72, 74830.66, 142125.63, 110365.45, 69585.27, 84816.55, 1868.02, -81359.34, -34835.19, -9322.31, -38444.71, -59258.03, -20445.23, -79431.64, 0.000, 0.000, 0.000, 15:19:45.787
120, -42323.63, 56193.94, 457.72, 74830.66, 142125.63, 110365.45, 69585.27, 84816.55, 2304.49, -81379.68, -34828.04, -9351.25, -38292.02, -59285.59, -20367.91, -79445.30, 0.000, 0.000, 0.000, 15:19:45.787
121, -42339.28, 56153.53, 420.86, 74788.20, 142081.30, 110398.52, 69950.92, 85074.83, 2304.49, -81379.68, -34828.04, -9351.25, -38292.02, -59285.59, -20367.91, -79445.30, 0.000, 0.000, 0.000, 15:19:46.236
122, -42339.28, 56153.53, 420.86, 74788.20, 142081.30, 110398.52, 69950.92, 85074.83, 2322.95, -81386.86, -34868.05, -9349.26, -38037.88, -59292.58, -20305.82, -79450.95, 0.000, 0.000, 0.000, 15:19:46.236
123, -42420.64, 56193.02, 454.81, 74840.81, 142124.25, 110340.27, 69925.87, 85045.39, 2322.95, -81386.86, -34868.05, -9349.26, -38037.88, -59292.58, -20305.82, -79450.95, 0.000, 0.000, 0.000, 15:19:46.236
124, -42420.64, 56193.02, 454.81, 74840.81, 142124.25, 110340.27, 69925.87, 85045.39, 1832.95, -81352.16, -34812.53, -9318.96, -38570.17, -59264.89, -20462.69, -79429.42, 0.000, 0.000, 0.000, 15:19:46.237
125, -42256.13, 56172.52, 437.45, 74804.00, 142090.58, 110378.14, 69654.90, 84858.98, 1832.95, -81352.16, -34812.53, -9318.96, -38570.17, -59264.89, -20462.69, -79429.42, -0.040, 0.950, -0.132, 15:19:46.237
126, -42256.13, 56172.52, 437.45, 74804.00, 142090.58, 110378.14, 69654.90, 84858.98, 2526.64, -81384.94, -34850.26, -9354.14, -37988.89, -59295.55, -20283.56, -79450.41, 0.000, 0.000, 0.000, 15:19:46.237
127, -42411.79, 56183.36, 444.76, 74821.08, 142108.88, 110376.58, 70163.22, 85214.80, 2526.64, -81384.94, -34850.26, -9354.14, -37988.89, -59295.55, -20283.56, -79450.41, 0.000, 0.000, 0.000, 15:19:46.237
128, -42411.79, 56183.36, 444.76, 74821.08, 142108.88, 110376.58, 70163.22, 85214.80, 1816.01, -81332.02, -34811.01, -9292.51, -38430.83, -59254.07, -20432.87, -79409.82, 0.000, 0.000, 0.000, 15:19:46.237
129, -42299.69, 56212.89, 472.92, 74848.59, 142142.77, 110380.63, 69560.30, 84786.63, 1816.01, -81332.02, -34811.01, -9292.51, -38430.83, -59254.07, -20432.87, -79409.82, 0.000, 0.000, 0.000, 15:19:46.237
130, -42299.69, 56212.89, 472.92, 74848.59, 142142.77, 110380.63, 69560.30, 84786.63, 2250.40, -81366.80, -34821.85, -9344.91, -38274.68, -59281.52, -20367.74, -79440.31, 0.000, 0.000, 0.000, 15:19:46.238
131, -42327.16, 56165.28, 425.71, 74793.45, 142101.72, 110412.49, 69925.30, 85055.96, 2250.40, -81366.80, -34821.85, -9344.91, -38274.68, -59281.52, -20367.74, -79440.31, 0.000, 0.000, 0.000, 15:19:46.238
132, -42327.16, 56165.28, 425.71, 74793.45, 142101.72, 110412.49, 69925.30, 85055.96, 2259.27, -81371.26, -34865.23, -9346.96, -38034.13, -59292.79, -20314.87, -79454.73, 0.000, 0.000, 0.000, 15:19:46.238
133, -42420.12, 56201.92, 455.51, 74835.60, 142149.95, 110364.73, 69888.41, 85023.73, 2259.27, -81371.26, -34865.23, -9346.96, -38034.13, -59292.79, -20314.87, -79454.73, 0.000, 0.000, 0.000, 15:19:46.238
134, -42420.12, 56201.92, 455.51, 74835.60, 142149.95, 110364.73, 69888.41, 85023.73, 1754.50, -81333.32, -34807.25, -9311.89, -38577.84, -59264.51, -20477.39, -79433.88, 0.000, 0.000, 0.000, 15:19:46.238
135, -42254.21, 56184.93, 441.27, 74798.37, 142122.22, 110402.39, 69597.88, 84819.16, 1754.50, -81333.32, -34807.25, -9311.89, -38577.84, -59264.51, -20477.39, -79433.88, -0.048, 0.950, -0.136, 15:19:46.238
136, -42254.21, 56184.93, 441.27, 74798.37, 142122.22, 110402.39, 69597.88, 84819.16, 2446.04, -81383.93, -34856.38, -9361.09, -37988.49, -59311.11, -20298.07, -79473.73, 0.000, 0.000, 0.000, 15:19:46.239
137, -42418.65, 56186.43, 436.06, 74802.99, 142123.72, 110378.86, 70119.05, 85185.47, 2446.04, -81383.93, -34856.38, -9361.09, -37988.49, -59311.11, -20298.07, -79473.73, 0.000, 0.000, 0.000, 15:19:46.239
138, -42418.65, 56186.43, 436.06, 74802.99, 142123.72, 110378.86, 70119.05, 85185.47, 1742.36, -81333.08, -34819.86, -9305.34, -38425.89, -59264.87, -20447.24, -79444.60, 0.000, 0.000, 0.000, 15:19:46.239
139, -42299.56, 56222.39, 467.67, 74832.68, 142141.06, 110366.09, 69542.13, 84779.91, 1742.36, -81333.08, -34819.86, -9305.34, -38425.89, -59264.87, -20447.24, -79444.60, 0.000, 0.000, 0.000, 15:19:46.239
140, -42299.56, 56222.39, 467.67, 74832.68, 142141.06, 110366.09, 69542.13, 84779.91, 2207.15, -81363.56, -34817.76, -9350.47, -38238.67, -59302.21, -20375.80, -79470.48, 0.000, 0.000, 0.000, 15:19:46.239
141, -42319.94, 56183.25, 429.27, 74788.55, 142089.34, 110394.77, 69937.20, 85072.13, 2207.15, -81363.56, -34817.76, -9350.47, -38238.67, -59302.21, -20375.80, -79470.48, 0.000, 0.000, 0.000, 15:19:46.239
142, -42319.94, 56183.25, 429.27, 74788.55, 142089.34, 110394.77, 69937.20, 85072.13, 2215.64, -81347.27, -34825.02, -9325.19, -37999.77, -59286.66, -20314.43, -79459.47, 0.000, 0.000, 0.000, 15:19:46.240
143, -42386.13, 56243.20, 485.30, 74865.51, 142152.84, 110370.16, 69880.20, 85022.41, 2215.64, -81347.27, -34825.02, -9325.19, -37999.77, -59286.66, -20314.43, -79459.47, 0.000, 0.000, 0.000, 15:19:46.240
144, -42386.13, 56243.20, 485.30, 74865.51, 142152.84, 110370.16, 69880.20, 85022.41, 1719.21, -81305.27, -34759.66, -9288.13, -38540.29, -59252.33, -20456.25, -79422.70, 0.000, 0.000, 0.000, 15:19:46.240
145, -42215.76, 56213.18, 458.70, 74824.02, 142106.80, 110411.53, 69617.75, 84842.73, 1719.21, -81305.27, -34759.66, -9288.13, -38540.29, -59252.33, -20456.25, -79422.70, -0.054, 0.958, -0.142, 15:19:46.240
146, -42215.76, 56213.18, 458.70, 74824.02, 142106.80, 110411.53, 69617.75, 84842.73, 2439.16, -81344.90, -34809.62, -9335.52, -37926.44, -59300.07, -20279.25, -79453.88, 0.000, 0.000, 0.000, 15:19:46.240
147, -42379.84, 56226.64, 464.87, 74843.88, 142124.02, 110398.64, 70142.70, 85216.18, 2439.16, -81344.90, -34809.62, -9335.52, -37926.44, -59300.07, -20279.25, -79453.88, 0.000, 0.000, 0.000, 15:19:46.240
148, -42379.84, 56226.64, 464.87, 74843.88, 142124.02, 110398.64, 70142.70, 85216.18, 1711.56, -81292.80, -34764.52, -9273.36, -38375.38, -59235.74, -20431.88, -79410.63, 0.000, 0.000, 0.000, 15:19:46.241
149, -42258.25, 56270.54, 491.94, 74876.38, 142147.05, 110398.64, 69556.16, 84804.59, 1711.56, -81292.80, -34764.52, -9273.36, -38375.38, -59235.74, -20431.88, -79410.63, 0.000, 0.000, 0.000, 15:19:46.241
150, -42258.25, 56270.54, 491.94, 74876.38, 142147.05, 110398.64, 69556.16, 84804.59, 2155.96, -81315.95, -34765.12, -9311.29, -38210.69, -59270.34, -20362.51, -79431.52, 0.000, 0.000, 0.000, 15:19:46.241
151, -42268.42, 56223.38, 449.23, 74834.48, 142111.06, 110441.38, 69922.63, 85069.24, 2155.96, -81315.95, -34765.12, -9311.29, -38210.69, -59270.34, -20362.51, -79431.52, 0.000, 0.000, 0.000, 15:19:46.241
152, -42268.42, 56223.38, 449.23, 74834.48, 142111.06, 110441.38, 69922.63, 85069.24, 2147.62, -81320.02, -34806.20, -9306.10, -37982.43, -59267.37, -20310.16, -79427.57, 0.000, 0.000, 0.000, 15:19:46.241
153, -42353.69, 56251.16, 480.85, 74880.48, 142169.70, 110409.55, 69866.55, 85021.79, 2147.62, -81320.02, -34806.20, -9306.10, -37982.43, -59267.37, -20310.16, -79427.57, 0.000, 0.000, 0.000, 15:19:46.241
154, -42353.69, 56251.16, 480.85, 74880.48, 142169.70, 110409.55, 69866.55, 85021.79, 1646.59, -81302.91, -34770.46, -9294.53, -38520.75, -59258.27, -20463.49, -79416.13, 0.000, 0.000, 0.000, 15:19:46.242
155, -42205.86, 56205.18, 441.85, 74819.87, 142137.89, 110441.17, 69605.09, 84846.26, 1646.59, -81302.91, -34770.46, -9294.53, -38520.75, -59258.27, -20463.49, -79416.13, -0.050, 0.954, -0.136, 15:19:46.242
156, -42205.86, 56205.18, 441.85, 74819.87, 142137.89, 110441.17, 69605.09, 84846.26, 2350.42, -81349.77, -34827.57, -9344.79, -37923.64, -59298.19, -20283.18, -79461.21, 0.000, 0.000, 0.000, 15:19:46.242
157, -42371.60, 56206.34, 437.40, 74826.64, 142158.47, 110421.15, 70121.13, 85209.83, 2350.42, -81349.77, -34827.57, -9344.79, -37923.64, -59298.19, -20283.18, -79461.21, 0.000, 0.000, 0.000, 15:19:46.242
158, -42371.60, 56206.34, 437.40, 74826.64, 142158.47, 110421.15, 70121.13, 85209.83, 1643.39, -81313.63, -34797.62, -9298.26, -38361.98, -59272.13, -20433.70, -79448.24, 0.000, 0.000, 0.000, 15:19:46.242
159, -42266.39, 56241.95, 462.50, 74854.09, 142173.67, 110399.82, 69553.82, 84816.04, 1643.39, -81313.63, -34797.62, -9298.26, -38361.98, -59272.13, -20433.70, -79448.24, 0.000, 0.000, 0.000, 15:19:46.242
160, -42266.39, 56241.95, 462.50, 74854.09, 142173.67, 110399.82, 69553.82, 84816.04, 2079.09, -81319.27, -34774.64, -9311.20, -38218.98, -59281.38, -20374.35, -79459.38, 0.000, 0.000, 0.000, 15:19:46.243
161, -42267.62, 56218.52, 434.85, 74827.63, 142128.48, 110433.64, 69904.66, 85069.48, 2079.09, -81319.27, -34774.64, -9311.20, -38218.98, -59281.38, -20374.35, -79459.38, 0.000, 0.000, 0.000, 15:19:46.243
162, -42267.62, 56218.52, 434.85, 74827.63, 142128.48, 110433.64, 69904.66, 85069.48, 2082.00, -81310.37, -34806.71, -9292.83, -37996.45, -59275.41, -20324.60, -79461.01, 0.000, 0.000, 0.000, 15:19:46.243
163, -42340.82, 56269.31, 478.44, 74893.83, 142167.80, 110388.45, 69855.37, 85032.13, 2082.00, -81310.37, -34806.71, -9292.83, -37996.45, -59275.41, -20324.60, -79461.01, 0.000, 0.000, 0.000, 15:19:46.243
164, -42340.82, 56269.31, 478.44, 74893.83, 142167.80, 110388.45, 69855.37, 85032.13, 1590.04, -81269.06, -34747.64, -9251.14, -38540.75, -59249.00, -20487.54, -79432.30, 0.000, 0.000, 0.000, 15:19:46.243
165, -42171.44, 56246.04, 461.99, 74861.63, 142125.48, 110428.59, 69582.32, 84849.79, 1590.04, -81269.06, -34747.64, -9251.14, -38540.75, -59249.00, -20487.54, -79432.30, -0.046, 0.962, -0.138, 15:19:46.243
166, -42171.44, 56246.04, 461.99, 74861.63, 142125.48, 110428.59, 69582.32, 84849.79, 2307.30, -81301.70, -34786.46, -9281.29, -37941.50, -59283.86, -20299.36, -79454.80, 0.000, 0.000, 0.000, 15:19:46.244
167, -42321.06, 56264.91, 478.57, 74887.86, 142148.89, 110423.52, 70094.53, 85218.17, 2307.30, -81301.70, -34786.46, -9281.29, -37941.50, -59283.86, -20299.36, -79454.80, 0.000, 0.000, 0.000, 15:19:46.244
168, -42321.06, 56264.91, 478.57, 74887.86, 142148.89, 110423.52, 70094.53, 85218.17, 1597.77, -81246.64, -34739.88, -9215.98, -38388.65, -59235.50, -20436.02, -79411.30, 0.000, 0.000, 0.000, 15:19:46.244
169, -42203.13, 56291.70, 503.90, 74909.09, 142172.13, 110409.32, 69527.98, 84826.55, 1597.77, -81246.64, -34739.88, -9215.98, -38388.65, -59235.50, -20436.02, -79411.30, 0.000, 0.000, 0.000, 15:19:46.244
170, -42203.13, 56291.70, 503.90, 74909.09, 142172.13, 110409.32, 69527.98, 84826.55, 2074.49, -81281.04, -34739.75, -9258.99, -38206.28, -59273.27, -20358.01, -79437.02, 0.000, 0.000, 0.000, 15:19:46.244
171, -42220.30, 56265.04, 474.57, 74872.40, 142138.56, 110445.30, 69907.07, 85107.33, 2074.49, -81281.04, -34739.75, -9258.99, -38206.28, -59273.27, -20358.01, -79437.02, 0.000, 0.000, 0.000, 15:19:46.244
172, -42220.30, 56265.04, 474.57, 74872.40, 142138.56, 110445.30, 69907.07, 85107.33, 2075.65, -81277.53, -34769.07, -9248.26, -37988.78, -59265.31, -20297.26, -79436.78, 0.000, 0.000, 0.000, 15:19:46.245
173, -42299.76, 56322.77, 522.05, 74938.04, 142198.31, 110411.84, 69855.99, 85064.95, 2075.65, -81277.53, -34769.07, -9248.26, -37988.78, -59265.31, -20297.26, -79436.78, 0.000, 0.000, 0.000, 15:19:46.245
174, -42299.76, 56322.77, 522.05, 74938.04, 142198.31, 110411.84, 69855.99, 85064.95, 1574.19, -81229.14, -34695.94, -9203.53, -38539.12, -59226.00, -20445.23, -79405.89, -0.054, 0.966, -0.134, 15:19:46.245
175, -42130.94, 56295.26, 492.95, 74891.06, 142156.89, 110448.57, 69574.81, 84868.07, 1574.19, -81229.14, -34695.94, -9203.53, -38539.12, -59226.00, -20445.23, -79405.89, 0.000, 0.000, 0.000, 15:19:46.245
176, -42130.94, 56295.26, 492.95, 74891.06, 142156.89, 110448.57, 69574.81, 84868.07, 2287.72, -81273.11, -34757.59, -9255.52, -37950.89, -59273.81, -20272.79, -79447.44, 0.000, 0.000, 0.000, 15:19:46.245
177, -42295.40, 56307.80, 495.49, 74915.18, 142180.77, 110446.73, 70068.96, 85217.99, 2287.72, -81273.11, -34757.59, -9255.52, -37950.89, -59273.81, -20272.79, -79447.44, 0.000, 0.000, 0.000, 15:19:46.245
178, -42295.40, 56307.80, 495.49, 74915.18, 142180.77, 110446.73, 70068.96, 85217.99, 1567.44, -81217.41, -34721.24, -9197.70, -38415.47, -59220.07, -20426.50, -79408.46, 0.000, 0.000, 0.000, 15:19:46.246
179, -42192.02, 56314.66, 502.53, 74917.81, 142194.78, 110428.84, 69499.93, 84827.41, 1567.44, -81217.41, -34721.24, -9197.70, -38415.47, -59220.07, -20426.50, -79408.46, 0.000, 0.000, 0.000, 15:19:46.246
180, -42192.02, 56314.66, 502.53, 74917.81, 142194.78, 110428.84, 69499.93, 84827.41, 2059.13, -81275.01, -34750.08, -9271.59, -38221.66, -59278.61, -20366.57, -79452.47, 0.000, 0.000, 0.000, 15:19:46.246
181, -42237.22, 56266.49, 451.55, 74858.13, 142154.92, 110458.41, 69894.84, 85124.16, 2059.13, -81275.01, -34750.08, -9271.59, -38221.66, -59278.61, -20366.57, -79452.47, 0.000, 0.000, 0.000, 15:19:46.246
182, -42237.22, 56266.49, 451.55, 74858.13, 142154.92, 110458.41, 69894.84, 85124.16, 2056.94, -81278.30, -34771.29, -9266.21, -38005.30, -59275.98, -20326.09, -79444.09, 0.000, 0.000, 0.000, 15:19:46.246
183, -42327.23, 56312.65, 487.40, 74909.50, 142214.48, 110419.11, 69850.72, 85088.53, 2056.94, -81278.30, -34771.29, -9266.21, -38005.30, -59275.98, -20326.09, -79444.09, 0.000, 0.000, 0.000, 15:19:46.246
184, -42327.23, 56312.65, 487.40, 74909.50, 142214.48, 110419.11, 69850.72, 85088.53, 1581.90, -81253.38, -34712.70, -9242.69, -38529.27, -59258.99, -20480.61, -79425.94, -0.052, 0.962, -0.136, 15:19:46.247
185, -42168.33, 56291.01, 466.15, 74873.27, 142179.42, 110458.23, 69585.41, 84904.06, 1581.90, -81253.38, -34712.70, -9242.69, -38529.27, -59258.99, -20480.61, -79425.94, 0.000, 0.000, 0.000, 15:19:46.247
186, -42168.33, 56291.01, 466.15, 74873.27, 142179.42, 110458.23, 69585.41, 84904.06, 2277.60, -81283.39, -34748.40, -9275.62, -37955.92, -59289.81, -20300.39, -79456.09, 0.000, 0.000, 0.000, 15:19:46.247
187, -42328.84, 56296.49, 465.48, 74888.80, 142177.72, 110436.92, 70082.77, 85257.55, 2277.60, -81283.39, -34748.40, -9275.62, -37955.92, -59289.81, -20300.39, -79456.09, 0.000, 0.000, 0.000, 15:19:46.247
188, -42328.84, 56296.49, 465.48, 74888.80, 142177.72, 110436.92, 70082.77, 85257.55, 1560.46, -81229.08, -34711.34, -9213.52, -38405.48, -59244.41, -20453.37, -79425.78, 0.000, 0.000, 0.000, 15:19:46.248
189, -42210.17, 56337.77, 503.41, 74929.62, 142198.80, 110426.42, 69504.24, 84851.13, 1560.46, -81229.08, -34711.34, -9213.52, -38405.48, -59244.41, -20453.37, -79425.78, 0.000, 0.000, 0.000, 15:19:46.248
190, -42210.17, 56337.77, 503.41, 74929.62, 142198.80, 110426.42, 69504.24, 84851.13, 2024.78, -81241.91, -34696.77, -9236.66, -38226.78, -59265.34, -20377.82, -79435.95, 0.000, 0.000, 0.000, 15:19:46.248
191, -42224.79, 56304.11, 471.40, 74894.73, 142157.31, 110459.39, 69866.08, 85112.96, 2024.78, -81241.91, -34696.77, -9236.66, -38226.78, -59265.34, -20377.82, -79435.95, 0.000, 0.000, 0.000, 15:19:46.249
192, -42224.79, 56304.11, 471.40, 74894.73, 142157.31, 110459.39, 69866.08, 85112.96, 2020.04, -81240.99, -34730.63, -9226.06, -38009.61, -59253.13, -20322.50, -79438.34, 0.000, 0.000, 0.000, 15:19:46.249
193, -42306.33, 56347.43, 507.85, 74951.45, 142201.88, 110413.73, 69824.70, 85079.32, 2020.04, -81240.99, -34730.63, -9226.06, -38009.61, -59253.13, -20322.50, -79438.34, 0.000, 0.000, 0.000, 15:19:46.249
194, -42306.33, 56347.43, 507.85, 74951.45, 142201.88, 110413.73, 69824.70, 85079.32, 1556.37, -81206.21, -34668.76, -9192.15, -38522.29, -59231.03, -20475.54, -79410.52, -0.052, 0.958, -0.140, 15:19:46.250
195, -42143.41, 56335.43, 489.15, 74917.97, 142164.36, 110454.78, 69570.16, 84901.73, 1556.37, -81206.21, -34668.76, -9192.15, -38522.29, -59231.03, -20475.54, -79410.52, 0.000, 0.000, 0.000, 15:19:46.250
196, -42143.41, 56335.43, 489.15, 74917.97, 142164.36, 110454.78, 69570.16, 84901.73, 2258.02, -81243.56, -34715.45, -9230.04, -37936.70, -59266.36, -20293.04, -79436.40, 0.000, 0.000, 0.000, 15:19:46.250
197, -42308.50, 56326.24, 482.28, 74925.46, 142170.25, 110438.42, 70088.67, 85271.05, 2258.02, -81243.56, -34715.45, -9230.04, -37936.70, -59266.36, -20293.04, -79436.40, 0.000, 0.000, 0.000, 15:19:46.251
198, -42308.50, 56326.24, 482.28, 74925.46, 142170.25, 110438.42, 70088.67, 85271.05, 1564.49, -81204.65, -34691.20, -9183.08, -38376.89, -59235.07, -20434.95, -79406.85, 0.000, 0.000, 0.000, 15:19:46.251
199, -42199.24, 56355.92, 510.63, 74954.31, 142202.89, 110432.95, 69522.35, 84875.38, 1564.49, -81204.65, -34691.20, -9183.08, -38376.89, -59235.07, -20434.95, -79406.85, 0.000, 0.000, 0.000, 15:19:46.251
200, -42199.24, 56355.92, 510.63, 74954.31, 142202.89, 110432.95, 69522.35, 84875.38, 2038.64, -81242.71, -34702.33, -9235.65, -38203.91, -59279.60, -20357.68, -79431.77, 0.000, 0.000, 0.000, 15:19:46.251
201, -42228.16, 56312.74, 468.00, 74905.30, 142164.98, 110463.46, 69921.24, 85172.93, 2038.64, -81242.71, -34702.33, -9235.65, -38203.91, -59279.60, -20357.68, -79431.77, 0.000, 0.000, 0.000, 15:19:46.252
202, -42228.16, 56312.74, 468.00, 74905.30, 142164.98, 110463.46, 69921.24, 85172.93, 2030.05, -81220.65, -34719.95, -9205.97, -37993.85, -59244.68, -20311.68, -79413.53, 0.000, 0.000, 0.000, 15:19:46.252
203, -42293.68, 56378.74, 522.45, 74981.98, 142239.05, 110443.79, 69838.54, 85098.12, 2030.05, -81220.65, -34719.95, -9205.97, -37993.85, -59244.68, -20311.68, -79413.53, 0.000, 0.000, 0.000, 15:19:46.252
204, -42293.68, 56378.74, 522.45, 74981.98, 142239.05, 110443.79, 69838.54, 85098.12, 1532.70, -81183.97, -34663.78, -9171.59, -38541.36, -59223.29, -20468.45, -79392.21, -0.050, 0.956, -0.142, 15:19:46.252
205, -42133.21, 56334.53, 478.93, 74921.57, 142187.83, 110465.06, 69568.02, 84908.55, 1532.70, -81183.97, -34663.78, -9171.59, -38541.36, -59223.29, -20468.45, -79392.21, 0.000, 0.000, 0.000, 15:19:46.252
206, -42133.21, 56334.53, 478.93, 74921.57, 142187.83, 110465.06, 69568.02, 84908.55, 2255.63, -81243.85, -34732.35, -9234.06, -37933.75, -59284.65, -20291.27, -79439.62, 0.000, 0.000, 0.000, 15:19:46.253
207, -42301.84, 56335.09, 473.45, 74929.51, 142194.28, 110445.11, 70106.04, 85302.34, 2255.63, -81243.85, -34732.35, -9234.06, -37933.75, -59284.65, -20291.27, -79439.62, 0.000, 0.000, 0.000, 15:19:46.253
208, -42301.84, 56335.09, 473.45, 74929.51, 142194.28, 110445.11, 70106.04, 85302.34, 1560.20, -81187.68, -34690.98, -9172.11, -38368.24, -59234.24, -20451.91, -79409.95, 0.000, 0.000, 0.000, 15:19:46.253
209, -42185.18, 56384.26, 515.68, 74969.34, 142226.81, 110441.64, 69527.63, 84891.84, 1560.20, -81187.68, -34690.98, -9172.11, -38368.24, -59234.24, -20451.91, -79409.95, 0.000, 0.000, 0.000, 15:19:46.253
210, -42185.18, 56384.26, 515.68, 74969.34, 142226.81, 110441.64, 69527.63, 84891.84, 2005.76, -81210.10, -34682.57, -9203.67, -38212.54, -59264.48, -20387.92, -79431.10, 0.000, 0.000, 0.000, 15:19:46.253
211, -42209.34, 56342.53, 469.95, 74914.62, 142170.81, 110466.79, 69887.73, 85152.88, 2005.76, -81210.10, -34682.57, -9203.67, -38212.54, -59264.48, -20387.92, -79431.10, 0.000, 0.000, 0.000, 15:19:46.254
212, -42209.34, 56342.53, 469.95, 74914.62, 142170.81, 110466.79, 69887.73, 85152.88, 2011.68, -81220.38, -34721.73, -9203.91, -37996.45, -59277.85, -20341.09, -79441.78, 0.000, 0.000, 0.000, 15:19:46.254
213, -42293.93, 56403.30, 521.29, 74982.23, 142233.91, 110426.20, 69829.66, 85103.77, 2011.68, -81220.38, -34721.73, -9203.91, -37996.45, -59277.85, -20341.09, -79441.78, 0.000, 0.000, 0.000, 15:19:46.254
214, -42293.93, 56403.30, 521.29, 74982.23, 142233.91, 110426.20, 69829.66, 85103.77, 1512.59, -81165.06, -34637.47, -9149.31, -38553.50, -59213.41, -20491.79, -79392.90, -0.044, 0.952, -0.138, 15:19:46.254
215, -42115.71, 56386.21, 510.13, 74950.94, 142202.75, 110475.95, 69527.73, 84879.80, 1512.59, -81165.06, -34637.47, -9149.31, -38553.50, -59213.41, -20491.79, -79392.90, 0.000, 0.000, 0.000, 15:19:46.254
216, -42115.71, 56386.21, 510.13, 74950.94, 142202.75, 110475.95, 69527.73, 84879.80, 2222.17, -81213.67, -34687.11, -9200.18, -37962.54, -59269.09, -20301.60, -79425.65, 0.000, 0.000, 0.000, 15:19:46.254
217, -42281.32, 56386.23, 500.32, 74952.17, 142201.06, 110452.05, 70047.66, 85254.98, 2222.17, -81213.67, -34687.11, -9200.18, -37962.54, -59269.09, -20301.60, -79425.65, 0.000, 0.000, 0.000, 15:19:46.255
218, -42281.32, 56386.23, 500.32, 74952.17, 142201.06, 110452.05, 70047.66, 85254.98, 1540.97, -81176.82, -34659.44, -9153.58, -38377.34, -59238.56, -20449.12, -79404.28, 0.000, 0.000, 0.000, 15:19:46.255
219, -42170.48, 56428.41, 542.07, 74995.40, 142240.75, 110443.92, 69477.40, 84853.86, 1540.97, -81176.82, -34659.44, -9153.58, -38377.34, -59238.56, -20449.12, -79404.28, 0.000, 0.000, 0.000, 15:19:46.255
220, -42170.48, 56428.41, 542.07, 74995.40, 142240.75, 110443.92, 69477.40, 84853.86, 1995.90, -81178.98, -34639.59, -9165.89, -38205.70, -59246.85, -20369.55, -79404.50, 0.000, 0.000, 0.000, 15:19:46.255
221, -42184.74, 56385.36, 502.31, 74951.03, 142195.64, 110474.30, 69827.43, 85109.52, 1995.90, -81178.98, -34639.59, -9165.89, -38205.70, -59246.85, -20369.55, -79404.50, 0.000, 0.000, 0.000, 15:19:46.256
222, -42184.74, 56385.36, 502.31, 74951.03, 142195.64, 110474.30, 69827.43, 85109.52, 1999.25, -81188.80, -34690.84, -9171.61, -37980.02, -59258.83, -20327.28, -79424.87, 0.000, 0.000, 0.000, 15:19:46.256
223, -42270.25, 56422.89, 532.82, 75002.44, 142238.31, 110428.14, 69786.63, 85077.80, 1999.25, -81188.80, -34690.84, -9171.61, -37980.02, -59258.83, -20327.28, -79424.87, 0.000, 0.000, 0.000, 15:19:46.256
224, -42270.25, 56422.89, 532.82, 75002.44, 142238.31, 110428.14, 69786.63, 85077.80, 1536.77, -81150.04, -34637.13, -9138.09, -38491.16, -59212.00, -20485.19, -79397.44, -0.048, 0.954, -0.142, 15:19:46.256
225, -42111.11, 56397.41, 508.82, 74964.55, 142203.63, 110479.51, 69522.64, 84889.91, 1536.77, -81150.04, -34637.13, -9138.09, -38491.16, -59212.00, -20485.19, -79397.44, 0.000, 0.000, 0.000, 15:19:46.257
226, -42111.11, 56397.41, 508.82, 74964.55, 142203.63, 110479.51, 69522.64, 84889.91, 2241.57, -81193.88, -34686.71, -9186.68, -37919.38, -59261.13, -20316.93, -79427.57, 0.000, 0.000, 0.000, 15:19:46.257
227, -42281.54, 56391.50, 495.18, 74963.39, 142216.05, 110460.51, 70024.44, 85247.07, 2241.57, -81193.88, -34686.71, -9186.68, -37919.38, -59261.13, -20316.93, -79427.57, 0.000, 0.000, 0.000, 15:19:46.257
228, -42281.54, 56391.50, 495.18, 74963.39, 142216.05, 110460.51, 70024.44, 85247.07, 1554.50, -81158.06, -34664.63, -9146.62, -38367.48, -59229.10, -20472.01, -79401.44, 0.000, 0.000, 0.000, 15:19:46.258
229, -42181.99, 56422.30, 518.31, 74990.15, 142253.77, 110457.04, 69442.89, 84833.83, 1554.50, -81158.06, -34664.63, -9146.62, -38367.48, -59229.10, -20472.01, -79401.44, 0.000, 0.000, 0.000, 15:19:46.258
230, -42181.99, 56422.30, 518.31, 74990.15, 142253.77, 110457.04, 69442.89, 84833.83, 2014.25, -81179.21, -34665.45, -9181.85, -38215.22, -59252.80, -20400.59, -79418.38, 0.000, 0.000, 0.000, 15:19:46.258
231, -42206.42, 56378.74, 472.54, 74935.65, 142208.23, 110483.75, 69797.23, 85088.55, 2014.25, -81179.21, -34665.45, -9181.85, -38215.22, -59252.80, -20400.59, -79418.38, 0.000, 0.000, 0.000, 15:19:46.258
232, -42206.42, 56378.74, 472.54, 74935.65, 142208.23, 110483.75, 69797.23, 85088.55, 2035.51, -81194.19, -34720.64, -9190.95, -37987.01, -59269.52, -20346.37, -79444.20, 0.000, 0.000, 0.000, 15:19:46.259
233, -42296.27, 56424.36, 512.59, 74988.91, 142252.59, 110430.06, 69763.32, 85065.10, 2035.51, -81194.19, -34720.64, -9190.95, -37987.01, -59269.52, -20346.37, -79444.20, -0.050, 0.958, -0.140, 15:19:46.259
234, -42296.27, 56424.36, 512.59, 74988.91, 142252.59, 110430.06, 69763.32, 85065.10, 1575.22, -81146.93, -34646.95, -9141.89, -38510.00, -59235.68, -20503.66, -79412.59, 0.000, 0.000, 0.000, 15:19:46.259
235, -42122.02, 56404.27, 495.99, 74953.71, 142205.66, 110468.06, 69493.43, 84880.12, 1575.22, -81146.93, -34646.95, -9141.89, -38510.00, -59235.68, -20503.66, -79412.59, 0.000, 0.000, 0.000, 15:19:46.260
236, -42122.02, 56404.27, 495.99, 74953.71, 142205.66, 110468.06, 69493.43, 84880.12, 2293.22, -81190.07, -34689.26, -9181.27, -37918.70, -59260.51, -20330.39, -79443.87, 0.000, 0.000, 0.000, 15:19:46.260
237, -42284.43, 56409.27, 496.25, 74973.00, 142211.05, 110451.41, 70019.03, 85264.84, 2293.22, -81190.07, -34689.26, -9181.27, -37918.70, -59260.51, -20330.39, -79443.87, 0.000, 0.000, 0.000, 15:19:46.260
238, -42284.43, 56409.27, 496.25, 74973.00, 142211.05, 110451.41, 70019.03, 85264.84, 1620.97, -81150.38, -34651.28, -9130.02, -38342.14, -59234.13, -20473.06, -79410.72, 0.000, 0.000, 0.000, 15:19:46.260
239, -42170.90, 56444.46, 531.57, 75010.51, 142248.58, 110442.85, 69467.88, 84880.97, 1620.97, -81150.38, -34651.28, -9130.02, -38342.14, -59234.13, -20473.06, -79410.72, 0.000, 0.000, 0.000, 15:19:46.260
240, -42170.90, 56444.46, 531.57, 75010.51, 142248.58, 110442.85, 69467.88, 84880.97, 2085.13, -81161.98, -34629.85, -9153.40, -38175.57, -59245.60, -20394.02, -79414.56, 0.000, 0.000, 0.000, 15:19:46.261
241, -42184.47, 56411.51, 500.81, 74969.47, 142215.55, 110478.48, 69841.40, 85155.05, 2085.13, -81161.98, -34629.85, -9153.40, -38175.57, -59245.60, -20394.02, -79414.56, 0.000, 0.000, 0.000, 15:19:46.717
242, -42184.47, 56411.51, 500.81, 74969.47, 142215.55, 110478.48, 69841.40, 85155.05, 2094.69, -81165.73, -34666.23, -9150.87, -37952.95, -59249.53, -20344.00, -79418.72, 0.000, 0.000, 0.000, 15:19:46.718
243, -42257.02, 56469.64, 549.32, 75034.36, 142273.77, 110440.62, 69801.32, 85121.07, 2094.69, -81165.73, -34666.23, -9150.87, -37952.95, -59249.53, -20344.00, -79418.72, -0.048, 0.960, -0.132, 15:19:46.718
244, -42257.02, 56469.64, 549.32, 75034.36, 142273.77, 110440.62, 69801.32, 85121.07, 1618.45, -81106.92, -34584.12, -9094.10, -38486.35, -59200.85, -20501.64, -79373.95, 0.000, 0.000, 0.000, 15:19:46.718
245, -42074.90, 56456.79, 537.94, 75003.89, 142242.61, 110488.85, 69504.58, 84900.13, 1618.45, -81106.92, -34584.12, -9094.10, -38486.35, -59200.85, -20501.64, -79373.95, 0.000, 0.000, 0.000, 15:19:46.718
246, -42074.90, 56456.79, 537.94, 75003.89, 142242.61, 110488.85, 69504.58, 84900.13, 2318.43, -81155.65, -34642.97, -9147.03, -37906.95, -59249.22, -20314.14, -79409.33, 0.000, 0.000, 0.000, 15:19:46.718
247, -42248.89, 56440.93, 516.39, 75000.13, 142236.53, 110462.01, 70016.77, 85267.99, 2318.43, -81155.65, -34642.97, -9147.03, -37906.95, -59249.22, -20314.14, -79409.33, 0.000, 0.000, 0.000, 15:19:46.719
248, -42248.89, 56440.93, 516.39, 75000.13, 142236.53, 110462.01, 70016.77, 85267.99, 1646.36, -81121.72, -34631.72, -9108.65, -38326.78, -59220.21, -20458.53, -79380.14, 0.000, 0.000, 0.000, 15:19:46.719
249, -42154.83, 56463.52, 536.93, 75021.08, 142261.63, 110456.88, 69473.66, 84887.99, 1646.36, -81121.72, -34631.72, -9108.65, -38326.78, -59220.21, -20458.53, -79380.14, 0.000, 0.000, 0.000, 15:19:46.719
250, -42154.83, 56463.52, 536.93, 75021.08, 142261.63, 110456.88, 69473.66, 84887.99, 2118.79, -81136.63, -34619.92, -9140.81, -38143.32, -59219.80, -20389.15, -79375.16, 0.000, 0.000, 0.000, 15:19:46.719
251, -42171.50, 56428.95, 511.83, 74984.22, 142240.64, 110509.05, 69819.70, 85133.97, 2118.79, -81136.63, -34619.92, -9140.81, -38143.32, -59219.80, -20389.15, -79375.16, 0.000, 0.000, 0.000, 15:19:46.719
252, -42171.50, 56428.95, 511.83, 74984.22, 142240.64, 110509.05, 69819.70, 85133.97, 2090.11, -81146.71, -34667.58, -9157.40, -37950.51, -59229.10, -20334.16, -79379.27, 0.000, 0.000, 0.000, 15:19:46.719
253, -42270.84, 56447.36, 541.47, 75013.95, 142284.55, 110459.19, 69760.71, 85082.45, 2090.11, -81146.71, -34667.58, -9157.40, -37950.51, -59229.10, -20334.16, -79379.27, -0.046, 0.962, -0.134, 15:19:46.720
254, -42270.84, 56447.36, 541.47, 75013.95, 142284.55, 110459.19, 69760.71, 85082.45, 1628.88, -81121.25, -34621.73, -9147.18, -38463.46, -59211.54, -20474.82, -79361.84, 0.000, 0.000, 0.000, 15:19:46.720
255, -42103.84, 56415.71, 515.25, 74962.54, 142235.72, 110489.95, 69514.37, 84911.15, 1628.88, -81121.25, -34621.73, -9147.18, -38463.46, -59211.54, -20474.82, -79361.84, 0.000, 0.000, 0.000, 15:19:46.720
0, -42103.84, 56415.71, 515.25, 74962.54, 142235.72, 110489.95, 69514.37, 84911.15, 2334.24, -81155.56, -34662.32, -9193.14, -37880.48, -59242.65, -20289.30, -79389.46, 0.000, 0.000, 0.000, 15:19:46.720
1, -42238.09, 56430.11, 529.31, 74991.22, 142246.36, 110480.18, 70022.65, 85271.92, 2334.24, -81155.56, -34662.32, -9193.14, -37880.48, -59242.65, -20289.30, -79389.46, 0.000, 0.000, 0.000, 15:19:46.720
2, -42238.09, 56430.11, 529.31, 74991.22, 142246.36, 110480.18, 70022.65, 85271.92, 1614.20, -81090.30, -34608.16, -9131.02, -38339.72, -59183.26, -20431.57, -79344.06, 0.000, 0.000, 0.000, 15:19:46.720
3, -42106.08, 56469.40, 568.36, 75031.43, 142271.03, 110477.47, 69435.24, 84849.70, 1614.20, -81090.30, -34608.16, -9131.02, -38339.72, -59183.26, -20431.57, -79344.06, 0.000, 0.000, 0.000, 15:19:46.721
4, -42106.08, 56469.40, 568.36, 75031.43, 142271.03, 110477.47, 69435.24, 84849.70, 2069.68, -81123.87, -34614.25, -9187.93, -38165.45, -59218.78, -20344.13, -79371.31, 0.000, 0.000, 0.000, 15:19:46.721
5, -42133.98, 56422.08, 518.47, 74971.17, 142218.72, 110498.75, 69804.48, 85114.10, 2069.68, -81123.87, -34614.25, -9187.93, -38165.45, -59218.78, -20344.13, -79371.31, 0.000, 0.000, 0.000, 15:19:46.721
6, -42133.98, 56422.08, 518.47, 74971.17, 142218.72, 110498.75, 69804.48, 85114.10, 2035.80, -81130.52, -34659.51, -9203.51, -37967.52, -59223.89, -20300.84, -79378.75, 0.000, 0.000, 0.000, 15:19:46.721
7, -42218.49, 56458.43, 558.59, 75024.16, 142273.39, 110461.27, 69748.26, 85064.03, 2035.80, -81130.52, -34659.51, -9203.51, -37967.52, -59223.89, -20300.84, -79378.75, -0.046, 0.962, -0.130, 15:19:46.721
8, -42218.49, 56458.43, 558.59, 75024.16, 142273.39, 110461.27, 69748.26, 85064.03, 1561.78, -81088.80, -34601.97, -9170.23, -38480.16, -59187.93, -20433.56, -79336.02, 0.000, 0.000, 0.000, 15:19:46.721
9, -42047.32, 56420.07, 543.59, 74989.41, 142238.41, 110511.65, 69491.15, 84885.91, 1561.78, -81088.80, -34601.97, -9170.23, -38480.16, -59187.93, -20433.56, -79336.02, 0.000, 0.000, 0.000, 15:19:46.721
10, -42047.32, 56420.07, 543.59, 74989.41, 142238.41, 110511.65, 69491.15, 84885.91, 2246.51, -81115.23, -34653.70, -9205.81, -37906.08, -59206.17, -20243.37, -79360.36, 0.000, 0.000, 0.000, 15:19:46.722
11, -42192.80, 56439.34, 562.15, 75023.12, 142263.73, 110516.03, 69972.67, 85223.47, 2246.51, -81115.23, -34653.70, -9205.81, -37906.08, -59206.17, -20243.37, -79360.36, 0.000, 0.000, 0.000, 15:19:46.722
12, -42192.80, 56439.34, 562.15, 75023.12, 142263.73, 110516.03, 69972.67, 85223.47, 1520.95, -81064.05, -34614.31, -9145.28, -38358.09, -59167.17, -20377.66, -79320.62, 0.000, 0.000, 0.000, 15:19:46.722
13, -42079.93, 56451.88, 577.21, 75035.25, 142269.11, 110497.95, 69415.48, 84830.34, 1520.95, -81064.05, -34614.31, -9145.28, -38358.09, -59167.17, -20377.66, -79320.62, 0.000, 0.000, 0.000, 15:19:46.722
14, -42079.93, 56451.88, 577.21, 75035.25, 142269.11, 110497.95, 69415.48, 84830.34, 2005.76, -81107.80, -34623.12, -9194.99, -38146.04, -59212.94, -20293.71, -79350.34, 0.000, 0.000, 0.000, 15:19:46.722
15, -42105.12, 56415.55, 539.68, 74993.20, 142229.59, 110532.68, 69816.84, 85125.52, 2005.76, -81107.80, -34623.12, -9194.99, -38146.04, -59212.94, -20293.71, -79350.34, 0.000, 0.000, 0.000, 15:19:46.722
16, -42105.12, 56415.55, 539.68, 74993.20, 142229.59, 110532.68, 69816.84, 85125.52, 1980.48, -81099.91, -34649.98, -9180.26, -37934.75, -59204.25, -20247.01, -79344.40, 0.000, 0.000, 0.000, 15:19:46.723
17, -42180.38, 56466.34, 579.45, 75051.61, 142293.08, 110501.23, 69760.75, 85075.85, 1980.48, -81099.91, -34649.98, -9180.26, -37934.75, -59204.25, -20247.01, -79344.40, -0.040, 0.960, -0.128, 15:19:46.723
18, -42180.38, 56466.34, 579.45, 75051.61, 142293.08, 110501.23, 69760.75, 85075.85, 1487.31, -81072.88, -34600.39, -9154.42, -38457.14, -59185.11, -20390.74, -79320.98, 0.000, 0.000, 0.000, 15:19:46.723
19, -42020.56, 56429.43, 545.18, 75000.63, 142258.34, 110542.72, 69509.72, 84902.36, 1487.31, -81072.88, -34600.39, -9154.42, -38457.14, -59185.11, -20390.74, -79320.98, 0.000, 0.000, 0.000, 15:19:46.723
20, -42020.56, 56429.43, 545.18, 75000.63, 142258.34, 110542.72, 69509.72, 84902.36, 2166.60, -81119.38, -34660.56, -9203.73, -37875.30, -59231.74, -20217.35, -79362.37, 0.000, 0.000, 0.000, 15:19:46.723
21, -42185.45, 56432.23, 543.62, 75015.31, 142278.03, 110531.01, 70013.44, 85267.14, 2166.60, -81119.38, -34660.56, -9203.73, -37875.30, -59231.74, -20217.35, -79362.37, 0.000, 0.000, 0.000, 15:19:46.724
22, -42185.45, 56432.23, 543.62, 75015.31, 142278.03, 110531.01, 70013.44, 85267.14, 1423.67, -81066.69, -34621.55, -9141.37, -38348.15, -59188.18, -20375.56, -79328.55, 0.000, 0.000, 0.000, 15:19:46.724
23, -42076.69, 56451.90, 564.11, 75032.10, 142293.34, 110512.38, 69429.45, 84852.72, 1423.67, -81066.69, -34621.55, -9141.37, -38348.15, -59188.18, -20375.56, -79328.55, 0.000, 0.000, 0.000, 15:19:46.724
24, -42076.69, 56451.90, 564.11, 75032.10, 142293.34, 110512.38, 69429.45, 84852.72, 1886.98, -81095.81, -34624.35, -9177.25, -38161.87, -59223.38, -20296.50, -79363.62, 0.000, 0.000, 0.000, 15:19:46.724
25, -42079.57, 56430.57, 539.59, 75005.55, 142252.98, 110549.40, 69812.34, 85137.08, 1886.98, -81095.81, -34624.35, -9177.25, -38161.87, -59223.38, -20296.50, -79363.62, 0.000, 0.000, 0.000, 15:19:46.724
26, -42079.57, 56430.57, 539.59, 75005.55, 142252.98, 110549.40, 69812.34, 85137.08, 1862.15, -81077.04, -34637.80, -9145.93, -37957.48, -59193.54, -20244.00, -79363.53, -0.040, 0.964, -0.128, 15:19:46.725
27, -42143.86, 56476.29, 580.90, 75066.05, 142292.45, 110501.16, 69764.91, 85100.53, 1862.15, -81077.04, -34637.80, -9145.93, -37957.48, -59193.54, -20244.00, -79363.53, 0.000, 0.000, 0.000, 15:19:46.725
28, -42143.86, 56476.29, 580.90, 75066.05, 142292.45, 110501.16, 69764.91, 85100.53, 1395.60, -81032.45, -34570.64, -9098.99, -38471.44, -59166.38, -20391.99, -79331.16, 0.000, 0.000, 0.000, 15:19:46.725
29, -41965.53, 56470.85, 581.26, 75051.57, 142269.42, 110551.66, 69499.15, 84911.77, 1395.60, -81032.45, -34570.64, -9098.99, -38471.44, -59166.38, -20391.99, -79331.16, 0.000, 0.000, 0.000, 15:19:46.725
30, -41965.53, 56470.85, 581.26, 75051.57, 142269.42, 110551.66, 69499.15, 84911.77, 2073.88, -81060.84, -34611.16, -9130.31, -37911.04, -59196.89, -20201.06, -79351.28, 0.000, 0.000, 0.000, 15:19:46.725
31, -42120.83, 56478.43, 581.99, 75067.98, 142283.84, 110539.52, 69995.31, 85261.91, 2073.88, -81060.84, -34611.16, -9130.31, -37911.04, -59196.89, -20201.06, -79351.28, 0.000, 0.000, 0.000, 15:19:46.725
32, -42120.83, 56478.43, 581.99, 75067.98, 142283.84, 110539.52, 69995.31, 85261.91, 1374.59, -81013.76, -34576.83, -9075.77, -38354.03, -59153.62, -20343.93, -79315.43, 0.000, 0.000, 0.000, 15:19:46.726
33, -42007.40, 56501.57, 599.92, 75088.67, 142300.59, 110534.67, 69430.22, 84861.55, 1374.59, -81013.76, -34576.83, -9075.77, -38354.03, -59153.62, -20343.93, -79315.43, 0.000, 0.000, 0.000, 15:19:46.726
34, -42007.40, 56501.57, 599.92, 75088.67, 142300.59, 110534.67, 69430.22, 84861.55, 1859.89, -81046.10, -34582.51, -9115.98, -38160.66, -59185.88, -20264.45, -79336.22, 0.000, 0.000, 0.000, 15:19:46.726
35, -42038.13, 56466.72, 564.52, 75046.02, 142264.02, 110576.36, 69816.45, 85150.35, 1859.89, -81046.10, -34582.51, -9115.98, -38160.66, -59185.88, -20264.45, -79336.22, 0.000, 0.000, 0.000, 15:19:46.726
36, -42038.13, 56466.72, 564.52, 75046.02, 142264.02, 110576.36, 69816.45, 85150.35, 1842.72, -81044.77, -34616.21, -9104.16, -37959.43, -59181.65, -20211.21, -79331.30, -0.036, 0.964, -0.126, 15:19:46.726
37, -42118.33, 56514.71, 609.17, 75106.35, 142327.48, 110549.63, 69752.13, 85097.72, 1842.72, -81044.77, -34616.21, -9104.16, -37959.43, -59181.65, -20211.21, -79331.30, 0.000, 0.000, 0.000, 15:19:46.727
38, -42118.33, 56514.71, 609.17, 75106.35, 142327.48, 110549.63, 69752.13, 85097.72, 1370.61, -81003.28, -34549.38, -9064.91, -38485.43, -59147.27, -20353.63, -79293.44, 0.000, 0.000, 0.000, 15:19:46.727
39, -41947.07, 56486.16, 592.19, 75074.19, 142299.98, 110607.72, 69472.91, 84896.28, 1370.61, -81003.28, -34549.38, -9064.91, -38485.43, -59147.27, -20353.63, -79293.44, 0.000, 0.000, 0.000, 15:19:46.727
40, -41947.07, 56486.16, 592.19, 75074.19, 142299.98, 110607.72, 69472.91, 84896.28, 2043.49, -81041.34, -34579.67, -9108.13, -37927.98, -59192.04, -20177.57, -79326.52, 0.000, 0.000, 0.000, 15:19:46.727
41, -42111.78, 56484.89, 586.69, 75080.31, 142317.75, 110593.66, 69957.72, 85229.75, 2043.49, -81041.34, -34579.67, -9108.13, -37927.98, -59192.04, -20177.57, -79326.52, 0.000, 0.000, 0.000, 15:19:46.727
42, -42111.78, 56484.89, 586.69, 75080.31, 142317.75, 110593.66, 69957.72, 85229.75, 1349.33, -81003.84, -34540.17, -9064.33, -38368.94, -59145.48, -20328.91, -79305.62, 0.000, 0.000, 0.000, 15:19:46.728
43, -42011.76, 56499.91, 599.83, 75090.34, 142331.91, 110568.66, 69399.88, 84832.78, 1349.33, -81003.84, -34540.17, -9064.33, -38368.94, -59145.48, -20328.91, -79305.62, 0.000, 0.000, 0.000, 15:19:46.728
44, -42011.76, 56499.91, 599.83, 75090.34, 142331.91, 110568.66, 69399.88, 84832.78, 1825.82, -81035.45, -34541.45, -9103.66, -38180.20, -59185.07, -20257.83, -79338.77, 0.000, 0.000, 0.000, 15:19:46.728
45, -42037.30, 56469.29, 565.52, 75050.77, 142297.66, 110605.41, 69755.73, 85092.40, 1825.82, -81035.45, -34541.45, -9103.66, -38180.20, -59185.07, -20257.83, -79338.77, 0.000, 0.000, 0.000, 15:19:46.728
46, -42037.30, 56469.29, 565.52, 75050.77, 142297.66, 110605.41, 69755.73, 85092.40, 1806.96, -81036.67, -34573.77, -9095.19, -37982.77, -59189.72, -20206.89, -79347.70, -0.044, 0.960, -0.120, 15:19:46.728
47, -42121.50, 56505.52, 593.53, 75095.09, 142334.77, 110557.47, 69710.06, 85056.25, 1806.96, -81036.67, -34573.77, -9095.19, -37982.77, -59189.72, -20206.89, -79347.70, 0.000, 0.000, 0.000, 15:19:46.729
48, -42121.50, 56505.52, 593.53, 75095.09, 142334.77, 110557.47, 69710.06, 85056.25, 1369.42, -81009.00, -34524.14, -9069.76, -38473.50, -59169.80, -20366.48, -79333.78, 0.000, 0.000, 0.000, 15:19:46.729
49, -41981.16, 56476.42, 569.10, 75054.54, 142285.72, 110586.13, 69465.33, 84894.43, 1369.42, -81009.00, -34524.14, -9069.76, -38473.50, -59169.80, -20366.48, -79333.78, 0.000, 0.000, 0.000, 15:19:46.729
50, -41981.16, 56476.42, 569.10, 75054.54, 142285.72, 110586.13, 69465.33, 84894.43, 2067.42, -81049.10, -34572.31, -9110.10, -37893.89, -59207.69, -20196.03, -79368.78, 0.000, 0.000, 0.000, 15:19:46.729
51, -42146.22, 56480.18, 566.75, 75070.43, 142287.88, 110571.69, 69990.51, 85275.32, 2067.42, -81049.10, -34572.31, -9110.10, -37893.89, -59207.69, -20196.03, -79368.78, 0.000, 0.000, 0.000, 15:19:46.730
52, -42146.22, 56480.18, 566.75, 75070.43, 142287.88, 110571.69, 69990.51, 85275.32, 1388.02, -80985.22, -34519.09, -9035.49, -38335.30, -59148.59, -20336.40, -79316.08, 0.000, 0.000, 0.000, 15:19:46.730
53, -42023.16, 56528.10, 609.15, 75112.56, 142323.95, 110578.93, 69415.35, 84866.69, 1388.02, -80985.22, -34519.09, -9035.49, -38335.30, -59148.59, -20336.40, -79316.08, 0.000, 0.000, 0.000, 15:19:46.730
54, -42023.16, 56528.10, 609.15, 75112.56, 142323.95, 110578.93, 69415.35, 84866.69, 1849.11, -81009.88, -34509.19, -9069.02, -38171.55, -59186.23, -20247.46, -79333.78, 0.000, 0.000, 0.000, 15:19:46.730
55, -42045.20, 56504.02, 580.83, 75076.34, 142291.45, 110613.86, 69773.54, 85128.59, 1849.11, -81009.88, -34509.19, -9069.02, -38171.55, -59186.23, -20247.46, -79333.78, 0.000, 0.000, 0.000, 15:19:46.731
56, -42045.20, 56504.02, 580.83, 75076.34, 142291.45, 110613.86, 69773.54, 85128.59, 1833.94, -81008.40, -34533.58, -9059.21, -37975.77, -59165.56, -20185.35, -79332.33, -0.040, 0.952, -0.120, 15:19:46.731
57, -42127.02, 56526.31, 612.66, 75123.00, 142336.91, 110566.34, 69709.55, 85077.33, 1833.94, -81008.40, -34533.58, -9059.21, -37975.77, -59165.56, -20185.35, -79332.33, 0.000, 0.000, 0.000, 15:19:46.731
58, -42127.02, 56526.31, 612.66, 75123.00, 142336.91, 110566.34, 69709.55, 85077.33, 1390.81, -80978.06, -34478.13, -9034.46, -38483.18, -59152.41, -20330.77, -79315.43, 0.000, 0.000, 0.000, 15:19:46.731
59, -41970.79, 56498.55, 587.69, 75080.20, 142295.36, 110611.88, 69440.09, 84893.20, 1390.81, -80978.06, -34478.13, -9034.46, -38483.18, -59152.41, -20330.77, -79315.43, 0.000, 0.000, 0.000, 15:19:46.732
60, -41970.79, 56498.55, 587.69, 75080.20, 142295.36, 110611.88, 69440.09, 84893.20, 2077.59, -81021.31, -34529.80, -9083.10, -37912.22, -59198.26, -20153.90, -79350.73, 0.000, 0.000, 0.000, 15:19:46.732
61, -42132.63, 56502.61, 582.58, 75089.37, 142308.33, 110595.53, 69949.02, 85258.54, 2077.59, -81021.31, -34529.80, -9083.10, -37912.22, -59198.26, -20153.90, -79350.73, 0.000, 0.000, 0.000, 15:19:46.733
62, -42132.63, 56502.61, 582.58, 75089.37, 142308.33, 110595.53, 69949.02, 85258.54, 1383.84, -80962.71, -34484.18, -9020.02, -38351.68, -59140.55, -20298.63, -79307.52, 0.000, 0.000, 0.000, 15:19:46.733
63, -42018.21, 56532.66, 609.93, 75119.13, 142342.56, 110595.42, 69366.91, 84846.02, 1383.84, -80962.71, -34484.18, -9020.02, -38351.68, -59140.55, -20298.63, -79307.52, 0.000, 0.000, 0.000, 15:19:46.733
64, -42018.21, 56532.66, 609.93, 75119.13, 142342.56, 110595.42, 69366.91, 84846.02, 1859.87, -81002.92, -34493.32, -9070.38, -38161.55, -59184.11, -20221.49, -79337.73, 0.000, 0.000, 0.000, 15:19:46.733
65, -42053.55, 56488.54, 569.97, 75078.10, 142313.34, 110633.55, 69753.06, 85135.22, 1859.87, -81002.92, -34493.32, -9070.38, -38161.55, -59184.11, -20221.49, -79337.73, 0.000, 0.000, 0.000, 15:19:46.734
66, -42053.55, 56488.54, 569.97, 75078.10, 142313.34, 110633.55, 69753.06, 85135.22, 1845.36, -80997.69, -34520.57, -9058.71, -37959.50, -59176.96, -20170.73, -79328.35, -0.038, 0.952, -0.120, 15:19:46.734
67, -42136.39, 56509.81, 599.45, 75126.85, 142370.89, 110593.55, 69694.68, 85087.43, 1845.36, -80997.69, -34520.57, -9058.71, -37959.50, -59176.96, -20170.73, -79328.35, 0.000, 0.000, 0.000, 15:19:46.734
68, -42136.39, 56509.81, 599.45, 75126.85, 142370.89, 110593.55, 69694.68, 85087.43, 1394.41, -80968.23, -34471.35, -9034.22, -38468.67, -59157.78, -20315.23, -79301.91, 0.000, 0.000, 0.000, 15:19:46.735
69, -41985.18, 56470.99, 572.74, 75085.74, 142346.03, 110643.01, 69419.53, 84897.80, 1394.41, -80968.23, -34471.35, -9034.22, -38468.67, -59157.78, -20315.23, -79301.91, 0.000, 0.000, 0.000, 15:19:46.735
70, -41985.18, 56470.99, 572.74, 75085.74, 142346.03, 110643.01, 69419.53, 84897.80, 2067.00, -81020.96, -34533.38, -9091.24, -37900.42, -59194.14, -20139.97, -79340.84, 0.000, 0.000, 0.000, 15:19:46.735
71, -42166.05, 56441.42, 547.24, 75070.77, 142336.84, 110607.78, 69942.41, 85271.23, 2067.00, -81020.96, -34533.38, -9091.24, -37900.42, -59194.14, -20139.97, -79340.84, 0.000, 0.000, 0.000, 15:19:46.735
72, -42166.05, 56441.42, 547.24, 75070.77, 142336.84, 110607.78, 69942.41, 85271.23, 1388.47, -80979.97, -34505.71, -9042.93, -38313.73, -59165.63, -20299.99, -79324.13, 0.000, 0.000, 0.000, 15:19:46.735
73, -42051.48, 56488.18, 593.86, 75115.83, 142375.36, 110611.52, 69344.72, 84841.97, 1388.47, -80979.97, -34505.71, -9042.93, -38313.73, -59165.63, -20299.99, -79324.13, 0.000, 0.000, 0.000, 15:19:46.736
74, -42051.48, 56488.18, 593.86, 75115.83, 142375.36, 110611.52, 69344.72, 84841.97, 1826.32, -81004.77, -34502.06, -9080.96, -38158.67, -59197.30, -20230.83, -79355.48, 0.000, 0.000, 0.000, 15:19:46.736
75, -42075.79, 56450.29, 551.37, 75066.72, 142310.00, 110626.70, 69710.95, 85110.66, 1826.32, -81004.77, -34502.06, -9080.96, -38158.67, -59197.30, -20230.83, -79355.48, 0.000, 0.000, 0.000, 15:19:46.736
76, -42075.79, 56450.29, 551.37, 75066.72, 142310.00, 110626.70, 69710.95, 85110.66, 1822.58, -80995.30, -34519.47, -9061.42, -37948.50, -59193.16, -20185.14, -79361.68, -0.034, 0.954, -0.126, 15:19:46.736
77, -42137.84, 56508.61, 596.08, 75131.05, 142348.27, 110578.63, 69664.59, 85073.87, 1822.58, -80995.30, -34519.47, -9061.42, -37948.50, -59193.16, -20185.14, -79361.68, 0.000, 0.000, 0.000, 15:19:46.736
78, -42137.84, 56508.61, 596.08, 75131.05, 142348.27, 110578.63, 69664.59, 85073.87, 1381.87, -80948.12, -34445.47, -9013.23, -38458.77, -59156.53, -20330.21, -79326.85, 0.000, 0.000, 0.000, 15:19:46.736
79, -41966.18, 56493.88, 586.17, 75104.98, 142311.52, 110620.75, 69401.12, 84897.13, 1381.87, -80948.12, -34445.47, -9013.23, -38458.77, -59156.53, -20330.21, -79326.85, 0.000, 0.000, 0.000, 15:19:46.736
80, -41966.18, 56493.88, 586.17, 75104.98, 142311.52, 110620.75, 69401.12, 84897.13, 2063.58, -80978.45, -34484.76, -9042.69, -37892.91, -59186.90, -20150.50, -79353.16, 0.000, 0.000, 0.000, 15:19:46.737
81, -42122.11, 56494.68, 585.15, 75117.15, 142314.02, 110604.63, 69909.93, 85261.06, 2063.58, -80978.45, -34484.76, -9042.69, -37892.91, -59186.90, -20150.50, -79353.16, 0.000, 0.000, 0.000, 15:19:46.737
82, -42122.11, 56494.68, 585.15, 75117.15, 142314.02, 110604.63, 69909.93, 85261.06, 1402.28, -80940.05, -34452.96, -8991.86, -38312.74, -59153.09, -20294.00, -79325.82, 0.000, 0.000, 0.000, 15:19:46.737
83, -42012.52, 56533.80, 623.93, 75153.76, 142348.11, 110604.61, 69336.23, 84857.66, 1402.28, -80940.05, -34452.96, -8991.86, -38312.74, -59153.09, -20294.00, -79325.82, 0.000, 0.000, 0.000, 15:19:46.737
84, -42012.52, 56533.80, 623.93, 75153.76, 142348.11, 110604.61, 69336.23, 84857.66, 1862.84, -80964.50, -34449.31, -9028.03, -38144.52, -59188.45, -20214.94, -79343.21, 0.000, 0.000, 0.000, 15:19:46.737
85, -42048.61, 56480.75, 573.12, 75094.80, 142294.69, 110624.81, 69720.09, 85143.18, 1862.84, -80964.50, -34449.31, -9028.03, -38144.52, -59188.45, -20214.94, -79343.21, -0.036, 0.960, -0.126, 15:19:46.737
86, -42048.61, 56480.75, 573.12, 75094.80, 142294.69, 110624.81, 69720.09, 85143.18, 1871.04, -80965.80, -34490.24, -9026.04, -37921.99, -59178.52, -20164.96, -79346.95, 0.000, 0.000, 0.000, 15:19:46.738
87, -42124.12, 56533.73, 615.90, 75156.87, 142357.97, 110592.49, 69670.14, 85101.65, 1871.04, -80965.80, -34490.24, -9026.04, -37921.99, -59178.52, -20164.96, -79346.95, 0.000, 0.000, 0.000, 15:19:46.738
88, -42124.12, 56533.73, 615.90, 75156.87, 142357.97, 110592.49, 69670.14, 85101.65, 1430.29, -80937.70, -34440.59, -9001.16, -38427.81, -59162.63, -20309.98, -79321.02, 0.000, 0.000, 0.000, 15:19:46.738
89, -41972.48, 56506.04, 585.30, 75115.07, 142322.88, 110633.98, 69419.20, 84933.07, 1430.29, -80937.70, -34440.59, -9001.16, -38427.81, -59162.63, -20309.98, -79321.02, 0.000, 0.000, 0.000, 15:19:46.738
90, -41972.48, 56506.04, 585.30, 75115.07, 142322.88, 110633.98, 69419.20, 84933.07, 2106.47, -80978.11, -34494.95, -9046.06, -37873.75, -59198.46, -20139.28, -79345.31, 0.000, 0.000, 0.000, 15:19:46.738
91, -42141.08, 56500.76, 573.46, 75119.56, 142338.67, 110620.75, 69922.87, 85291.41, 2106.47, -80978.11, -34494.95, -9046.06, -37873.75, -59198.46, -20139.28, -79345.31, 0.000, 0.000, 0.000, 15:19:46.738
92, -42141.08, 56500.76, 573.46, 75119.56, 142338.67, 110620.75, 69922.87, 85291.41, 1409.86, -80931.95, -34467.44, -8998.43, -38328.01, -59156.44, -20303.23, -79315.05, 0.000, 0.000, 0.000, 15:19:46.739
93, -42039.83, 56522.11, 592.75, 75134.98, 142371.53, 110610.51, 69324.65, 84869.88, 1409.86, -80931.95, -34467.44, -8998.43, -38328.01, -59156.44, -20303.23, -79315.05, 0.000, 0.000, 0.000, 15:19:46.739
94, -42039.83, 56522.11, 592.75, 75134.98, 142371.53, 110610.51, 69324.65, 84869.88, 1861.61, -80973.95, -34481.14, -9053.89, -38165.36, -59207.36, -20235.70, -79349.16, 0.000, 0.000, 0.000, 15:19:46.739
95, -42073.54, 56481.58, 551.35, 75084.23, 142336.55, 110644.06, 69687.10, 85134.62, 1861.61, -80973.95, -34481.14, -9053.89, -38165.36, -59207.36, -20235.70, -79349.16, -0.040, 0.956, -0.130, 15:19:46.739
96, -42073.54, 56481.58, 551.35, 75084.23, 142336.55, 110644.06, 69687.10, 85134.62, 1854.73, -80983.30, -34517.48, -9054.83, -37948.41, -59198.17, -20195.49, -79359.15, 0.000, 0.000, 0.000, 15:19:46.739
97, -42157.18, 56508.25, 571.60, 75120.43, 142367.22, 110589.03, 69650.98, 85101.25, 1854.73, -80983.30, -34517.48, -9054.83, -37948.41, -59198.17, -20195.49, -79359.15, 0.000, 0.000, 0.000, 15:19:46.739
98, -42157.18, 56508.25, 571.60, 75120.43, 142367.22, 110589.03, 69650.98, 85101.25, 1411.22, -80949.05, -34464.31, -9022.97, -38450.70, -59183.33, -20356.81, -79343.21, 0.000, 0.000, 0.000, 15:19:46.740
99, -41988.22, 56497.18, 559.33, 75087.93, 142336.27, 110634.98, 69387.34, 84916.48, 1411.22, -80949.05, -34464.31, -9022.97, -38450.70, -59183.33, -20356.81, -79343.21, 0.000, 0.000, 0.000, 15:19:46.740
100, -41988.22, 56497.18, 559.33, 75087.93, 142336.27, 110634.98, 69387.34, 84916.48, 2100.26, -80994.52, -34518.22, -9073.65, -37881.78, -59232.10, -20184.03, -79392.21, 0.000, 0.000, 0.000, 15:19:46.740
101, -42154.61, 56497.86, 549.65, 75086.46, 142323.97, 110597.95, 69919.98, 85296.40, 2100.26, -80994.52, -34518.22, -9073.65, -37881.78, -59232.10, -20184.03, -79392.21, 0.000, 0.000, 0.000, 15:19:46.740
102, -42154.61, 56497.86, 549.65, 75086.46, 142323.97, 110597.95, 69919.98, 85296.40, 1427.58, -80935.62, -34470.03, -9007.33, -38314.49, -59185.67, -20341.94, -79360.24, 0.000, 0.000, 0.000, 15:19:46.740
103, -42031.34, 56541.38, 597.55, 75133.66, 142354.02, 110596.92, 69338.26, 84885.87, 1427.58, -80935.62, -34470.03, -9007.33, -38314.49, -59185.67, -20341.94, -79360.24, 0.000, 0.000, 0.000, 15:19:46.740
104, -42031.34, 56541.38, 597.55, 75133.66, 142354.02, 110596.92, 69338.26, 84885.87, 1891.20, -80952.20, -34454.07, -9030.24, -38147.07, -59207.91, -20256.83, -79370.80, 0.000, 0.000, 0.000, 15:19:46.740
105, -42045.75, 56517.03, 576.50, 75106.87, 142316.08, 110630.96, 69706.20, 85152.72, 1891.20, -80952.20, -34454.07, -9030.24, -38147.07, -59207.91, -20256.83, -79370.80, -0.048, 0.958, -0.136, 15:19:47.197
106, -42045.75, 56517.03, 576.50, 75106.87, 142316.08, 110630.96, 69706.20, 85152.72, 1889.75, -80935.46, -34471.91, -9002.30, -37932.96, -59194.73, -20204.30, -79354.84, 0.000, 0.000, 0.000, 15:19:47.197
107, -42109.84, 56572.35, 628.26, 75175.53, 142374.95, 110600.12, 69634.04, 85088.13, 1889.75, -80935.46, -34471.91, -9002.30, -37932.96, -59194.73, -20204.30, -79354.84, 0.000, 0.000, 0.000, 15:19:47.197
108, -42109.84, 56572.35, 628.26, 75175.53, 142374.95, 110600.12, 69634.04, 85088.13, 1444.75, -80906.38, -34419.74, -8974.56, -38450.05, -59160.37, -20346.39, -79328.80, 0.000, 0.000, 0.000, 15:19:47.198
109, -41954.60, 56534.73, 598.87, 75129.51, 142331.23, 110629.66, 69378.78, 84920.06, 1444.75, -80906.38, -34419.74, -8974.56, -38450.05, -59160.37, -20346.39, -79328.80, 0.000, 0.000, 0.000, 15:19:47.198
110, -41954.60, 56534.73, 598.87, 75129.51, 142331.23, 110629.66, 69378.78, 84920.06, 2144.60, -80944.29, -34468.07, -9015.55, -37866.60, -59204.18, -20164.34, -79354.68, 0.000, 0.000, 0.000, 15:19:47.199
111, -42114.66, 56531.98, 594.98, 75138.78, 142337.33, 110606.38, 69908.77, 85297.74, 2144.60, -80944.29, -34468.07, -9015.55, -37866.60, -59204.18, -20164.34, -79354.68, 0.000, 0.000, 0.000, 15:19:47.199
112, -42114.66, 56531.98, 594.98, 75138.78, 142337.33, 110606.38, 69908.77, 85297.74, 1492.34, -80902.09, -34439.01, -8966.20, -38282.88, -59168.84, -20316.01, -79325.66, 0.000, 0.000, 0.000, 15:19:47.199
113, -42004.27, 56568.55, 628.71, 75175.06, 142365.63, 110603.85, 69343.63, 84905.94, 1492.34, -80902.09, -34439.01, -8966.20, -38282.88, -59168.84, -20316.01, -79325.66, 0.000, 0.000, 0.000, 15:19:47.200
114, -42004.27, 56568.55, 628.71, 75175.06, 142365.63, 110603.85, 69343.63, 84905.94, 1963.65, -80929.34, -34439.77, -9004.15, -38112.54, -59201.05, -20237.49, -79344.31, 0.000, 0.000, 0.000, 15:19:47.200
115, -42029.28, 56528.32, 589.17, 75134.80, 142324.70, 110636.15, 69748.17, 85210.93, 1963.65, -80929.34, -34439.77, -9004.15, -38112.54, -59201.05, -20237.49, -79344.31, -0.048, 0.962, -0.136, 15:19:47.201
116, -42029.28, 56528.32, 589.17, 75134.80, 142324.70, 110636.15, 69748.17, 85210.93, 1961.83, -80906.47, -34452.08, -8975.68, -37901.74, -59176.55, -20194.71, -79321.31, 0.000, 0.000, 0.000, 15:19:47.201
117, -42092.58, 56585.34, 641.05, 75204.72, 142399.03, 110623.25, 69660.80, 85129.55, 1961.83, -80906.47, -34452.08, -8975.68, -37901.74, -59176.55, -20194.71, -79321.31, 0.000, 0.000, 0.000, 15:19:47.201
118, -42092.58, 56585.34, 641.05, 75204.72, 142399.03, 110623.25, 69660.80, 85129.55, 1486.46, -80873.05, -34405.55, -8951.29, -38448.22, -59145.78, -20338.43, -79297.21, 0.000, 0.000, 0.000, 15:19:47.201
119, -41938.98, 56551.34, 611.41, 75152.89, 142372.98, 110662.43, 69377.27, 84928.96, 1486.46, -80873.05, -34405.55, -8951.29, -38448.22, -59145.78, -20338.43, -79297.21, 0.000, 0.000, 0.000, 15:19:47.201
120, -41938.98, 56551.34, 611.41, 75152.89, 142372.98, 110662.43, 69377.27, 84928.96, 2170.02, -80931.10, -34476.25, -9014.17, -37875.88, -59201.50, -20156.45, -79346.70, 0.000, 0.000, 0.000, 15:19:47.201
121, -42127.23, 56533.95, 592.84, 75142.36, 142373.09, 110631.84, 69893.32, 85293.27, 2170.02, -80931.10, -34476.25, -9014.17, -37875.88, -59201.50, -20156.45, -79346.70, 0.000, 0.000, 0.000, 15:19:47.202
122, -42127.23, 56533.95, 592.84, 75142.36, 142373.09, 110631.84, 69893.32, 85293.27, 1484.38, -80893.40, -34453.02, -8969.35, -38316.10, -59169.63, -20329.89, -79338.09, 0.000, 0.000, 0.000, 15:19:47.202
123, -42025.97, 56565.80, 624.80, 75167.75, 142393.22, 110613.10, 69292.26, 84864.84, 1484.38, -80893.40, -34453.02, -8969.35, -38316.10, -59169.63, -20329.89, -79338.09, 0.000, 0.000, 0.000, 15:19:47.202
124, -42025.97, 56565.80, 624.80, 75167.75, 142393.22, 110613.10, 69292.26, 84864.84, 1947.57, -80919.80, -34444.39, -9004.74, -38165.78, -59210.28, -20256.67, -79367.02, 0.000, 0.000, 0.000, 15:19:47.202
125, -42050.00, 56524.54, 584.79, 75117.98, 142332.53, 110639.92, 69694.88, 85162.63, 1947.57, -80919.80, -34444.39, -9004.74, -38165.78, -59210.28, -20256.67, -79367.02, -0.046, 0.956, -0.140, 15:19:47.202
126, -42050.00, 56524.54, 584.79, 75117.98, 142332.53, 110639.92, 69694.88, 85162.63, 2014.12, -80917.11, -34468.76, -8991.23, -37909.56, -59196.05, -20210.58, -79370.10, 0.000, 0.000, 0.000, 15:19:47.202
127, -42117.21, 56598.59, 647.64, 75196.43, 142395.14, 110608.66, 69648.55, 85118.99, 2014.12, -80917.11, -34468.76, -8991.23, -37909.56, -59196.05, -20210.58, -79370.10, 0.000, 0.000, 0.000, 15:19:47.203
128, -42117.21, 56598.59, 647.64, 75196.43, 142395.14, 110608.66, 69648.55, 85118.99, 1551.52, -80873.33, -34400.45, -8950.13, -38461.74, -59166.68, -20365.75, -79335.37, 0.000, 0.000, 0.000, 15:19:47.203
129, -41951.03, 56555.86, 621.83, 75149.87, 142343.14, 110641.31, 69386.63, 84943.94, 1551.52, -80873.33, -34400.45, -8950.13, -38461.74, -59166.68, -20365.75, -79335.37, 0.000, 0.000, 0.000, 15:19:47.203
130, -41951.03, 56555.86, 621.83, 75149.87, 142343.14, 110641.31, 69386.63, 84943.94, 2272.32, -80915.88, -34446.96, -8992.44, -37870.87, -59204.83, -20173.90, -79362.64, 0.000, 0.000, 0.000, 15:19:47.203
131, -42103.20, 56567.12, 637.45, 75178.93, 142367.78, 110633.91, 69919.09, 85319.78, 2272.32, -80915.88, -34446.96, -8992.44, -37870.87, -59204.83, -20173.90, -79362.64, 0.000, 0.000, 0.000, 15:19:47.203
132, -42103.20, 56567.12, 637.45, 75178.93, 142367.78, 110633.91, 69919.09, 85319.78, 1612.37, -80862.15, -34402.98, -8927.98, -38306.24, -59157.36, -20326.74, -79316.57, 0.000, 0.000, 0.000, 15:19:47.204
133, -41992.91, 56597.77, 664.49, 75205.70, 142391.69, 110620.91, 69330.52, 84909.42, 1612.37, -80862.15, -34402.98, -8927.98, -38306.24, -59157.36, -20326.74, -79316.57, 0.000, 0.000, 0.000, 15:19:47.204
134, -41992.91, 56597.77, 664.49, 75205.70, 142391.69, 110620.91, 69330.52, 84909.42, 2064.65, -80891.30, -34407.58, -8967.88, -38152.57, -59190.41, -20259.80, -79336.80, -0.048, 0.952, -0.142, 15:19:47.204
135, -42005.18, 56573.16, 637.45, 75173.20, 142365.08, 110660.87, 69699.64, 85176.26, 2064.65, -80891.30, -34407.58, -8967.88, -38152.57, -59190.41, -20259.80, -79336.80, 0.000, 0.000, 0.000, 15:19:47.204
136, -42005.18, 56573.16, 637.45, 75173.20, 142365.08, 110660.87, 69699.64, 85176.26, 2070.35, -80880.19, -34435.41, -8953.71, -37930.35, -59179.06, -20201.91, -79332.17, 0.000, 0.000, 0.000, 15:19:47.204
137, -42086.63, 56615.47, 668.59, 75218.29, 142412.17, 110614.13, 69637.41, 85124.34, 2070.35, -80880.19, -34435.41, -8953.71, -37930.35, -59179.06, -20201.91, -79332.17, 0.000, 0.000, 0.000, 15:19:47.204
138, -42086.63, 56615.47, 668.59, 75218.29, 142412.17, 110614.13, 69637.41, 85124.34, 1606.53, -80847.77, -34377.14, -8924.67, -38460.04, -59151.88, -20352.96, -79305.53, 0.000, 0.000, 0.000, 15:19:47.205
139, -41923.98, 56590.05, 643.93, 75175.17, 142379.00, 110657.02, 69358.87, 84936.56, 1606.53, -80847.77, -34377.14, -8924.67, -38460.04, -59151.88, -20352.96, -79305.53, 0.000, 0.000, 0.000, 15:19:47.205
140, -41923.98, 56590.05, 643.93, 75175.17, 142379.00, 110657.02, 69358.87, 84936.56, 2311.01, -80905.04, -34441.98, -8981.02, -37863.83, -59211.11, -20166.48, -79342.07, 0.000, 0.000, 0.000, 15:19:47.205
141, -42092.51, 56588.38, 636.71, 75183.91, 142393.06, 110644.57, 69888.90, 85314.41, 2311.01, -80905.04, -34441.98, -8981.02, -37863.83, -59211.11, -20166.48, -79342.07, 0.000, 0.000, 0.000, 15:19:47.205
142, -42092.51, 56588.38, 636.71, 75183.91, 142393.06, 110644.57, 69888.90, 85314.41, 1628.41, -80852.49, -34405.46, -8921.41, -38301.23, -59152.64, -20324.64, -79306.27, 0.000, 0.000, 0.000, 15:19:47.205
143, -41981.07, 56622.82, 664.52, 75212.34, 142425.84, 110644.17, 69287.70, 84892.95, 1628.41, -80852.49, -34405.46, -8921.41, -38301.23, -59152.64, -20324.64, -79306.27, 0.000, 0.000, 0.000, 15:19:47.205
144, -41981.07, 56622.82, 664.52, 75212.34, 142425.84, 110644.17, 69287.70, 84892.95, 2066.28, -80875.74, -34404.81, -8958.69, -38149.93, -59187.39, -20253.29, -79337.47, -0.042, 0.950, -0.144, 15:19:47.206
145, -42008.18, 56594.93, 624.13, 75161.70, 142369.83, 110668.02, 69664.80, 85168.15, 2066.28, -80875.74, -34404.81, -8958.69, -38149.93, -59187.39, -20253.29, -79337.47, 0.000, 0.000, 0.000, 15:19:47.206
146, -42008.18, 56594.93, 624.13, 75161.70, 142369.83, 110668.02, 69664.80, 85168.15, 2090.18, -80873.52, -34436.88, -8949.55, -37906.23, -59188.96, -20213.87, -79359.11, 0.000, 0.000, 0.000, 15:19:47.206
147, -42085.72, 56645.06, 661.84, 75216.05, 142403.70, 110611.38, 69622.04, 85127.64, 2090.18, -80873.52, -34436.88, -8949.55, -37906.23, -59188.96, -20213.87, -79359.11, 0.000, 0.000, 0.000, 15:19:47.206
148, -42085.72, 56645.06, 661.84, 75216.05, 142403.70, 110611.38, 69622.04, 85127.64, 1645.24, -80840.76, -34384.89, -8921.77, -38421.82, -59164.55, -20376.21, -79349.41, 0.000, 0.000, 0.000, 15:19:47.206
149, -41924.09, 56616.00, 642.86, 75181.45, 142363.33, 110644.44, 69369.22, 84962.84, 1645.24, -80840.76, -34384.89, -8921.77, -38421.82, -59164.55, -20376.21, -79349.41, 0.000, 0.000, 0.000, 15:19:47.206
150, -41924.09, 56616.00, 642.86, 75181.45, 142363.33, 110644.44, 69369.22, 84962.84, 2321.39, -80861.61, -34412.36, -8945.70, -37853.50, -59187.91, -20198.09, -79360.58, 0.000, 0.000, 0.000, 15:19:47.207
151, -42070.99, 56621.26, 648.33, 75199.60, 142382.02, 110629.91, 69885.01, 85321.70, 2321.39, -80861.61, -34412.36, -8945.70, -37853.50, -59187.91, -20198.09, -79360.58, 0.000, 0.000, 0.000, 15:19:47.207
152, -42070.99, 56621.26, 648.33, 75199.60, 142382.02, 110629.91, 69885.01, 85321.70, 1672.67, -80826.50, -34393.03, -8906.19, -38264.17, -59156.01, -20343.69, -79334.16, 0.000, 0.000, 0.000, 15:19:47.207
153, -41961.96, 56654.85, 682.64, 75236.15, 142416.58, 110626.06, 69316.27, 84924.96, 1672.67, -80826.50, -34393.03, -8906.19, -38264.17, -59156.01, -20343.69, -79334.16, 0.000, 0.000, 0.000, 15:19:47.207
154, -41961.96, 56654.85, 682.64, 75236.15, 142416.58, 110626.06, 69316.27, 84924.96, 2128.33, -80844.47, -34388.47, -8937.14, -38111.24, -59176.44, -20264.63, -79344.53, -0.046, 0.952, -0.138, 15:19:47.207
155, -41986.45, 56622.02, 647.46, 75194.93, 142380.25, 110656.42, 69698.17, 85204.11, 2128.33, -80844.47, -34388.47, -8937.14, -38111.24, -59176.44, -20264.63, -79344.53, 0.000, 0.000, 0.000, 15:19:47.207
156, -41986.45, 56622.02, 647.46, 75194.93, 142380.25, 110656.42, 69698.17, 85204.11, 2134.06, -80840.67, -34416.72, -8927.17, -37887.61, -59169.67, -20224.26, -79340.46, 0.000, 0.000, 0.000, 15:19:47.208
157, -42071.55, 56668.80, 687.36, 75251.98, 142435.13, 110618.45, 69629.86, 85141.32, 2134.06, -80840.67, -34416.72, -8927.17, -37887.61, -59169.67, -20224.26, -79340.46, 0.000, 0.000, 0.000, 15:19:47.208
158, -42071.55, 56668.80, 687.36, 75251.98, 142435.13, 110618.45, 69629.86, 85141.32, 1667.69, -80802.58, -34360.84, -8893.56, -38419.83, -59134.33, -20374.17, -79303.36, 0.000, 0.000, 0.000, 15:19:47.208
159, -41906.59, 56648.19, 669.79, 75220.34, 142402.33, 110670.50, 69349.01, 84944.02, 1667.69, -80802.58, -34360.84, -8893.56, -38419.83, -59134.33, -20374.17, -79303.36, 0.000, 0.000, 0.000, 15:19:47.208
160, -41906.59, 56648.19, 669.79, 75220.34, 142402.33, 110670.50, 69349.01, 84944.02, 2366.76, -80849.16, -34420.68, -8952.81, -37824.52, -59186.10, -20182.17, -79334.74, 0.000, 0.000, 0.000, 15:19:47.208
161, -42080.46, 56638.13, 650.82, 75214.45, 142402.17, 110645.53, 69902.82, 85341.66, 2366.76, -80849.16, -34420.68, -8952.81, -37824.52, -59186.10, -20182.17, -79334.74, 0.000, 0.000, 0.000, 15:19:47.208
162, -42080.46, 56638.13, 650.82, 75214.45, 142402.17, 110645.53, 69902.82, 85341.66, 1697.50, -80792.61, -34382.64, -8898.81, -38244.68, -59123.69, -20325.87, -79285.32, 0.000, 0.000, 0.000, 15:19:47.209
163, -41959.32, 56671.04, 683.20, 75248.38, 142455.59, 110651.79, 69294.05, 84909.06, 1697.50, -80792.61, -34382.64, -8898.81, -38244.68, -59123.69, -20325.87, -79285.32, 0.000, 0.000, 0.000, 15:19:47.209
164, -41959.32, 56671.04, 683.20, 75248.38, 142455.59, 110651.79, 69294.05, 84909.06, 2135.15, -80828.11, -34400.36, -8959.38, -38101.99, -59155.59, -20234.05, -79297.62, -0.040, 0.960, -0.142, 15:19:47.209
165, -41995.02, 56603.69, 621.65, 75182.98, 142415.44, 110684.09, 69684.42, 85200.22, 2135.15, -80828.11, -34400.36, -8959.38, -38101.99, -59155.59, -20234.05, -79297.62, 0.000, 0.000, 0.000, 15:19:47.209
166, -41995.02, 56603.69, 621.65, 75182.98, 142415.44, 110684.09, 69684.42, 85200.22, 2156.90, -80840.52, -34444.91, -8975.81, -37857.53, -59160.48, -20170.10, -79290.02, 0.000, 0.000, 0.000, 15:19:47.209
167, -42073.47, 56651.86, 664.56, 75243.93, 142471.00, 110653.88, 69633.44, 85153.70, 2156.90, -80840.52, -34444.91, -8975.81, -37857.53, -59160.48, -20170.10, -79290.02, 0.000, 0.000, 0.000, 15:19:47.209
168, -42073.47, 56651.86, 664.56, 75243.93, 142471.00, 110653.88, 69633.44, 85153.70, 1686.73, -80792.68, -34371.37, -8942.46, -38398.38, -59120.50, -20318.21, -79249.02, 0.000, 0.000, 0.000, 15:19:47.210
169, -41886.79, 56625.55, 642.43, 75200.70, 142414.58, 110688.80, 69359.38, 84964.95, 1686.73, -80792.68, -34371.37, -8942.46, -38398.38, -59120.50, -20318.21, -79249.02, 0.000, 0.000, 0.000, 15:19:47.210
170, -41886.79, 56625.55, 642.43, 75200.70, 142414.58, 110688.80, 69359.38, 84964.95, 2383.68, -80839.93, -34427.16, -9003.13, -37809.32, -59169.11, -20133.89, -79294.95, 0.000, 0.000, 0.000, 15:19:47.210
171, -42053.11, 56631.59, 642.68, 75210.06, 142408.13, 110658.81, 69884.78, 85332.79, 2383.68, -80839.93, -34427.16, -9003.13, -37809.32, -59169.11, -20133.89, -79294.95, 0.000, 0.000, 0.000, 15:19:47.210
172, -42053.11, 56631.59, 642.68, 75210.06, 142408.13, 110658.81, 69884.78, 85332.79, 1710.76, -80780.81, -34386.77, -8952.68, -38246.63, -59120.63, -20292.95, -79268.29, 0.000, 0.000, 0.000, 15:19:47.210
173, -41942.42, 56665.70, 666.64, 75236.64, 142415.31, 110645.11, 69289.60, 84913.34, 1710.76, -80780.81, -34386.77, -8952.68, -38246.63, -59120.63, -20292.95, -79268.29, 0.000, 0.000, 0.000, 15:19:47.210
174, -41942.42, 56665.70, 666.64, 75236.64, 142415.31, 110645.11, 69289.60, 84913.34, 2158.33, -80799.52, -34382.91, -8995.35, -38099.66, -59145.91, -20219.25, -79288.54, -0.046, 0.958, -0.140, 15:19:47.211
175, -41965.11, 56629.19, 631.93, 75196.72, 142372.00, 110687.27, 69655.79, 85176.37, 2158.33, -80799.52, -34382.91, -8995.35, -38099.66, -59145.91, -20219.25, -79288.54, 0.000, 0.000, 0.000, 15:19:47.211
176, -41965.11, 56629.19, 631.93, 75196.72, 142372.00, 110687.27, 69655.79, 85176.37, 2165.24, -80806.00, -34419.38, -8998.66, -37881.09, -59152.95, -20156.22, -79297.26, 0.000, 0.000, 0.000, 15:19:47.211
177, -42047.09, 56665.11, 661.66, 75244.87, 142413.67, 110634.60, 69614.46, 85141.32, 2165.24, -80806.00, -34419.38, -8998.66, -37881.09, -59152.95, -20156.22, -79297.26, 0.000, 0.000, 0.000, 15:19:47.211
178, -42047.09, 56665.11, 661.66, 75244.87, 142413.67, 110634.60, 69614.46, 85141.32, 1715.50, -80767.67, -34362.34, -8962.49, -38410.15, -59122.42, -20304.26, -79270.13, 0.000, 0.000, 0.000, 15:19:47.211
179, -41882.54, 56643.03, 648.42, 75212.48, 142381.50, 110680.42, 69349.34, 84965.15, 1715.50, -80767.67, -34362.34, -8962.49, -38410.15, -59122.42, -20304.26, -79270.13, 0.000, 0.000, 0.000, 15:19:47.211
180, -41882.54, 56643.03, 648.42, 75212.48, 142381.50, 110680.42, 69349.34, 84965.15, 2402.50, -80815.01, -34411.89, -9006.34, -37832.76, -59169.27, -20113.55, -79300.14, 0.000, 0.000, 0.000, 15:19:47.212
181, -42048.39, 56646.02, 656.54, 75231.12, 142402.64, 110669.70, 69875.28, 85337.37, 2402.50, -80815.01, -34411.89, -9006.34, -37832.76, -59169.27, -20113.55, -79300.14, 0.000, 0.000, 0.000, 15:19:47.212
182, -42048.39, 56646.02, 656.54, 75231.12, 142402.64, 110669.70, 69875.28, 85337.37, 1727.66, -80756.89, -34364.69, -8935.94, -38260.44, -59104.98, -20247.95, -79250.25, 0.000, 0.000, 0.000, 15:19:47.212
183, -41929.03, 56684.65, 703.01, 75276.65, 142452.52, 110681.59, 69275.41, 84910.83, 1727.66, -80756.89, -34364.69, -8935.94, -38260.44, -59104.98, -20247.95, -79250.25, 0.000, 0.000, 0.000, 15:19:47.212
184, -41929.03, 56684.65, 703.01, 75276.65, 142452.52, 110681.59, 69275.41, 84910.83, 2164.72, -80785.86, -34366.36, -8967.81, -38104.20, -59136.90, -20153.43, -79260.06, -0.046, 0.958, -0.146, 15:19:47.212
185, -41971.72, 56627.50, 649.92, 75219.74, 142412.53, 110720.97, 69660.35, 85194.30, 2164.72, -80785.86, -34366.36, -8967.81, -38104.20, -59136.90, -20153.43, -79260.06, 0.000, 0.000, 0.000, 15:19:47.213
186, -41971.72, 56627.50, 649.92, 75219.74, 142412.53, 110720.97, 69660.35, 85194.30, 2192.17, -80809.71, -34422.91, -8982.41, -37847.43, -59157.87, -20095.60, -79268.91, 0.000, 0.000, 0.000, 15:19:47.213
187, -42064.71, 56661.65, 672.30, 75261.02, 142471.98, 110680.05, 69629.26, 85169.04, 2192.17, -80809.71, -34422.91, -8982.41, -37847.43, -59157.87, -20095.60, -79268.91, 0.000, 0.000, 0.000, 15:19:47.213
188, -42064.71, 56661.65, 672.30, 75261.02, 142471.98, 110680.05, 69629.26, 85169.04, 1732.95, -80785.21, -34378.21, -8957.46, -38376.07, -59138.71, -20263.44, -79252.33, 0.000, 0.000, 0.000, 15:19:47.213
189, -41915.71, 56613.95, 631.24, 75202.04, 142431.33, 110707.52, 69352.56, 84980.50, 1732.95, -80785.21, -34378.21, -8957.46, -38376.07, -59138.71, -20263.44, -79252.33, 0.000, 0.000, 0.000, 15:19:47.213
190, -41915.71, 56613.95, 631.24, 75202.04, 142431.33, 110707.52, 69352.56, 84980.50, 2402.68, -80836.22, -34423.03, -9010.70, -37816.76, -59188.80, -20100.72, -79306.42, 0.000, 0.000, 0.000, 15:19:47.214
191, -42093.36, 56612.34, 626.50, 75203.16, 142438.31, 110677.16, 69875.24, 85346.27, 2402.68, -80836.22, -34423.03, -9010.70, -37816.76, -59188.80, -20100.72, -79306.42, 0.000, 0.000, 0.000, 15:19:47.214
192, -42093.36, 56612.34, 626.50, 75203.16, 142438.31, 110677.16, 69875.24, 85346.27, 1725.89, -80792.14, -34377.79, -8958.44, -38253.64, -59150.74, -20258.62, -79292.50, 0.000, 0.000, 0.000, 15:19:47.214
193, -41989.05, 56640.55, 654.19, 75227.85, 142453.16, 110657.58, 69298.92, 84943.24, 1725.89, -80792.14, -34377.79, -8958.44, -38253.64, -59150.74, -20258.62, -79292.50, -0.044, 0.958, -0.154, 15:19:47.214
194, -41989.05, 56640.55, 654.19, 75227.85, 142453.16, 110657.58, 69298.92, 84943.24, 2172.59, -80802.00, -34365.02, -8976.84, -38107.84, -59170.39, -20180.70, -79313.17, 0.000, 0.000, 0.000, 15:19:47.214
195, -41996.02, 56621.53, 637.76, 75205.64, 142415.00, 110704.52, 69668.40, 85210.95, 2172.59, -80802.00, -34365.02, -8976.84, -38107.84, -59170.39, -20180.70, -79313.17, 0.000, 0.000, 0.000, 15:19:47.215
196, -41996.02, 56621.53, 637.76, 75205.64, 142415.00, 110704.52, 69668.40, 85210.95, 2175.23, -80781.59, -34377.41, -8950.00, -37901.20, -59158.25, -20124.26, -79303.16, 0.000, 0.000, 0.000, 15:19:47.215
197, -42061.02, 56677.34, 681.42, 75270.73, 142457.36, 110668.38, 69605.97, 85152.86, 2175.23, -80781.59, -34377.41, -8950.00, -37901.20, -59158.25, -20124.26, -79303.16, 0.000, 0.000, 0.000, 15:19:47.215
198, -42061.02, 56677.34, 681.42, 75270.73, 142457.36, 110668.38, 69605.97, 85152.86, 1740.51, -80741.85, -34313.08, -8911.64, -38425.75, -59113.19, -20272.00, -79265.92, 0.000, 0.000, 0.000, 15:19:47.215
199, -41891.79, 56661.40, 667.47, 75245.38, 142415.47, 110716.59, 69340.09, 84972.30, 1740.51, -80741.85, -34313.08, -8911.64, -38425.75, -59113.19, -20272.00, -79265.92, 0.000, 0.000, 0.000, 15:19:47.216
200, -41891.79, 56661.40, 667.47, 75245.38, 142415.47, 110716.59, 69340.09, 84972.30, 2420.00, -80784.56, -34355.03, -8948.59, -37852.86, -59157.69, -20088.41, -79291.13, 0.000, 0.000, 0.000, 15:19:47.216
201, -42059.52, 56655.79, 657.95, 75248.64, 142408.09, 110684.00, 69871.23, 85348.66, 2420.00, -80784.56, -34355.03, -8948.59, -37852.86, -59157.69, -20088.41, -79291.13, 0.000, 0.000, 0.000, 15:19:47.217
202, -42059.52, 56655.79, 657.95, 75248.64, 142408.09, 110684.00, 69871.23, 85348.66, 1758.28, -80744.29, -34328.05, -8894.36, -38263.35, -59125.01, -20242.01, -79265.07, 0.000, 0.000, 0.000, 15:19:47.217
203, -41948.77, 56705.37, 699.90, 75292.63, 142440.78, 110683.09, 69290.72, 84942.93, 1758.28, -80744.29, -34328.05, -8894.36, -38263.35, -59125.01, -20242.01, -79265.07, -0.048, 0.960, -0.150, 15:19:47.217
204, -41948.77, 56705.37, 699.90, 75292.63, 142440.78, 110683.09, 69290.72, 84942.93, 2189.78, -80753.88, -34317.44, -8913.41, -38112.96, -59142.29, -20157.21, -79265.84, 0.000, 0.000, 0.000, 15:19:47.217
205, -41973.85, 56658.16, 660.25, 75251.55, 142393.73, 110722.27, 69662.34, 85216.07, 2189.78, -80753.88, -34317.44, -8913.41, -38112.96, -59142.29, -20157.21, -79265.84, 0.000, 0.000, 0.000, 15:19:47.217
206, -41973.85, 56658.16, 660.25, 75251.55, 142393.73, 110722.27, 69662.34, 85216.07, 2182.13, -80757.45, -34357.94, -8907.10, -37878.38, -59128.03, -20105.55, -79270.19, 0.000, 0.000, 0.000, 15:19:47.218
207, -42059.34, 56706.17, 704.21, 75319.79, 142451.17, 110691.42, 69598.30, 85154.20, 2182.13, -80757.45, -34357.94, -8907.10, -37878.38, -59128.03, -20105.55, -79270.19, 0.000, 0.000, 0.000, 15:19:47.218
208, -42059.34, 56706.17, 704.21, 75319.79, 142451.17, 110691.42, 69598.30, 85154.20, 1721.04, -80723.66, -34299.27, -8874.54, -38402.46, -59105.14, -20251.06, -79226.78, 0.000, 0.000, 0.000, 15:19:47.218
209, -41902.32, 56674.88, 681.80, 75279.31, 142414.25, 110731.77, 69343.06, 84979.83, 1721.04, -80723.66, -34299.27, -8874.54, -38402.46, -59105.14, -20251.06, -79226.78, 0.000, 0.000, 0.000, 15:19:47.218
210, -41902.32, 56674.88, 681.80, 75279.31, 142414.25, 110731.77, 69343.06, 84979.83, 2396.11, -80767.16, -34344.21, -8916.11, -37820.96, -59141.04, -20066.32, -79255.30, 0.000, 0.000, 0.000, 15:19:47.218
211, -42064.71, 56673.96, 681.93, 75287.13, 142432.80, 110732.69, 69863.23, 85344.41, 2396.11, -80767.16, -34344.21, -8916.11, -37820.96, -59141.04, -20066.32, -79255.30, 0.000, 0.000, 0.000, 15:19:47.218
212, -42064.71, 56673.96, 681.93, 75287.13, 142432.80, 110732.69, 69863.23, 85344.41, 1734.16, -80733.11, -34316.79, -8873.31, -38234.76, -59107.22, -20213.35, -79231.90, 0.000, 0.000, 0.000, 15:19:47.219
213, -41968.21, 56698.24, 703.21, 75299.31, 142463.06, 110718.13, 69294.43, 84946.13, 1734.16, -80733.11, -34316.79, -8873.31, -38234.76, -59107.22, -20213.35, -79231.90, -0.054, 0.958, -0.148, 15:19:47.219
214, -41968.21, 56698.24, 703.21, 75299.31, 142463.06, 110718.13, 69294.43, 84946.13, 2183.16, -80773.79, -34326.85, -8923.64, -38078.54, -59152.59, -20150.21, -79270.66, 0.000, 0.000, 0.000, 15:19:47.219
215, -42011.24, 56654.81, 657.34, 75240.87, 142424.55, 110740.51, 69682.16, 85230.73, 2183.16, -80773.79, -34326.85, -8923.64, -38078.54, -59152.59, -20150.21, -79270.66, 0.000, 0.000, 0.000, 15:19:47.219
216, -42011.24, 56654.81, 657.34, 75240.87, 142424.55, 110740.51, 69682.16, 85230.73, 2168.63, -80765.63, -34349.06, -8904.24, -37869.87, -59148.23, -20107.52, -79279.89, 0.000, 0.000, 0.000, 15:19:47.220
217, -42082.99, 56713.91, 710.87, 75307.63, 142482.69, 110702.30, 69609.61, 85166.67, 2168.63, -80765.63, -34349.06, -8904.24, -37869.87, -59148.23, -20107.52, -79279.89, 0.000, 0.000, 0.000, 15:19:47.220
218, -42082.99, 56713.91, 710.87, 75307.63, 142482.69, 110702.30, 69609.61, 85166.67, 1714.42, -80728.89, -34283.86, -8864.72, -38392.88, -59116.09, -20264.36, -79263.17, 0.000, 0.000, 0.000, 15:19:47.220
219, -41923.51, 56688.05, 686.78, 75264.20, 142434.63, 110734.12, 69357.53, 85001.78, 1714.42, -80728.89, -34283.86, -8864.72, -38392.88, -59116.09, -20264.36, -79263.17, 0.000, 0.000, 0.000, 15:19:47.220
220, -41923.51, 56688.05, 686.78, 75264.20, 142434.63, 110734.12, 69357.53, 85001.78, 2385.65, -80766.77, -34328.64, -8900.06, -37821.99, -59154.31, -20091.00, -79295.05, 0.000, 0.000, 0.000, 15:19:47.221
221, -42081.94, 56712.03, 700.17, 75291.34, 142459.00, 110717.33, 69851.79, 85337.91, 2385.65, -80766.77, -34328.64, -8900.06, -37821.99, -59154.31, -20091.00, -79295.05, 0.000, 0.000, 0.000, 15:19:47.221
222, -42081.94, 56712.03, 700.17, 75291.34, 142459.00, 110717.33, 69851.79, 85337.91, 1693.17, -80708.91, -34286.41, -8836.43, -38284.60, -59107.40, -20248.82, -79256.04, 0.000, 0.000, 0.000, 15:19:47.221
223, -41971.01, 56734.89, 715.37, 75309.95, 142467.28, 110696.32, 69251.11, 84910.38, 1693.17, -80708.91, -34286.41, -8836.43, -38284.60, -59107.40, -20248.82, -79256.04, -0.048, 0.956, -0.142, 15:19:47.221
224, -41971.01, 56734.89, 715.37, 75309.95, 142467.28, 110696.32, 69251.11, 84910.38, 2155.83, -80739.08, -34297.43, -8881.00, -38115.73, -59145.78, -20179.13, -79281.27, 0.000, 0.000, 0.000, 15:19:47.221
225, -41999.98, 56704.77, 676.56, 75268.02, 142418.73, 110725.82, 69633.41, 85190.85, 2155.83, -80739.08, -34297.43, -8881.00, -38115.73, -59145.78, -20179.13, -79281.27, 0.000, 0.000, 0.000, 15:19:47.679
226, -41999.98, 56704.77, 676.56, 75268.02, 142418.73, 110725.82, 69633.41, 85190.85, 2164.88, -80739.37, -34334.54, -8876.97, -37884.62, -59153.49, -20128.48, -79282.75, 0.000, 0.000, 0.000, 15:19:47.679
227, -42084.67, 56734.00, 707.92, 75321.33, 142460.56, 110676.45, 69589.36, 85148.21, 2164.88, -80739.37, -34334.54, -8876.97, -37884.62, -59153.49, -20128.48, -79282.75, 0.000, 0.000, 0.000, 15:19:47.679
228, -42084.67, 56734.00, 707.92, 75321.33, 142460.56, 110676.45, 69589.36, 85148.21, 1725.06, -80705.35, -34280.64, -8850.73, -38397.37, -59110.21, -20274.30, -79253.18, 0.000, 0.000, 0.000, 15:19:47.680
229, -41931.45, 56693.03, 673.84, 75270.30, 142418.56, 110714.45, 69341.03, 84981.51, 1725.06, -80705.35, -34280.64, -8850.73, -38397.37, -59110.21, -20274.30, -79253.18, 0.000, 0.000, 0.000, 15:19:47.680
230, -41931.45, 56693.03, 673.84, 75270.30, 142418.56, 110714.45, 69341.03, 84981.51, 2402.52, -80751.30, -34332.21, -8900.96, -37814.70, -59161.15, -20086.66, -79279.31, 0.000, 0.000, 0.000, 15:19:47.680
231, -42090.30, 56708.30, 690.80, 75292.88, 142451.86, 110710.69, 69850.41, 85341.84, 2402.52, -80751.30, -34332.21, -8900.96, -37814.70, -59161.15, -20086.66, -79279.31, 0.000, 0.000, 0.000, 15:19:47.680
232, -42090.30, 56708.30, 690.80, 75292.88, 142451.86, 110710.69, 69850.41, 85341.84, 1717.78, -80704.34, -34298.04, -8850.89, -38249.04, -59117.32, -20232.91, -79244.93, 0.000, 0.000, 0.000, 15:19:47.680
233, -41975.14, 56733.33, 711.39, 75312.91, 142478.28, 110697.46, 69262.53, 84927.38, 1717.78, -80704.34, -34298.04, -8850.89, -38249.04, -59117.32, -20232.91, -79244.93, -0.052, 0.958, -0.144, 15:19:47.681
234, -41975.14, 56733.33, 711.39, 75312.91, 142478.28, 110697.46, 69262.53, 84927.38, 2169.84, -80730.27, -34305.39, -8889.00, -38082.86, -59145.29, -20150.61, -79268.09, 0.000, 0.000, 0.000, 15:19:47.681
235, -41999.93, 56695.09, 670.37, 75270.37, 142433.63, 110738.12, 69635.02, 85197.76, 2169.84, -80730.27, -34305.39, -8889.00, -38082.86, -59145.29, -20150.61, -79268.09, 0.000, 0.000, 0.000, 15:19:47.681
236, -41999.93, 56695.09, 670.37, 75270.37, 142433.63, 110738.12, 69635.02, 85197.76, 2152.29, -80737.16, -34351.43, -8888.06, -37870.74, -59155.79, -20102.24, -79285.45, 0.000, 0.000, 0.000, 15:19:47.681
237, -42080.51, 56734.16, 698.16, 75320.21, 142471.73, 110695.29, 69586.66, 85157.44, 2152.29, -80737.16, -34351.43, -8888.06, -37870.74, -59155.79, -20102.24, -79285.45, 0.000, 0.000, 0.000, 15:19:47.681
238, -42080.51, 56734.16, 698.16, 75320.21, 142471.73, 110695.29, 69586.66, 85157.44, 1717.33, -80694.69, -34294.91, -8849.26, -38385.59, -59109.36, -20259.17, -79259.75, 0.000, 0.000, 0.000, 15:19:47.682
239, -41914.84, 56711.96, 676.14, 75283.53, 142433.69, 110748.33, 69330.66, 84984.95, 1717.33, -80694.69, -34294.91, -8849.26, -38385.59, -59109.36, -20259.17, -79259.75, 0.000, 0.000, 0.000, 15:19:47.682
240, -41914.84, 56711.96, 676.14, 75283.53, 142433.69, 110748.33, 69330.66, 84984.95, 2381.00, -80737.31, -34345.76, -8892.13, -37824.40, -59151.92, -20083.40, -79291.07, 0.000, 0.000, 0.000, 15:19:47.682
241, -42081.05, 56723.16, 682.31, 75298.55, 142450.34, 110734.80, 69842.78, 85341.70, 2381.00, -80737.31, -34345.76, -8892.13, -37824.40, -59151.92, -20083.40, -79291.07, 0.000, 0.000, 0.000, 15:19:47.683
242, -42081.05, 56723.16, 682.31, 75298.55, 142450.34, 110734.80, 69842.78, 85341.70, 1702.85, -80687.60, -34305.86, -8831.91, -38266.36, -59110.32, -20244.24, -79254.32, -0.044, 0.962, -0.144, 15:19:47.683
243, -41963.86, 56757.00, 715.86, 75328.30, 142477.97, 110727.38, 69253.77, 84915.64, 1702.85, -80687.60, -34305.86, -8831.91, -38266.36, -59110.32, -20244.24, -79254.32, 0.000, 0.000, 0.000, 15:19:47.683
244, -41963.86, 56757.00, 715.86, 75328.30, 142477.97, 110727.38, 69253.77, 84915.64, 2159.63, -80708.34, -34299.24, -8860.37, -38103.64, -59140.70, -20171.53, -79264.36, 0.000, 0.000, 0.000, 15:19:47.684
245, -41983.70, 56723.50, 689.93, 75293.52, 142443.44, 110756.00, 69620.49, 85176.62, 2159.63, -80708.34, -34299.24, -8860.37, -38103.64, -59140.70, -20171.53, -79264.36, 0.000, 0.000, 0.000, 15:19:47.684
246, -41983.70, 56723.50, 689.93, 75293.52, 142443.44, 110756.00, 69620.49, 85176.62, 2135.46, -80707.12, -34327.63, -8847.04, -37903.98, -59136.28, -20115.68, -79271.51, 0.000, 0.000, 0.000, 15:19:47.684
247, -42052.79, 56777.16, 736.69, 75351.75, 142495.09, 110698.95, 69546.76, 85114.19, 2135.46, -80707.12, -34327.63, -8847.04, -37903.98, -59136.28, -20115.68, -79271.51, 0.000, 0.000, 0.000, 15:19:47.684
248, -42052.79, 56777.16, 736.69, 75351.75, 142495.09, 110698.95, 69546.76, 85114.19, 1726.94, -80675.16, -34266.63, -8815.73, -38403.87, -59117.50, -20258.10, -79256.98, 0.000, 0.000, 0.000, 15:19:47.684
249, -41891.93, 56755.05, 719.97, 75309.57, 142456.64, 110737.83, 69302.74, 84951.96, 1726.94, -80675.16, -34266.63, -8815.73, -38403.87, -59117.50, -20258.10, -79256.98, 0.000, 0.000, 0.000, 15:19:47.685
250, -41891.93, 56755.05, 719.97, 75309.57, 142456.64, 110737.83, 69302.74, 84951.96, 2406.70, -80708.26, -34305.19, -8849.82, -37828.18, -59151.36, -20074.82, -79289.46, 0.000, 0.000, 0.000, 15:19:47.685
251, -42053.89, 56757.54, 722.72, 75322.63, 142474.59, 110715.79, 69821.70, 85323.55, 2406.70, -80708.26, -34305.19, -8849.82, -37828.18, -59151.36, -20074.82, -79289.46, 0.000, 0.000, 0.000, 15:19:47.685
252, -42053.89, 56757.54, 722.72, 75322.63, 142474.59, 110715.79, 69821.70, 85323.55, 1746.59, -80665.48, -34273.07, -8797.00, -38259.70, -59106.28, -20227.72, -79253.36, -0.040, 0.962, -0.136, 15:19:47.685
253, -41941.41, 56780.52, 744.65, 75347.13, 142503.52, 110713.04, 69265.10, 84932.65, 1746.59, -80665.48, -34273.07, -8797.00, -38259.70, -59106.28, -20227.72, -79253.36, 0.000, 0.000, 0.000, 15:19:47.685
254, -41941.41, 56780.52, 744.65, 75347.13, 142503.52, 110713.04, 69265.10, 84932.65, 2238.77, -80694.80, -34285.56, -8837.50, -38067.37, -59141.26, -20142.56, -79264.00, 0.000, 0.000, 0.000, 15:19:47.685
255, -41975.28, 56744.55, 713.80, 75314.52, 142471.17, 110762.66, 69664.62, 85224.12, 2238.77, -80694.80, -34285.56, -8837.50, -38067.37, -59141.26, -20142.56, -79264.00, 0.000, 0.000, 0.000, 15:19:47.686
0, -41975.28, 56744.55, 713.80, 75314.52, 142471.17, 110762.66, 69664.62, 85224.12, 2182.58, -80686.13, -34309.90, -8818.79, -37894.07, -59134.11, -20101.01, -79253.18, 0.000, 0.000, 0.000, 15:19:47.686
1, -42042.82, 56798.42, 756.20, 75372.56, 142514.22, 110724.26, 69580.71, 85148.68, 2182.58, -80686.13, -34309.90, -8818.79, -37894.07, -59134.11, -20101.01, -79253.18, 0.000, 0.000, 0.000, 15:19:47.686
2, -42042.82, 56798.42, 756.20, 75372.56, 142514.22, 110724.26, 69580.71, 85148.68, 1763.84, -80652.73, -34254.20, -8789.98, -38394.30, -59107.80, -20250.46, -79235.61, 0.000, 0.000, 0.000, 15:19:47.686
3, -41890.14, 56768.76, 721.78, 75321.89, 142455.50, 110760.60, 69328.52, 84979.02, 1763.84, -80652.73, -34254.20, -8789.98, -38394.30, -59107.80, -20250.46, -79235.61, 0.000, 0.000, 0.000, 15:19:47.687
4, -41890.14, 56768.76, 721.78, 75321.89, 142455.50, 110760.60, 69328.52, 84979.02, 2402.52, -80697.62, -34313.75, -8841.41, -37838.71, -59158.27, -20088.47, -79277.57, 0.000, 0.000, 0.000, 15:19:47.687
5, -42065.13, 56767.10, 709.65, 75326.43, 142462.44, 110736.91, 69817.64, 85328.12, 2402.52, -80697.62, -34313.75, -8841.41, -37838.71, -59158.27, -20088.47, -79277.57, 0.000, 0.000, 0.000, 15:19:47.687
6, -42065.13, 56767.10, 709.65, 75326.43, 142462.44, 110736.91, 69817.64, 85328.12, 1722.96, -80662.88, -34283.48, -8802.63, -38277.41, -59113.41, -20255.49, -79265.05, -0.042, 0.962, -0.146, 15:19:47.687
7, -41954.94, 56787.69, 725.83, 75342.43, 142481.84, 110721.33, 69249.19, 84930.77, 1722.96, -80662.88, -34283.48, -8802.63, -38277.41, -59113.41, -20255.49, -79265.05, 0.000, 0.000, 0.000, 15:19:47.688
8, -41954.94, 56787.69, 725.83, 75342.43, 142481.84, 110721.33, 69249.19, 84930.77, 2218.61, -80695.59, -34282.48, -8844.76, -38078.83, -59155.43, -20179.27, -79287.94, 0.000, 0.000, 0.000, 15:19:47.688
9, -41989.65, 56743.43, 696.23, 75301.20, 142447.84, 110755.57, 69649.77, 85233.84, 2218.61, -80695.59, -34282.48, -8844.76, -38078.83, -59155.43, -20179.27, -79287.94, 0.000, 0.000, 0.000, 15:19:47.688
10, -41989.65, 56743.43, 696.23, 75301.20, 142447.84, 110755.57, 69649.77, 85233.84, 2175.20, -80685.19, -34297.16, -8826.19, -37881.31, -59138.82, -20128.62, -79275.40, 0.000, 0.000, 0.000, 15:19:47.688
11, -42055.27, 56813.53, 765.88, 75378.82, 142526.36, 110727.70, 69555.27, 85159.05, 2175.20, -80685.19, -34297.16, -8826.19, -37881.31, -59138.82, -20128.62, -79275.40, 0.000, 0.000, 0.000, 15:19:47.689
12, -42055.27, 56813.53, 765.88, 75378.82, 142526.36, 110727.70, 69555.27, 85159.05, 1750.28, -80648.63, -34230.46, -8793.47, -38392.43, -59113.95, -20272.90, -79245.65, 0.000, 0.000, 0.000, 15:19:47.689
13, -41899.46, 56790.46, 740.74, 75323.45, 142485.92, 110753.83, 69303.84, 84994.90, 1750.28, -80648.63, -34230.46, -8793.47, -38392.43, -59113.95, -20272.90, -79245.65, 0.000, 0.000, 0.000, 15:19:47.689
14, -41899.46, 56790.46, 740.74, 75323.45, 142485.92, 110753.83, 69303.84, 84994.90, 2410.41, -80684.72, -34280.51, -8834.06, -37825.90, -59154.94, -20091.74, -79280.92, 0.000, 0.000, 0.000, 15:19:47.689
15, -42067.43, 56788.81, 741.41, 75333.96, 142505.38, 110731.23, 69797.45, 85351.09, 2410.41, -80684.72, -34280.51, -8834.06, -37825.90, -59154.94, -20091.74, -79280.92, 0.000, 0.000, 0.000, 15:19:47.690
16, -42067.43, 56788.81, 741.41, 75333.96, 142505.38, 110731.23, 69797.45, 85351.09, 1739.28, -80643.73, -34252.77, -8788.44, -38261.60, -59121.90, -20237.49, -79255.59, -0.048, 0.956, -0.142, 15:19:47.690
17, -41955.90, 56801.79, 753.10, 75346.68, 142514.66, 110714.65, 69248.38, 84972.08, 1739.28, -80643.73, -34252.77, -8788.44, -38261.60, -59121.90, -20237.49, -79255.59, 0.000, 0.000, 0.000, 15:19:47.690
18, -41955.90, 56801.79, 753.10, 75346.68, 142514.66, 110714.65, 69248.38, 84972.08, 2251.98, -80673.59, -34257.64, -8827.26, -38044.70, -59160.39, -20158.48, -79281.19, 0.000, 0.000, 0.000, 15:19:47.690
19, -41989.32, 56778.93, 730.57, 75323.90, 142485.50, 110752.09, 69634.94, 85257.89, 2251.98, -80673.59, -34257.64, -8827.26, -38044.70, -59160.39, -20158.48, -79281.19, 0.000, 0.000, 0.000, 15:19:47.691
20, -41989.32, 56778.93, 730.57, 75323.90, 142485.50, 110752.09, 69634.94, 85257.89, 2188.95, -80652.91, -34269.34, -8795.39, -37879.77, -59125.12, -20113.17, -79262.48, 0.000, 0.000, 0.000, 15:19:47.691
21, -42058.20, 56824.14, 769.19, 75380.25, 142529.84, 110703.05, 69554.02, 85190.63, 2188.95, -80652.91, -34269.34, -8795.39, -37879.77, -59125.12, -20113.17, -79262.48, 0.000, 0.000, 0.000, 15:19:47.691
22, -42058.20, 56824.14, 769.19, 75380.25, 142529.84, 110703.05, 69554.02, 85190.63, 1813.42, -80631.21, -34229.13, -8777.13, -38344.46, -59119.71, -20259.73, -79246.27, 0.000, 0.000, 0.000, 15:19:47.691
23, -41910.21, 56797.55, 743.51, 75344.04, 142484.16, 110745.00, 69329.95, 85038.75, 1813.42, -80631.21, -34229.13, -8777.13, -38344.46, -59119.71, -20259.73, -79246.27, 0.000, 0.000, 0.000, 15:19:47.692
24, -41910.21, 56797.55, 743.51, 75344.04, 142484.16, 110745.00, 69329.95, 85038.75, 2451.76, -80655.77, -34255.32, -8804.58, -37796.39, -59143.43, -20099.45, -79270.37, 0.000, 0.000, 0.000, 15:19:47.692
25, -42069.82, 56809.17, 750.01, 75369.48, 142507.16, 110741.02, 69806.48, 85369.13, 2451.76, -80655.77, -34255.32, -8804.58, -37796.39, -59143.43, -20099.45, -79270.37, 0.000, 0.000, 0.000, 15:19:47.692
26, -42069.82, 56809.17, 750.01, 75369.48, 142507.16, 110741.02, 69806.48, 85369.13, 1750.97, -80611.88, -34221.17, -8756.38, -38249.20, -59101.23, -20266.64, -79236.35, -0.048, 0.954, -0.140, 15:19:47.693
27, -41959.68, 56821.08, 754.62, 75377.52, 142512.77, 110728.84, 69227.98, 84953.81, 1750.97, -80611.88, -34221.17, -8756.38, -38249.20, -59101.23, -20266.64, -79236.35, 0.000, 0.000, 0.000, 15:19:47.693
28, -41959.68, 56821.08, 754.62, 75377.52, 142512.77, 110728.84, 69227.98, 84953.81, 2247.74, -80645.83, -34232.70, -8805.63, -38035.52, -59137.19, -20199.92, -79271.89, 0.000, 0.000, 0.000, 15:19:47.693
29, -42005.79, 56789.77, 723.91, 75339.41, 142475.61, 110757.34, 69602.37, 85225.73, 2247.74, -80645.83, -34232.70, -8805.63, -38035.52, -59137.19, -20199.92, -79271.89, 0.000, 0.000, 0.000, 15:19:47.693
30, -42005.79, 56789.77, 723.91, 75339.41, 142475.61, 110757.34, 69602.37, 85225.73, 2163.07, -80641.13, -34260.60, -8794.18, -37876.06, -59134.27, -20163.22, -79276.83, 0.000, 0.000, 0.000, 15:19:47.693
31, -42082.45, 56833.91, 764.59, 75390.11, 142520.33, 110700.41, 69513.19, 85142.98, 2163.07, -80641.13, -34260.60, -8794.18, -37876.06, -59134.27, -20163.22, -79276.83, 0.000, 0.000, 0.000, 15:19:47.693
32, -42082.45, 56833.91, 764.59, 75390.11, 142520.33, 110700.41, 69513.19, 85142.98, 1767.58, -80609.89, -34210.15, -8766.55, -38359.19, -59115.89, -20306.11, -79253.52, 0.000, 0.000, 0.000, 15:19:47.694
33, -41920.14, 56809.62, 749.50, 75352.96, 142489.38, 110743.50, 69277.11, 84975.83, 1767.58, -80609.89, -34210.15, -8766.55, -38359.19, -59115.89, -20306.11, -79253.52, 0.000, 0.000, 0.000, 15:19:47.694
34, -41920.14, 56809.62, 749.50, 75352.96, 142489.38, 110743.50, 69277.11, 84975.83, 2420.29, -80642.14, -34253.69, -8800.95, -37802.21, -59144.84, -20107.76, -79276.13, 0.000, 0.000, 0.000, 15:19:47.694
35, -42076.49, 56826.04, 765.57, 75378.82, 142514.25, 110722.60, 69776.49, 85327.96, 2420.29, -80642.14, -34253.69, -8800.95, -37802.21, -59144.84, -20107.76, -79276.13, -0.044, 0.954, -0.140, 15:19:47.694
36, -42076.49, 56826.04, 765.57, 75378.82, 142514.25, 110722.60, 69776.49, 85327.96, 1750.45, -80585.37, -34210.08, -8736.16, -38240.01, -59102.93, -20253.56, -79236.71, 0.000, 0.000, 0.000, 15:19:47.694
37, -41945.19, 56861.38, 802.92, 75412.10, 142549.45, 110716.13, 69210.61, 84918.45, 1750.45, -80585.37, -34210.08, -8736.16, -38240.01, -59102.93, -20253.56, -79236.71, 0.000, 0.000, 0.000, 15:19:47.694
38, -41945.19, 56861.38, 802.92, 75412.10, 142549.45, 110716.13, 69210.61, 84918.45, 2250.06, -80610.96, -34195.08, -8768.90, -38040.79, -59136.19, -20169.86, -79255.84, 0.000, 0.000, 0.000, 15:19:47.695
39, -41971.57, 56817.80, 763.33, 75366.99, 142516.08, 110742.01, 69592.29, 85191.95, 2250.06, -80610.96, -34195.08, -8768.90, -38040.79, -59136.19, -20169.86, -79255.84, 0.000, 0.000, 0.000, 15:19:47.695
40, -41971.57, 56817.80, 763.33, 75366.99, 142516.08, 110742.01, 69592.29, 85191.95, 2194.54, -80612.68, -34209.97, -8765.39, -37854.55, -59136.70, -20125.06, -79262.41, 0.000, 0.000, 0.000, 15:19:47.695
41, -42049.64, 56864.80, 796.84, 75420.08, 142571.16, 110694.40, 69528.74, 85132.96, 2194.54, -80612.68, -34209.97, -8765.39, -37854.55, -59136.70, -20125.06, -79262.41, 0.000, 0.000, 0.000, 15:19:47.695
42, -42049.64, 56864.80, 796.84, 75420.08, 142571.16, 110694.40, 69528.74, 85132.96, 1807.47, -80568.45, -34151.63, -8727.48, -38320.07, -59103.75, -20274.57, -79231.52, 0.000, 0.000, 0.000, 15:19:47.695
43, -41894.07, 56842.83, 765.44, 75380.65, 142528.73, 110736.57, 69280.39, 84951.63, 1807.47, -80568.45, -34151.63, -8727.48, -38320.07, -59103.75, -20274.57, -79231.52, 0.000, 0.000, 0.000, 15:19:47.696
44, -41894.07, 56842.83, 765.44, 75380.65, 142528.73, 110736.57, 69280.39, 84951.63, 2435.42, -80604.95, -34208.76, -8767.81, -37789.45, -59133.21, -20114.54, -79264.55, 0.000, 0.000, 0.000, 15:19:47.696
45, -42071.39, 56845.54, 745.83, 75384.95, 142524.02, 110709.53, 69762.09, 85286.32, 2435.42, -80604.95, -34208.76, -8767.81, -37789.45, -59133.21, -20114.54, -79264.55, -0.042, 0.956, -0.138, 15:19:47.696
46, -42071.39, 56845.54, 745.83, 75384.95, 142524.02, 110709.53, 69762.09, 85286.32, 1758.43, -80557.72, -34179.88, -8715.82, -38238.91, -59098.66, -20278.80, -79241.58, 0.000, 0.000, 0.000, 15:19:47.696
47, -41959.50, 56880.89, 762.86, 75408.34, 142539.08, 110698.80, 69191.23, 84875.54, 1758.43, -80557.72, -34179.88, -8715.82, -38238.91, -59098.66, -20278.80, -79241.58, 0.000, 0.000, 0.000, 15:19:47.696
48, -41959.50, 56880.89, 762.86, 75408.34, 142539.08, 110698.80, 69191.23, 84875.54, 2261.39, -80589.05, -34190.03, -8761.95, -38033.10, -59138.09, -20198.96, -79269.90, 0.000, 0.000, 0.000, 15:19:47.697
49, -42003.13, 56831.27, 708.64, 75358.05, 142486.80, 110721.71, 69587.77, 85166.58, 2261.39, -80589.05, -34190.03, -8761.95, -38033.10, -59138.09, -20198.96, -79269.90, 0.000, 0.000, 0.000, 15:19:47.697
50, -42003.13, 56831.27, 708.64, 75358.05, 142486.80, 110721.71, 69587.77, 85166.58, 2198.29, -80594.46, -34232.03, -8761.12, -37849.86, -59128.88, -20164.04, -79281.86, 0.000, 0.000, 0.000, 15:19:47.697
51, -42081.76, 56876.18, 742.17, 75413.42, 142535.53, 110671.53, 69515.15, 85098.79, 2198.29, -80594.46, -34232.03, -8761.12, -37849.86, -59128.88, -20164.04, -79281.86, 0.000, 0.000, 0.000, 15:19:47.697
52, -42081.76, 56876.18, 742.17, 75413.42, 142535.53, 110671.53, 69515.15, 85098.79, 1813.33, -80561.65, -34181.79, -8732.56, -38321.21, -59107.27, -20320.75, -79261.56, 0.000, 0.000, 0.000, 15:19:47.697
53, -41921.46, 56842.59, 710.18, 75369.09, 142490.27, 110705.52, 69276.95, 84925.54, 1813.33, -80561.65, -34181.79, -8732.56, -38321.21, -59107.27, -20320.75, -79261.56, 0.000, 0.000, 0.000, 15:19:47.698
54, -41921.46, 56842.59, 710.18, 75369.09, 142490.27, 110705.52, 69276.95, 84925.54, 2452.17, -80600.73, -34232.25, -8770.04, -37772.88, -59143.83, -20161.12, -79292.85, 0.000, 0.000, 0.000, 15:19:47.698
55, -42092.67, 56862.59, 717.29, 75390.09, 142505.06, 110697.75, 69774.09, 85277.42, 2452.17, -80600.73, -34232.25, -8770.04, -37772.88, -59143.83, -20161.12, -79292.85, -0.042, 0.954, -0.140, 15:19:47.698
56, -42092.67, 56862.59, 717.29, 75390.09, 142505.06, 110697.75, 69774.09, 85277.42, 1760.45, -80540.46, -34182.81, -8702.63, -38232.86, -59092.98, -20314.23, -79249.43, 0.000, 0.000, 0.000, 15:19:47.698
57, -41974.21, 56884.41, 747.04, 75415.14, 142531.08, 110683.91, 69191.97, 84854.98, 1760.45, -80540.46, -34182.81, -8702.63, -38232.86, -59092.98, -20314.23, -79249.43, 0.000, 0.000, 0.000, 15:19:47.698
58, -41974.21, 56884.41, 747.04, 75415.14, 142531.08, 110683.91, 69191.97, 84854.98, 2266.58, -80564.31, -34184.13, -8740.43, -38035.27, -59118.53, -20219.16, -79262.95, 0.000, 0.000, 0.000, 15:19:47.698
59, -42001.50, 56853.63, 728.91, 75389.08, 142516.89, 110727.70, 69561.04, 85121.90, 2266.58, -80564.31, -34184.13, -8740.43, -38035.27, -59118.53, -20219.16, -79262.95, 0.000, 0.000, 0.000, 15:19:47.699
60, -42001.50, 56853.63, 728.91, 75389.08, 142516.89, 110727.70, 69561.04, 85121.90, 2187.65, -80570.28, -34223.43, -8738.88, -37879.21, -59122.98, -20162.68, -79268.78, 0.000, 0.000, 0.000, 15:19:47.699
61, -42083.93, 56882.39, 761.64, 75430.34, 142571.17, 110665.61, 69497.36, 85072.57, 2187.65, -80570.28, -34223.43, -8738.88, -37879.21, -59122.98, -20162.68, -79268.78, 0.000, 0.000, 0.000, 15:19:47.700
62, -42083.93, 56882.39, 761.64, 75430.34, 142571.17, 110665.61, 69497.36, 85072.57, 1808.52, -80531.55, -34165.07, -8708.22, -38348.46, -59090.79, -20302.87, -79238.90, 0.000, 0.000, 0.000, 15:19:47.700
63, -41914.95, 56867.46, 754.86, 75399.07, 142550.22, 110716.28, 69247.69, 84890.29, 1808.52, -80531.55, -34165.07, -8708.22, -38348.46, -59090.79, -20302.87, -79238.90, 0.000, 0.000, 0.000, 15:19:47.701
64, -41914.95, 56867.46, 754.86, 75399.07, 142550.22, 110716.28, 69247.69, 84890.29, 2439.87, -80566.97, -34209.19, -8746.13, -37805.63, -59123.58, -20123.30, -79263.46, 0.000, 0.000, 0.000, 15:19:47.701
65, -42068.33, 56876.63, 756.14, 75414.31, 142557.88, 110698.11, 69724.39, 85230.20, 2439.87, -80566.97, -34209.19, -8746.13, -37805.63, -59123.58, -20123.30, -79263.46, -0.044, 0.952, -0.146, 15:19:47.701
66, -42068.33, 56876.63, 756.14, 75414.31, 142557.88, 110698.11, 69724.39, 85230.20, 1758.50, -80521.02, -34172.84, -8687.97, -38241.24, -59079.55, -20274.33, -79236.84, 0.000, 0.000, 0.000, 15:19:47.701
67, -41928.05, 56907.56, 772.99, 75434.16, 142570.22, 110677.07, 69156.66, 84822.37, 1758.50, -80521.02, -34172.84, -8687.97, -38241.24, -59079.55, -20274.33, -79236.84, 0.000, 0.000, 0.000, 15:19:47.701
68, -41928.05, 56907.56, 772.99, 75434.16, 142570.22, 110677.07, 69156.66, 84822.37, 2286.63, -80547.15, -34170.72, -8726.19, -38013.86, -59113.05, -20193.73, -79260.02, 0.000, 0.000, 0.000, 15:19:47.702
69, -41970.34, 56873.03, 728.96, 75387.23, 142527.45, 110702.04, 69550.55, 85112.45, 2286.63, -80547.15, -34170.72, -8726.19, -38013.86, -59113.05, -20193.73, -79260.02, 0.000, 0.000, 0.000, 15:19:47.702
70, -41970.34, 56873.03, 728.96, 75387.23, 142527.45, 110702.04, 69550.55, 85112.45, 2202.12, -80540.33, -34194.57, -8715.01, -37862.11, -59110.64, -20163.44, -79250.90, 0.000, 0.000, 0.000, 15:19:47.702
71, -42037.24, 56913.11, 756.74, 75433.02, 142563.75, 110656.42, 69470.00, 85038.82, 2202.12, -80540.33, -34194.57, -8715.01, -37862.11, -59110.64, -20163.44, -79250.90, 0.000, 0.000, 0.000, 15:19:47.702
72, -42037.24, 56913.11, 756.74, 75433.02, 142563.75, 110656.42, 69470.00, 85038.82, 1850.37, -80511.27, -34152.10, -8698.96, -38313.55, -59086.79, -20308.19, -79223.05, 0.000, 0.000, 0.000, 15:19:47.702
