%OpenBCI Raw EEG Data
%
%Sample Rate = 250.0 Hz
%First Column = SampleIndex
%Last Column = Timestamp 
%Other Columns = EEG data in microvolts followed by Accel Data (in G) interleaved with Aux Data
0, 0.00, 0.00, 0.00, 0.00, 0.00, 0.00, 0.00, 0.00, -9733.92, -28140.09, -38951.13, 7883.84, -31059.07, -30154.49, -26171.97, -42296.29, 0.032, 0.962, -0.090, 16:34:14.807
1, -20629.27, 46674.98, 37000.50, 56831.21, 81674.52, 59079.77, 54487.16, 70601.76, -9733.92, -28140.09, -38951.13, 7883.84, -31059.07, -30154.49, -26171.97, -42296.29, 0.000, 0.000, 0.000, 16:34:14.814
2, -20629.27, 46674.98, 37000.50, 56831.21, 81674.52, 59079.77, 54487.16, 70601.76, -9153.78, -58526.63, -78372.03, 12861.60, -64054.96, -63566.46, -53943.32, -85635.97, 0.000, 0.000, 0.000, 16:34:14.821
3, -41450.93, 93341.44, 74007.72, 113662.80, 163350.05, 118120.07, 109015.96, 141252.84, -9153.78, -58526.63, -78372.03, 12861.60, -64054.96, -63566.46, -53943.32, -85635.97, 0.000, 0.000, 0.000, 16:34:14.821
4, -41450.93, 93341.44, 74007.72, 113662.80, 163350.05, 118120.07, 109015.96, 141252.84, -9434.78, -58506.72, -78349.19, 12884.51, -64048.95, -63556.25, -54008.74, -85650.38, 0.000, 0.000, 0.000, 16:34:14.828
5, -41483.81, 93358.72, 74035.21, 113687.47, 163371.13, 117770.04, 108746.71, 141008.17, -9434.78, -58506.72, -78349.19, 12884.51, -64048.95, -63556.25, -54008.74, -85650.38, 0.000, 0.000, 0.000, 16:34:14.829
6, -41483.81, 93358.72, 74035.21, 113687.47, 163371.13, 117770.04, 108746.71, 141008.17, -9092.67, -58519.10, -78351.04, 12873.84, -64044.29, -63552.15, -53931.83, -85613.15, 0.000, 0.000, 0.000, 16:34:14.838
7, -41297.04, 93336.26, 74012.99, 113661.37, 163355.86, 118241.82, 109058.13, 141270.23, -9092.67, -58519.10, -78351.04, 12873.84, -64044.29, -63552.15, -53931.83, -85613.15, 0.024, 0.964, -0.084, 16:34:14.838
8, -41297.04, 93336.26, 74012.99, 113661.37, 163355.86, 118241.82, 109058.13, 141270.23, -9337.89, -58525.36, -78364.84, 12862.78, -64043.98, -63572.81, -53971.17, -85646.92, 0.000, 0.000, 0.000, 16:34:14.843
9, -41579.34, 93357.71, 74026.72, 113667.11, 163374.92, 117848.38, 108824.43, 141082.75, -9337.89, -58525.36, -78364.84, 12862.78, -64043.98, -63572.81, -53971.17, -85646.92, 0.000, 0.000, 0.000, 16:34:14.843
10, -41579.34, 93357.71, 74026.72, 113667.11, 163374.92, 117848.38, 108824.43, 141082.75, -9280.04, -58526.41, -78353.63, 12866.20, -64032.25, -63566.46, -53993.72, -85649.67, 0.000, 0.000, 0.000, 16:34:14.851
11, -41302.34, 93338.91, 74003.72, 113647.02, 163354.80, 118036.32, 108909.48, 141133.27, -9280.04, -58526.41, -78353.63, 12866.20, -64032.25, -63566.46, -53993.72, -85649.67, 0.000, 0.000, 0.000, 16:34:14.851
12, -41302.34, 93338.91, 74003.72, 113647.02, 163354.80, 118036.32, 108909.48, 141133.27, -9184.13, -58543.35, -78382.83, 12841.10, -64056.10, -63575.60, -53957.00, -85653.06, 0.000, 0.000, 0.000, 16:34:14.859
13, -41452.43, 93342.11, 73999.23, 113640.58, 163358.41, 118132.63, 109023.27, 141250.97, -9184.13, -58543.35, -78382.83, 12841.10, -64056.10, -63575.60, -53957.00, -85653.06, 0.000, 0.000, 0.000, 16:34:14.859
14, -41452.43, 93342.11, 73999.23, 113640.58, 163358.41, 118132.63, 109023.27, 141250.97, -9467.64, -58528.64, -78372.52, 12856.63, -64052.16, -63573.72, -54038.52, -85680.83, 0.000, 0.000, 0.000, 16:34:14.867
15, -41487.45, 93346.09, 73996.99, 113644.83, 163341.42, 117766.48, 108760.41, 141013.17, -9467.64, -58528.64, -78372.52, 12856.63, -64052.16, -63573.72, -54038.52, -85680.83, 0.000, 0.000, 0.000, 16:34:14.867
16, -41487.45, 93346.09, 73996.99, 113644.83, 163341.42, 117766.48, 108760.41, 141013.17, -9134.11, -58543.87, -78388.08, 12836.20, -64065.60, -63584.03, -53986.84, -85655.32, 0.000, 0.000, 0.000, 16:34:14.873
17, -41303.43, 93326.02, 73981.08, 113634.43, 163314.41, 118218.84, 109055.88, 141270.47, -9134.11, -58543.87, -78388.08, 12836.20, -64065.60, -63584.03, -53986.84, -85655.32, 0.020, 0.962, -0.092, 16:34:14.881
18, -41303.43, 93326.02, 73981.08, 113634.43, 163314.41, 118218.84, 109055.88, 141270.47, -9387.02, -58526.41, -78386.96, 12843.58, -64065.73, -63586.22, -54017.59, -85670.91, 0.000, 0.000, 0.000, 16:34:14.881
19, -41584.91, 93351.56, 74011.81, 113654.62, 163337.63, 117811.01, 108817.50, 141083.58, -9387.02, -58526.41, -78386.96, 12843.58, -64065.73, -63586.22, -54017.59, -85670.91, 0.000, 0.000, 0.000, 16:34:14.889
20, -41584.91, 93351.56, 74011.81, 113654.62, 163337.63, 117811.01, 108817.50, 141083.58, -9315.02, -58507.01, -78361.46, 12861.98, -64037.66, -63562.35, -54019.98, -85662.56, 0.000, 0.000, 0.000, 16:34:14.889
21, -41301.39, 93336.05, 74008.63, 113649.34, 163324.80, 118003.70, 108907.55, 141132.44, -9315.02, -58507.01, -78361.46, 12861.98, -64037.66, -63562.35, -54019.98, -85662.56, 0.000, 0.000, 0.000, 16:34:14.896
22, -41301.39, 93336.05, 74008.63, 113649.34, 163324.80, 118003.70, 108907.55, 141132.44, -9210.66, -58530.16, -78384.66, 12840.32, -64058.62, -63579.00, -53967.46, -85645.09, 0.000, 0.000, 0.000, 16:34:14.897
23, -41450.30, 93330.60, 74020.77, 113647.59, 163349.34, 118119.09, 109027.76, 141241.23, -9210.66, -58530.16, -78384.66, 12840.32, -64058.62, -63579.00, -53967.46, -85645.09, 0.000, 0.000, 0.000, 16:34:14.904
24, -41450.30, 93330.60, 74020.77, 113647.59, 163349.34, 118119.09, 109027.76, 141241.23, -9479.35, -58520.75, -78367.34, 12854.55, -64022.19, -63572.16, -54020.21, -85670.73, 0.000, 0.000, 0.000, 16:34:14.905
25, -41499.75, 93342.98, 74036.24, 113657.03, 163374.06, 117749.50, 108764.88, 140999.41, -9479.35, -58520.75, -78367.34, 12854.55, -64022.19, -63572.16, -54020.21, -85670.73, 0.000, 0.000, 0.000, 16:34:14.910
26, -41499.75, 93342.98, 74036.24, 113657.03, 163374.06, 117749.50, 108764.88, 140999.41, -9138.71, -58542.82, -78374.78, 12836.14, -64021.74, -63583.45, -53940.17, -85635.68, 0.000, 0.000, 0.000, 16:34:14.911
27, -41316.46, 93312.16, 74016.80, 113641.77, 163366.28, 118215.65, 109072.73, 141269.97, -9138.71, -58542.82, -78374.78, 12836.14, -64021.74, -63583.45, -53940.17, -85635.68, 0.014, 0.962, -0.094, 16:34:14.919
28, -41316.46, 93312.16, 74016.80, 113641.77, 163366.28, 118215.65, 109072.73, 141269.97, -9393.83, -58534.28, -78379.09, 12840.85, -64037.34, -63581.97, -53964.69, -85649.20, 0.000, 0.000, 0.000, 16:34:14.920
29, -41592.53, 93332.45, 74034.61, 113663.80, 163393.53, 117819.98, 108847.34, 141093.44, -9393.83, -58534.28, -78379.09, 12840.85, -64037.34, -63581.97, -53964.69, -85649.20, 0.000, 0.000, 0.000, 16:34:14.926
30, -41592.53, 93332.45, 74034.61, 113663.80, 163393.53, 117819.98, 108847.34, 141093.44, -9331.14, -58530.97, -78371.94, 12844.85, -64029.54, -63577.86, -53978.59, -85643.23, 0.000, 0.000, 0.000, 16:34:14.927
31, -41312.48, 93316.27, 74006.76, 113650.50, 163357.47, 118031.42, 108933.26, 141152.73, -9331.14, -58530.97, -78371.94, 12844.85, -64029.54, -63577.86, -53978.59, -85643.23, 0.000, 0.000, 0.000, 16:34:14.934
32, -41312.48, 93316.27, 74006.76, 113650.50, 163357.47, 118031.42, 108933.26, 141152.73, -9235.70, -58543.55, -78397.96, 12826.73, -64064.07, -63582.48, -53947.16, -85638.72, 0.000, 0.000, 0.000, 16:34:14.940
33, -41462.17, 93319.91, 74007.34, 113648.58, 163360.77, 118133.59, 109040.81, 141276.09, -9235.70, -58543.55, -78397.96, 12826.73, -64064.07, -63582.48, -53947.16, -85638.72, 0.000, 0.000, 0.000, 16:34:14.941
34, -41462.17, 93319.91, 74007.34, 113648.58, 163360.77, 118133.59, 109040.81, 141276.09, -9518.29, -58510.90, -78366.66, 12862.13, -64039.63, -63562.59, -54031.92, -85667.41, 0.000, 0.000, 0.000, 16:34:14.948
35, -41475.94, 93325.41, 74009.95, 113658.93, 163342.45, 117771.09, 108765.46, 141039.50, -9518.29, -58510.90, -78366.66, 12862.13, -64039.63, -63562.59, -54031.92, -85667.41, 0.000, 0.000, 0.000, 16:34:14.948
36, -41475.94, 93325.41, 74009.95, 113658.93, 163342.45, 117771.09, 108765.46, 141039.50, -9176.89, -58530.99, -78382.60, 12841.46, -64059.36, -63574.50, -53985.38, -85653.98, 0.000, 0.000, 0.000, 16:34:14.956
37, -41284.92, 93312.20, 73989.01, 113646.86, 163330.66, 118238.73, 109058.67, 141303.75, -9176.89, -58530.99, -78382.60, 12841.46, -64059.36, -63574.50, -53985.38, -85653.98, 0.022, 0.968, -0.098, 16:34:14.956
38, -41284.92, 93312.20, 73989.01, 113646.86, 163330.66, 118238.73, 109058.67, 141303.75, -9428.10, -58520.80, -78377.28, 12850.24, -64067.18, -63569.70, -54026.78, -85671.87, 0.000, 0.000, 0.000, 16:34:14.963
39, -41568.03, 93329.41, 74006.63, 113665.50, 163346.72, 117854.20, 108816.47, 141109.78, -9428.10, -58520.80, -78377.28, 12850.24, -64067.18, -63569.70, -54026.78, -85671.87, 0.000, 0.000, 0.000, 16:34:14.963
40, -41568.03, 93329.41, 74006.63, 113665.50, 163346.72, 117854.20, 108816.47, 141109.78, -9373.45, -58512.44, -78360.54, 12860.03, -64059.20, -63562.46, -54041.55, -85662.39, 0.000, 0.000, 0.000, 16:34:14.971
41, -41298.07, 93322.38, 73987.16, 113653.23, 163324.66, 118042.11, 108894.23, 141148.02, -9373.45, -58512.44, -78360.54, 12860.03, -64059.20, -63562.46, -54041.55, -85662.39, 0.000, 0.000, 0.000, 16:34:14.971
42, -41298.07, 93322.38, 73987.16, 113653.23, 163324.66, 118042.11, 108894.23, 141148.02, -9272.00, -58535.19, -78385.62, 12836.05, -64062.22, -63571.62, -53997.99, -85656.66, 0.000, 0.000, 0.000, 16:34:14.978
43, -41431.89, 93328.19, 73984.20, 113646.37, 163325.47, 118149.62, 109016.79, 141293.13, -9272.00, -58535.19, -78385.62, 12836.05, -64062.22, -63571.62, -53997.99, -85656.66, 0.000, 0.000, 0.000, 16:34:14.979
44, -41431.89, 93328.19, 73984.20, 113646.37, 163325.47, 118149.62, 109016.79, 141293.13, -9552.26, -58512.86, -78357.32, 12865.84, -64052.59, -63569.99, -54057.74, -85678.93, 0.000, 0.000, 0.000, 16:34:14.987
45, -41470.93, 93355.68, 74009.26, 113670.93, 163341.06, 117783.83, 108746.64, 141035.75, -9552.26, -58512.86, -78357.32, 12865.84, -64052.59, -63569.99, -54057.74, -85678.93, 0.000, 0.000, 0.000, 16:34:14.987
46, -41470.93, 93355.68, 74009.26, 113670.93, 163341.06, 117783.83, 108746.64, 141035.75, -9215.31, -58519.37, -78356.09, 12858.62, -64049.28, -63562.32, -53967.86, -85638.59, 0.000, 0.000, 0.000, 16:34:14.993
47, -41279.87, 93340.70, 74002.89, 113663.98, 163329.02, 118262.05, 109053.27, 141310.47, -9215.31, -58519.37, -78356.09, 12858.62, -64049.28, -63562.32, -53967.86, -85638.59, 0.030, 0.964, -0.100, 16:34:15.001
48, -41279.87, 93340.70, 74002.89, 113663.98, 163329.02, 118262.05, 109053.27, 141310.47, -9460.35, -58524.29, -78368.21, 12852.12, -64065.71, -63585.61, -53982.59, -85658.88, 0.000, 0.000, 0.000, 16:34:15.002
49, -41562.33, 93354.05, 74024.82, 113677.70, 163358.33, 117870.27, 108838.28, 141142.16, -9460.35, -58524.29, -78368.21, 12852.12, -64065.71, -63585.61, -53982.59, -85658.88, 0.000, 0.000, 0.000, 16:34:15.008
50, -41562.33, 93354.05, 74024.82, 113677.70, 163358.33, 117870.27, 108838.28, 141142.16, -9405.14, -58511.50, -78342.46, 12868.86, -64034.66, -63556.87, -53974.66, -85629.59, 0.000, 0.000, 0.000, 16:34:15.008
51, -41285.14, 93340.97, 74021.63, 113679.98, 163356.80, 118062.24, 108925.57, 141180.13, -9405.14, -58511.50, -78342.46, 12868.86, -64034.66, -63556.87, -53974.66, -85629.59, 0.000, 0.000, 0.000, 16:34:15.016
52, -41285.14, 93340.97, 74021.63, 113679.98, 163356.80, 118062.24, 108925.57, 141180.13, -9290.61, -58537.56, -78371.52, 12841.28, -64055.27, -63568.16, -53921.97, -85618.11, 0.000, 0.000, 0.000, 16:34:15.016
53, -41416.77, 93337.91, 74015.92, 113674.38, 163352.91, 118185.91, 109055.86, 141322.34, -9290.61, -58537.56, -78371.52, 12841.28, -64055.27, -63568.16, -53921.97, -85618.11, 0.000, 0.000, 0.000, 16:34:15.023
54, -41416.77, 93337.91, 74015.92, 113674.38, 163352.91, 118185.91, 109055.86, 141322.34, -9573.74, -58513.87, -78352.00, 12865.31, -64049.95, -63558.01, -54007.87, -85650.97, 0.000, 0.000, 0.000, 16:34:15.024
55, -41458.89, 93356.05, 74027.73, 113686.38, 163362.86, 117820.65, 108775.41, 141072.69, -9573.74, -58513.87, -78352.00, 12865.31, -64049.95, -63558.01, -54007.87, -85650.97, 0.000, 0.000, 0.000, 16:34:15.030
56, -41458.89, 93356.05, 74027.73, 113686.38, 163362.86, 117820.65, 108775.41, 141072.69, -9232.95, -58529.40, -78359.40, 12849.91, -64028.58, -63568.40, -53960.51, -85636.46, 0.028, 0.962, -0.098, 16:34:15.031
57, -41276.43, 93340.59, 74005.77, 113656.43, 163351.86, 118266.90, 109055.66, 141325.11, -9232.95, -58529.40, -78359.40, 12849.91, -64028.58, -63568.40, -53960.51, -85636.46, 0.000, 0.000, 0.000, 16:34:15.039
58, -41276.43, 93340.59, 74005.77, 113656.43, 163351.86, 118266.90, 109055.66, 141325.11, -9479.96, -58531.98, -78366.69, 12843.69, -64040.32, -63579.71, -54010.39, -85680.73, 0.000, 0.000, 0.000, 16:34:15.039
59, -41554.26, 93356.02, 74014.80, 113656.98, 163366.59, 117867.41, 108817.45, 141131.66, -9479.96, -58531.98, -78366.69, 12843.69, -64040.32, -63579.71, -54010.39, -85680.73, 0.000, 0.000, 0.000, 16:34:15.046
60, -41554.26, 93356.02, 74014.80, 113656.98, 163366.59, 117867.41, 108817.45, 141131.66, -9411.18, -58529.18, -78346.52, 12852.01, -64029.45, -63581.59, -54031.32, -85683.98, 0.000, 0.000, 0.000, 16:34:15.047
61, -41280.68, 93350.98, 74006.60, 113646.73, 163346.28, 118045.34, 108887.13, 141165.86, -9411.18, -58529.18, -78346.52, 12852.01, -64029.45, -63581.59, -54031.32, -85683.98, 0.000, 0.000, 0.000, 16:34:15.052
62, -41280.68, 93350.98, 74006.60, 113646.73, 163346.28, 118045.34, 108887.13, 141165.86, -9299.17, -58544.27, -78362.33, 12836.70, -64045.05, -63589.23, -53992.34, -85673.67, 0.000, 0.000, 0.000, 16:34:15.053
63, -41413.38, 93345.64, 74013.10, 113653.12, 163329.59, 118146.87, 109001.56, 141288.50, -9299.17, -58544.27, -78362.33, 12836.70, -64045.05, -63589.23, -53992.34, -85673.67, 0.000, 0.000, 0.000, 16:34:15.062
64, -41413.38, 93345.64, 74013.10, 113653.12, 163329.59, 118146.87, 109001.56, 141288.50, -9579.33, -58515.61, -78340.88, 12868.28, -64047.29, -63583.71, -54062.74, -85693.68, 0.000, 0.000, 0.000, 16:34:15.069
65, -41443.82, 93351.48, 74016.46, 113665.84, 163324.81, 117787.01, 108733.16, 141050.67, -9579.33, -58515.61, -78340.88, 12868.28, -64047.29, -63583.71, -54062.74, -85693.68, 0.000, 0.000, 0.000, 16:34:15.069
66, -41443.82, 93351.48, 74016.46, 113665.84, 163324.81, 117787.01, 108733.16, 141050.67, -9240.52, -58527.04, -78349.86, 12858.33, -64058.09, -63585.57, -53998.04, -85652.58, 0.024, 0.960, -0.098, 16:34:15.076
67, -41254.08, 93352.95, 74007.20, 113665.05, 163315.78, 118244.19, 109023.78, 141294.02, -9240.52, -58527.04, -78349.86, 12858.33, -64058.09, -63585.57, -53998.04, -85652.58, 0.000, 0.000, 0.000, 16:34:15.076
68, -41254.08, 93352.95, 74007.20, 113665.05, 163315.78, 118244.19, 109023.78, 141294.02, -9483.17, -58515.19, -78345.16, 12866.33, -64065.44, -63566.86, -54005.32, -85656.82, 0.000, 0.000, 0.000, 16:34:15.083
69, -41523.88, 93371.75, 74028.82, 113680.70, 163343.06, 117882.74, 108803.70, 141121.31, -9483.17, -58515.19, -78345.16, 12866.33, -64065.44, -63566.86, -54005.32, -85656.82, 0.000, 0.000, 0.000, 16:34:15.084
70, -41523.88, 93371.75, 74028.82, 113680.70, 163343.06, 117882.74, 108803.70, 141121.31, -9418.69, -58508.66, -78334.34, 12871.56, -64053.39, -63557.52, -54010.46, -85644.75, 0.000, 0.000, 0.000, 16:34:15.093
71, -41257.52, 93354.49, 74009.28, 113670.55, 163325.31, 118082.61, 108903.13, 141174.73, -9418.69, -58508.66, -78334.34, 12871.56, -64053.39, -63557.52, -54010.46, -85644.75, 0.000, 0.000, 0.000, 16:34:15.093
72, -41257.52, 93354.49, 74009.28, 113670.55, 163325.31, 118082.61, 108903.13, 141174.73, -9317.88, -58524.38, -78362.64, 12852.01, -64086.56, -63576.96, -53961.33, -85634.80, 0.000, 0.000, 0.000, 16:34:15.100
73, -41409.15, 93335.90, 74005.48, 113664.54, 163342.00, 118193.38, 109041.06, 141305.83, -9317.88, -58524.38, -78362.64, 12852.01, -64086.56, -63576.96, -53961.33, -85634.80, 0.000, 0.000, 0.000, 16:34:15.100
74, -41409.15, 93335.90, 74005.48, 113664.54, 163342.00, 118193.38, 109041.06, 141305.83, -9606.42, -58518.09, -78356.74, 12859.67, -64062.54, -63578.55, -54023.94, -85657.11, 0.000, 0.000, 0.000, 16:34:15.107
75, -41456.45, 93323.56, 74016.26, 113674.28, 163357.52, 117838.59, 108784.62, 141069.83, -9606.42, -58518.09, -78356.74, 12859.67, -64062.54, -63578.55, -54023.94, -85657.11, 0.000, 0.000, 0.000, 16:34:15.107
76, -41456.45, 93323.56, 74016.26, 113674.28, 163357.52, 117838.59, 108784.62, 141069.83, -9271.95, -58542.55, -78372.63, 12837.21, -64073.75, -63591.83, -53958.94, -85635.03, 0.018, 0.962, -0.102, 16:34:15.117
77, -41283.98, 93302.13, 74003.96, 113657.39, 163344.69, 118278.79, 109082.61, 141337.23, -9271.95, -58542.55, -78372.63, 12837.21, -64073.75, -63591.83, -53958.94, -85635.03, 0.000, 0.000, 0.000, 16:34:15.117
78, -41283.98, 93302.13, 74003.96, 113657.39, 163344.69, 118278.79, 109082.61, 141337.23, -9521.57, -58528.58, -78371.31, 12845.30, -64068.73, -63597.13, -53989.83, -85658.21, 0.000, 0.000, 0.000, 16:34:15.122
79, -41554.64, 93335.88, 74019.03, 113673.16, 163360.09, 117890.38, 108847.00, 141139.39, -9521.57, -58528.58, -78371.31, 12845.30, -64068.73, -63597.13, -53989.83, -85658.21, 0.000, 0.000, 0.000, 16:34:15.131
80, -41554.64, 93335.88, 74019.03, 113673.16, 163360.09, 117890.38, 108847.00, 141139.39, -9455.03, -58516.17, -78349.01, 12861.26, -64059.32, -63570.17, -54020.90, -85660.33, 0.000, 0.000, 0.000, 16:34:15.131
81, -41258.10, 93324.48, 73996.07, 113658.44, 163326.36, 118071.88, 108914.84, 141167.44, -9455.03, -58516.17, -78349.01, 12861.26, -64059.32, -63570.17, -54020.90, -85660.33, 0.000, 0.000, 0.000, 16:34:15.136
82, -41258.10, 93324.48, 73996.07, 113658.44, 163326.36, 118071.88, 108914.84, 141167.44, -9333.19, -58529.94, -78368.19, 12844.88, -64077.62, -63587.58, -53996.52, -85667.51, 0.000, 0.000, 0.000, 16:34:15.136
83, -41381.08, 93335.16, 73995.63, 113654.93, 163324.30, 118174.61, 109026.30, 141289.86, -9333.19, -58529.94, -78368.19, 12844.88, -64077.62, -63587.58, -53996.52, -85667.51, 0.000, 0.000, 0.000, 16:34:15.145
84, -41381.08, 93335.16, 73995.63, 113654.93, 163324.30, 118174.61, 109026.30, 141289.86, -9614.13, -58495.32, -78333.70, 12882.63, -64063.81, -63574.84, -54067.57, -85682.57, 0.000, 0.000, 0.000, 16:34:15.146
85, -41414.92, 93362.95, 74015.48, 113682.17, 163328.30, 117811.52, 108741.77, 141027.25, -9614.13, -58495.32, -78333.70, 12882.63, -64063.81, -63574.84, -54067.57, -85682.57, 0.000, 0.000, 0.000, 16:34:15.151
86, -41414.92, 93362.95, 74015.48, 113682.17, 163328.30, 117811.52, 108741.77, 141027.25, -9271.19, -58514.77, -78344.16, 12865.62, -64074.78, -63578.89, -54008.56, -85655.97, 0.018, 0.964, -0.102, 16:34:15.151
87, -41221.40, 93346.80, 73998.60, 113668.56, 163306.83, 118271.37, 109028.90, 141280.20, -9271.19, -58514.77, -78344.16, 12865.62, -64074.78, -63578.89, -54008.56, -85655.97, 0.000, 0.000, 0.000, 16:34:15.158
88, -41221.40, 93346.80, 73998.60, 113668.56, 163306.83, 118271.37, 109028.90, 141280.20, -9514.42, -58504.46, -78335.51, 12877.35, -64059.76, -63582.04, -54032.28, -85669.67, 0.000, 0.000, 0.000, 16:34:15.159
89, -41493.98, 93367.84, 74022.36, 113678.63, 163327.50, 117880.55, 108799.17, 141088.98, -9514.42, -58504.46, -78335.51, 12877.35, -64059.76, -63582.04, -54032.28, -85669.67, 0.000, 0.000, 0.000, 16:34:15.166
90, -41493.98, 93367.84, 74022.36, 113678.63, 163327.50, 117880.55, 108799.17, 141088.98, -9454.61, -58504.46, -78320.47, 12882.27, -64050.29, -63579.71, -54039.77, -85672.49, 0.000, 0.000, 0.000, 16:34:15.167
91, -41229.87, 93360.91, 74012.59, 113671.65, 163321.70, 118065.60, 108882.54, 141131.91, -9454.61, -58504.46, -78320.47, 12882.27, -64050.29, -63579.71, -54039.77, -85672.49, 0.000, 0.000, 0.000, 16:34:15.176
92, -41229.87, 93360.91, 74012.59, 113671.65, 163321.70, 118065.60, 108882.54, 141131.91, -9349.29, -58519.66, -78341.97, 12864.19, -64068.34, -63578.75, -53984.51, -85653.94, 0.000, 0.000, 0.000, 16:34:15.176
93, -41376.05, 93353.58, 74006.55, 113664.09, 163335.61, 118195.75, 109006.15, 141251.44, -9349.29, -58519.66, -78341.97, 12864.19, -64068.34, -63578.75, -53984.51, -85653.94, 0.000, 0.000, 0.000, 16:34:15.185
94, -41376.05, 93353.58, 74006.55, 113664.09, 163335.61, 118195.75, 109006.15, 141251.44, -9643.79, -58513.22, -78334.14, 12871.74, -64059.49, -63585.35, -54048.66, -85685.27, 0.000, 0.000, 0.000, 16:34:15.188
95, -41430.88, 93355.01, 74014.20, 113669.52, 163344.69, 117827.20, 108745.79, 141009.42, -9643.79, -58513.22, -78334.14, 12871.74, -64059.49, -63585.35, -54048.66, -85685.27, 0.000, 0.000, 0.000, 16:34:15.188
96, -41430.88, 93355.01, 74014.20, 113669.52, 163344.69, 117827.20, 108745.79, 141009.42, -9310.55, -58538.03, -78349.19, 12845.08, -64057.80, -63597.24, -53983.06, -85654.81, 0.024, 0.966, -0.104, 16:34:15.196
97, -41245.67, 93331.56, 73990.22, 113644.85, 163327.83, 118277.45, 109043.25, 141274.83, -9310.55, -58538.03, -78349.19, 12845.08, -64057.80, -63597.24, -53983.06, -85654.81, 0.000, 0.000, 0.000, 16:34:15.196
98, -41245.67, 93331.56, 73990.22, 113644.85, 163327.83, 118277.45, 109043.25, 141274.83, -9563.28, -58541.36, -78357.99, 12840.41, -64081.64, -63600.34, -54013.26, -85680.89, 0.000, 0.000, 0.000, 16:34:15.204
99, -41522.81, 93353.17, 74003.09, 113655.02, 163349.83, 117885.87, 108823.60, 141091.38, -9563.28, -58541.36, -78357.99, 12840.41, -64081.64, -63600.34, -54013.26, -85680.89, 0.000, 0.000, 0.000, 16:34:15.205
100, -41522.81, 93353.17, 74003.09, 113655.02, 163349.83, 117885.87, 108823.60, 141091.38, -9516.99, -58548.00, -78348.54, 12838.08, -64064.57, -63603.18, -54027.20, -85667.51, 0.000, 0.000, 0.000, 16:34:15.212
101, -41269.70, 93321.81, 73981.57, 113637.90, 163349.38, 118071.48, 108910.01, 141125.28, -9516.99, -58548.00, -78348.54, 12838.08, -64064.57, -63603.18, -54027.20, -85667.51, 0.000, 0.000, 0.000, 16:34:15.212
102, -41269.70, 93321.81, 73981.57, 113637.90, 163349.38, 118071.48, 108910.01, 141125.28, -9423.47, -58571.00, -78377.10, 12809.18, -64088.48, -63629.27, -53987.57, -85665.02, 0.000, 0.000, 0.000, 16:34:15.219
103, -41417.73, 93319.34, 73988.01, 113634.52, 163370.81, 118180.60, 109030.98, 141253.23, -9423.47, -58571.00, -78377.10, 12809.18, -64088.48, -63629.27, -53987.57, -85665.02, 0.000, 0.000, 0.000, 16:34:15.220
104, -41417.73, 93319.34, 73988.01, 113634.52, 163370.81, 118180.60, 109030.98, 141253.23, -9715.72, -58545.45, -78352.25, 12834.95, -64062.24, -63601.68, -54045.13, -85692.47, 0.000, 0.000, 0.000, 16:34:15.227
105, -41461.97, 93326.73, 73996.68, 113649.27, 163368.06, 117829.63, 108767.07, 141010.52, -9715.72, -58545.45, -78352.25, 12834.95, -64062.24, -63601.68, -54045.13, -85692.47, 0.000, 0.000, 0.000, 16:34:15.228
106, -41461.97, 93326.73, 73996.68, 113649.27, 163368.06, 117829.63, 108767.07, 141010.52, -9377.88, -58569.66, -78366.45, 12815.19, -64074.74, -63606.00, -53992.36, -85675.06, 0.020, 0.964, -0.098, 16:34:15.234
107, -41266.04, 93323.07, 73985.19, 113643.80, 163347.14, 118285.16, 109050.94, 141261.67, -9377.88, -58569.66, -78366.45, 12815.19, -64074.74, -63606.00, -53992.36, -85675.06, 0.000, 0.000, 0.000, 16:34:15.234
108, -41266.04, 93323.07, 73985.19, 113643.80, 163347.14, 118285.16, 109050.94, 141261.67, -9620.06, -58549.23, -78363.89, 12834.77, -64078.70, -63608.19, -54021.75, -85698.66, 0.000, 0.000, 0.000, 16:34:15.240
109, -41524.45, 93354.20, 73996.79, 113657.50, 163343.02, 117898.09, 108827.09, 141091.63, -9620.06, -58549.23, -78363.89, 12834.77, -64078.70, -63608.19, -54021.75, -85698.66, 0.000, 0.000, 0.000, 16:34:15.248
110, -41524.45, 93354.20, 73996.79, 113657.50, 163343.02, 117898.09, 108827.09, 141091.63, -9564.00, -58536.11, -78351.76, 12849.50, -64068.17, -63607.96, -54044.68, -85692.16, 0.000, 0.000, 0.000, 16:34:15.249
111, -41246.01, 93334.82, 73985.77, 113656.38, 163319.41, 118079.10, 108897.61, 141115.39, -9564.00, -58536.11, -78351.76, 12849.50, -64068.17, -63607.96, -54044.68, -85692.16, 0.000, 0.000, 0.000, 16:34:15.256
112, -41246.01, 93334.82, 73985.77, 113656.38, 163319.41, 118079.10, 108897.61, 141115.39, -9446.58, -58553.84, -78371.61, 12831.26, -64089.67, -63605.89, -54001.99, -85685.27, 0.000, 0.000, 0.000, 16:34:15.257
113, -41375.31, 93339.81, 73996.38, 113658.70, 163342.77, 118193.90, 109006.21, 141237.06, -9446.58, -58553.84, -78371.61, 12831.26, -64089.67, -63605.89, -54001.99, -85685.27, 0.000, 0.000, 0.000, 16:34:15.266
114, -41375.31, 93339.81, 73996.38, 113658.70, 163342.77, 118193.90, 109006.21, 141237.06, -9732.08, -58517.31, -78335.02, 12867.27, -64061.71, -63586.64, -54059.93, -85703.70, 0.000, 0.000, 0.000, 16:34:15.266
115, -41414.07, 93357.63, 74014.27, 113677.23, 163343.92, 117820.78, 108731.13, 140982.84, -9732.08, -58517.31, -78335.02, 12867.27, -64061.71, -63586.64, -54059.93, -85703.70, 0.014, 0.968, -0.098, 16:34:15.272
116, -41414.07, 93357.63, 74014.27, 113677.23, 163343.92, 117820.78, 108731.13, 140982.84, -9381.12, -58534.23, -78343.98, 12852.70, -64062.55, -63593.59, -53988.16, -85658.41, 0.000, 0.000, 0.000, 16:34:15.272
117, -41210.47, 93343.99, 73996.70, 113666.87, 163311.58, 118303.17, 109032.48, 141248.88, -9381.12, -58534.23, -78343.98, 12852.70, -64062.55, -63593.59, -53988.16, -85658.41, 0.000, 0.000, 0.000, 16:34:15.278
118, -41210.47, 93343.99, 73996.70, 113666.87, 163311.58, 118303.17, 109032.48, 141248.88, -9630.14, -58524.04, -78341.14, 12864.34, -64070.20, -63597.48, -54015.25, -85674.99, 0.000, 0.000, 0.000, 16:34:15.279
119, -41486.09, 93385.20, 74030.52, 113695.16, 163345.98, 117917.79, 108810.37, 141069.77, -9630.14, -58524.04, -78341.14, 12864.34, -64070.20, -63597.48, -54015.25, -85674.99, 0.000, 0.000, 0.000, 16:34:15.288
120, -41486.09, 93385.20, 74030.52, 113695.16, 163345.98, 117917.79, 108810.37, 141069.77, -9572.54, -58507.79, -78309.58, 12889.11, -64048.07, -63584.36, -54019.83, -85655.55, 0.000, 0.000, 0.000, 16:34:15.288
121, -41208.39, 93378.68, 74019.43, 113691.36, 163329.91, 118102.01, 108895.08, 141113.22, -9572.54, -58507.79, -78309.58, 12889.11, -64048.07, -63584.36, -54019.83, -85655.55, 0.000, 0.000, 0.000, 16:34:15.297
122, -41208.39, 93378.68, 74019.43, 113691.36, 163329.91, 118102.01, 108895.08, 141113.22, -9450.00, -58520.11, -78335.77, 12873.22, -64069.22, -63585.57, -53980.45, -85641.73, 0.000, 0.000, 0.000, 16:34:15.297
123, -41329.56, 93375.91, 74014.27, 113683.67, 163328.73, 118240.95, 109025.05, 141260.36, -9450.00, -58520.11, -78335.77, 12873.22, -64069.22, -63585.57, -53980.45, -85641.73, 0.000, 0.000, 0.000, 16:34:15.300
124, -41329.56, 93375.91, 74014.27, 113683.67, 163328.73, 118240.95, 109025.05, 141260.36, -9740.33, -58505.15, -78310.67, 12893.49, -64056.23, -63583.13, -54051.77, -85672.98, 0.000, 0.000, 0.000, 16:34:15.301
125, -41391.50, 93384.91, 74032.82, 113692.57, 163337.84, 117853.93, 108746.75, 141009.39, -9740.33, -58505.15, -78310.67, 12893.49, -64056.23, -63583.13, -54051.77, -85672.98, 0.020, 0.972, -0.094, 16:34:15.310
126, -41391.50, 93384.91, 74032.82, 113692.57, 163337.84, 117853.93, 108746.75, 141009.39, -9406.17, -58534.23, -78326.50, 12862.49, -64071.14, -63596.90, -53984.56, -85645.71, 0.000, 0.000, 0.000, 16:34:15.317
127, -41205.26, 93351.43, 74007.96, 113667.89, 163348.48, 118324.72, 109045.46, 141279.19, -9406.17, -58534.23, -78326.50, 12862.49, -64071.14, -63596.90, -53984.56, -85645.71, 0.000, 0.000, 0.000, 16:34:15.317
128, -41205.26, 93351.43, 74007.96, 113667.89, 163348.48, 118324.72, 109045.46, 141279.19, -9663.35, -58545.59, -78344.38, 12848.83, -64066.78, -63614.18, -54016.12, -85678.95, 0.000, 0.000, 0.000, 16:34:15.324
129, -41501.62, 93376.02, 74019.16, 113671.11, 163382.17, 117931.82, 108811.91, 141096.19, -9663.35, -58545.59, -78344.38, 12848.83, -64066.78, -63614.18, -54016.12, -85678.95, 0.000, 0.000, 0.000, 16:34:15.324
130, -41501.62, 93376.02, 74019.16, 113671.11, 163382.17, 117931.82, 108811.91, 141096.19, -9619.16, -58542.93, -78333.25, 12853.46, -64059.72, -63610.67, -54027.70, -85670.70, 0.000, 0.000, 0.000, 16:34:15.332
131, -41232.93, 93353.29, 74000.95, 113657.12, 163365.72, 118132.01, 108898.30, 141124.69, -9619.16, -58542.93, -78333.25, 12853.46, -64059.72, -63610.67, -54027.70, -85670.70, 0.000, 0.000, 0.000, 16:34:15.332
132, -41232.93, 93353.29, 74000.95, 113657.12, 163365.72, 118132.01, 108898.30, 141124.69, -9506.40, -58559.80, -78357.08, 12832.40, -64059.34, -63625.96, -53982.79, -85666.08, 0.000, 0.000, 0.000, 16:34:15.340
133, -41356.20, 93361.76, 74002.94, 113657.99, 163363.59, 118258.36, 109020.70, 141258.81, -9506.40, -58559.80, -78357.08, 12832.40, -64059.34, -63625.96, -53982.79, -85666.08, 0.000, 0.000, 0.000, 16:34:15.340
134, -41356.20, 93361.76, 74002.94, 113657.99, 163363.59, 118258.36, 109020.70, 141258.81, -9784.63, -58519.26, -78326.03, 12868.44, -64054.20, -63594.51, -54044.66, -85684.02, 0.000, 0.000, 0.000, 16:34:15.347
135, -41403.30, 93384.31, 74018.78, 113678.24, 163364.52, 117883.92, 108751.34, 141011.23, -9784.63, -58519.26, -78326.03, 12868.44, -64054.20, -63594.51, -54044.66, -85684.02, 0.016, 0.966, -0.096, 16:34:15.347
136, -41403.30, 93384.31, 74018.78, 113678.24, 163364.52, 117883.92, 108751.34, 141011.23, -9448.55, -58534.34, -78335.51, 12854.80, -64062.40, -63580.77, -53990.79, -85658.54, 0.000, 0.000, 0.000, 16:34:15.354
137, -41210.25, 93374.86, 74011.56, 113676.61, 163346.19, 118331.88, 109030.30, 141256.31, -9448.55, -58534.34, -78335.51, 12854.80, -64062.40, -63580.77, -53990.79, -85658.54, 0.000, 0.000, 0.000, 16:34:15.354
138, -41210.25, 93374.86, 74011.56, 113676.61, 163346.19, 118331.88, 109030.30, 141256.31, -9693.75, -58510.70, -78320.95, 12878.27, -64063.20, -63573.46, -54008.38, -85662.59, 0.000, 0.000, 0.000, 16:34:15.363
139, -41479.27, 93406.73, 74039.73, 113700.46, 163358.50, 117955.34, 108805.45, 141075.83, -9693.75, -58510.70, -78320.95, 12878.27, -64063.20, -63573.46, -54008.38, -85662.59, 0.000, 0.000, 0.000, 16:34:15.363
140, -41479.27, 93406.73, 74039.73, 113700.46, 163358.50, 117955.34, 108805.45, 141075.83, -9634.12, -58523.73, -78311.86, 12873.89, -64050.80, -63601.93, -54024.99, -85661.88, 0.000, 0.000, 0.000, 16:34:15.369
141, -41207.23, 93369.45, 74004.19, 113668.32, 163317.63, 118143.78, 108895.77, 141126.34, -9634.12, -58523.73, -78311.86, 12873.89, -64050.80, -63601.93, -54024.99, -85661.88, 0.000, 0.000, 0.000, 16:34:15.377
142, -41207.23, 93369.45, 74004.19, 113668.32, 163317.63, 118143.78, 108895.77, 141126.34, -9527.88, -58543.44, -78346.10, 12846.42, -64085.91, -63601.62, -54001.93, -85659.44, 0.000, 0.000, 0.000, 16:34:15.377
143, -41339.59, 93372.38, 74006.16, 113680.07, 163329.73, 118257.71, 109002.15, 141245.20, -9527.88, -58543.44, -78346.10, 12846.42, -64085.91, -63601.62, -54001.93, -85659.44, 0.000, 0.000, 0.000, 16:34:15.383
144, -41339.59, 93372.38, 74006.16, 113680.07, 163329.73, 118257.71, 109002.15, 141245.20, -9823.88, -58514.41, -78319.19, 12876.59, -64070.89, -63580.27, -54077.92, -85681.70, 0.000, 0.000, 0.000, 16:34:15.383
145, -41380.23, 93378.50, 74013.71, 113690.20, 163327.80, 117886.27, 108726.15, 140999.83, -9823.88, -58514.41, -78319.19, 12876.59, -64070.89, -63580.27, -54077.92, -85681.70, 0.014, 0.966, -0.096, 16:34:15.391
146, -41380.23, 93378.50, 74013.71, 113690.20, 163327.80, 117886.27, 108726.15, 140999.83, -9479.82, -58532.04, -78326.43, 12860.37, -64072.30, -63590.35, -54012.27, -85653.31, 0.000, 0.000, 0.000, 16:34:15.391
147, -41186.20, 93371.23, 74000.70, 113678.69, 163327.48, 118354.83, 109025.59, 141263.98, -9479.82, -58532.04, -78326.43, 12860.37, -64072.30, -63590.35, -54012.27, -85653.31, 0.000, 0.000, 0.000, 16:34:15.399
148, -41186.20, 93371.23, 74000.70, 113678.69, 163327.48, 118354.83, 109025.59, 141263.98, -9719.07, -58519.66, -78320.29, 12868.37, -64065.37, -63587.65, -54032.66, -85658.37, 0.000, 0.000, 0.000, 16:34:15.399
149, -41471.00, 93396.42, 74024.82, 113694.55, 163346.88, 117976.84, 108805.72, 141074.14, -9719.07, -58519.66, -78320.29, 12868.37, -64065.37, -63587.65, -54032.66, -85658.37, 0.000, 0.000, 0.000, 16:34:15.407
150, -41471.00, 93396.42, 74024.82, 113694.55, 163346.88, 117976.84, 108805.72, 141074.14, -9667.69, -58513.94, -78302.25, 12875.54, -64052.21, -63594.31, -54038.47, -85659.19, 0.000, 0.000, 0.000, 16:34:15.407
151, -41199.14, 93379.75, 74016.99, 113688.84, 163348.84, 118144.95, 108890.01, 141114.67, -9667.69, -58513.94, -78302.25, 12875.54, -64052.21, -63594.31, -54038.47, -85659.19, 0.000, 0.000, 0.000, 16:34:15.414
152, -41199.14, 93379.75, 74016.99, 113688.84, 163348.84, 118144.95, 108890.01, 141114.67, -9554.74, -58523.77, -78317.88, 12863.70, -64054.60, -63584.90, -53984.04, -85647.91, 0.000, 0.000, 0.000, 16:34:15.414
153, -41319.72, 93378.84, 74015.99, 113684.21, 163366.84, 118272.87, 109020.65, 141252.31, -9554.74, -58523.77, -78317.88, 12863.70, -64054.60, -63584.90, -53984.04, -85647.91, 0.000, 0.000, 0.000, 16:34:15.422
154, -41319.72, 93378.84, 74015.99, 113684.21, 163366.84, 118272.87, 109020.65, 141252.31, -9846.88, -58513.36, -78309.24, 12872.64, -64050.48, -63588.09, -54056.44, -85687.33, 0.000, 0.000, 0.000, 16:34:15.422
155, -41383.00, 93388.40, 74020.46, 113687.61, 163369.91, 117896.98, 108753.08, 141008.17, -9846.88, -58513.36, -78309.24, 12872.64, -64050.48, -63588.09, -54056.44, -85687.33, 0.016, 0.968, -0.094, 16:34:15.430
156, -41383.00, 93388.40, 74020.46, 113687.61, 163369.91, 117896.98, 108753.08, 141008.17, -9506.91, -58528.38, -78315.46, 12856.95, -64046.78, -63592.72, -53999.91, -85660.64, 0.000, 0.000, 0.000, 16:34:15.437
157, -41187.31, 93378.50, 73998.45, 113664.30, 163344.83, 118353.60, 109032.66, 141262.19, -9506.91, -58528.38, -78315.46, 12856.95, -64046.78, -63592.72, -53999.91, -85660.64, 0.000, 0.000, 0.000, 16:34:15.437
158, -41187.31, 93378.50, 73998.45, 113664.30, 163344.83, 118353.60, 109032.66, 141262.19, -9756.63, -58534.84, -78322.50, 12853.42, -64063.29, -63610.71, -54037.53, -85687.78, 0.000, 0.000, 0.000, 16:34:15.444
159, -41481.82, 93383.57, 74022.67, 113680.14, 163375.83, 117955.12, 108796.55, 141063.06, -9756.63, -58534.84, -78322.50, 12853.42, -64063.29, -63610.71, -54037.53, -85687.78, 0.000, 0.000, 0.000, 16:34:15.444
160, -41481.82, 93383.57, 74022.67, 113680.14, 163375.83, 117955.12, 108796.55, 141063.06, -9710.56, -58521.74, -78300.05, 12868.41, -64040.54, -63609.15, -54041.75, -85681.43, 0.000, 0.000, 0.000, 16:34:15.453
161, -41210.49, 93373.47, 74011.92, 113671.38, 163361.09, 118136.90, 108882.16, 141098.47, -9710.56, -58521.74, -78300.05, 12868.41, -64040.54, -63609.15, -54041.75, -85681.43, 0.000, 0.000, 0.000, 16:34:15.453
162, -41210.49, 93373.47, 74011.92, 113671.38, 163361.09, 118136.90, 108882.16, 141098.47, -9605.10, -58533.92, -78317.31, 12855.85, -64055.07, -63599.92, -53992.69, -85664.48, 0.000, 0.000, 0.000, 16:34:15.460
163, -41333.43, 93385.32, 74026.05, 113683.61, 163372.94, 118283.62, 108995.17, 141219.50, -9605.10, -58533.92, -78317.31, 12855.85, -64055.07, -63599.92, -53992.69, -85664.48, 0.000, 0.000, 0.000, 16:34:15.460
164, -41333.43, 93385.32, 74026.05, 113683.61, 163372.94, 118283.62, 108995.17, 141219.50, -9887.72, -58509.73, -78294.88, 12881.24, -64039.80, -63589.21, -54048.28, -85682.68, 0.000, 0.000, 0.000, 16:34:15.466
165, -41395.99, 93394.68, 74032.57, 113686.55, 163373.91, 117900.84, 108732.49, 140967.98, -9887.72, -58509.73, -78294.88, 12881.24, -64039.80, -63589.21, -54048.28, -85682.68, 0.014, 0.964, -0.094, 16:34:15.467
166, -41395.99, 93394.68, 74032.57, 113686.55, 163373.91, 117900.84, 108732.49, 140967.98, -9551.66, -58531.77, -78307.63, 12859.58, -64039.18, -63597.24, -53989.79, -85656.24, 0.000, 0.000, 0.000, 16:34:15.475
167, -41189.66, 93392.94, 74023.84, 113683.18, 163369.47, 118358.23, 109028.48, 141221.58, -9551.66, -58531.77, -78307.63, 12859.58, -64039.18, -63597.24, -53989.79, -85656.24, 0.000, 0.000, 0.000, 16:34:15.475
168, -41189.66, 93392.94, 74023.84, 113683.18, 163369.47, 118358.23, 109028.48, 141221.58, -9794.11, -58528.04, -78309.53, 12863.72, -64050.31, -63602.91, -54009.57, -85667.53, 0.000, 0.000, 0.000, 16:34:15.483
169, -41480.50, 93386.93, 74031.66, 113687.79, 163373.50, 117971.81, 108800.87, 141050.30, -9794.11, -58528.04, -78309.53, 12863.72, -64050.31, -63602.91, -54009.57, -85667.53, 0.000, 0.000, 0.000, 16:34:15.483
170, -41480.50, 93386.93, 74031.66, 113687.79, 163373.50, 117971.81, 108800.87, 141050.30, -9762.01, -58531.53, -78304.66, 12862.02, -64037.23, -63616.28, -54029.84, -85669.14, 0.000, 0.000, 0.000, 16:34:15.490
171, -41213.55, 93349.45, 74005.93, 113671.23, 163340.69, 118163.03, 108894.90, 141101.44, -9762.01, -58531.53, -78304.66, 12862.02, -64037.23, -63616.28, -54029.84, -85669.14, 0.000, 0.000, 0.000, 16:34:15.496
172, -41213.55, 93349.45, 74005.93, 113671.23, 163340.69, 118163.03, 108894.90, 141101.44, -9654.97, -58552.88, -78339.93, 12834.50, -64075.30, -63613.62, -53997.39, -85667.30, 0.000, 0.000, 0.000, 16:34:15.497
173, -41347.02, 93342.06, 74001.15, 113666.71, 163346.13, 118292.16, 109006.33, 141232.42, -9654.97, -58552.88, -78339.93, 12834.50, -64075.30, -63613.62, -53997.39, -85667.30, 0.000, 0.000, 0.000, 16:34:15.505
174, -41347.02, 93342.06, 74001.15, 113666.71, 163346.13, 118292.16, 109006.33, 141232.42, -9960.96, -58523.55, -78322.68, 12860.50, -64068.90, -63608.77, -54064.00, -85682.86, 0.016, 0.968, -0.090, 16:34:15.505
175, -41409.33, 93361.89, 74018.11, 113686.29, 163341.89, 117915.10, 108728.88, 140967.84, -9960.96, -58523.55, -78322.68, 12860.50, -64068.90, -63608.77, -54064.00, -85682.86, 0.000, 0.000, 0.000, 16:34:15.511
176, -41409.33, 93361.89, 74018.11, 113686.29, 163341.89, 117915.10, 108728.88, 140967.84, -9628.24, -58530.84, -78328.22, 12850.26, -64064.39, -63600.77, -54002.02, -85654.05, 0.000, 0.000, 0.000, 16:34:15.512
177, -41192.32, 93332.70, 74005.20, 113669.26, 163339.66, 118384.38, 109022.30, 141229.20, -9628.24, -58530.84, -78328.22, 12850.26, -64064.39, -63600.77, -54002.02, -85654.05, 0.000, 0.000, 0.000, 16:34:15.519
178, -41192.32, 93332.70, 74005.20, 113669.26, 163339.66, 118384.38, 109022.30, 141229.20, -9876.90, -58524.33, -78333.54, 12852.86, -64073.51, -63612.70, -54030.69, -85684.96, 0.000, 0.000, 0.000, 16:34:15.519
179, -41478.04, 93355.79, 74027.34, 113680.52, 163365.63, 117984.22, 108796.76, 141064.00, -9876.90, -58524.33, -78333.54, 12852.86, -64073.51, -63612.70, -54030.69, -85684.96, 0.000, 0.000, 0.000, 16:34:15.528
180, -41478.04, 93355.79, 74027.34, 113680.52, 163365.63, 117984.22, 108796.76, 141064.00, -9843.75, -58511.75, -78311.97, 12867.27, -64054.11, -63597.28, -54042.14, -85674.93, 0.000, 0.000, 0.000, 16:34:15.528
181, -41228.39, 93354.80, 74025.02, 113681.15, 163361.72, 118179.86, 108882.74, 141095.53, -9843.75, -58511.75, -78311.97, 12867.27, -64054.11, -63597.28, -54042.14, -85674.93, 0.000, 0.000, 0.000, 16:34:15.534
182, -41228.39, 93354.80, 74025.02, 113681.15, 163361.72, 118179.86, 108882.74, 141095.53, -9704.50, -58522.50, -78332.49, 12851.16, -64049.77, -63603.16, -53987.29, -85656.89, 0.000, 0.000, 0.000, 16:34:15.534
183, -41351.24, 93353.53, 74033.18, 113681.15, 163371.02, 118327.65, 109011.47, 141240.73, -9704.50, -58522.50, -78332.49, 12851.16, -64049.77, -63603.16, -53987.29, -85656.89, 0.000, 0.000, 0.000, 16:34:15.543
184, -41351.24, 93353.53, 74033.18, 113681.15, 163371.02, 118327.65, 109011.47, 141240.73, -9988.70, -58500.17, -78303.79, 12877.60, -64033.61, -63595.47, -54050.11, -85672.58, 0.012, 0.964, -0.092, 16:34:15.543
185, -41423.35, 93360.33, 74045.09, 113693.95, 163372.11, 117935.63, 108740.23, 140975.70, -9988.70, -58500.17, -78303.79, 12877.60, -64033.61, -63595.47, -54050.11, -85672.58, 0.000, 0.000, 0.000, 16:34:15.549
186, -41423.35, 93360.33, 74045.09, 113693.95, 163372.11, 117935.63, 108740.23, 140975.70, -9651.28, -58530.54, -78318.14, 12853.06, -64045.34, -63597.50, -53992.40, -85649.52, 0.000, 0.000, 0.000, 16:34:15.549
187, -41217.29, 93339.30, 74026.54, 113677.33, 163350.64, 118398.04, 109027.98, 141236.25, -9651.28, -58530.54, -78318.14, 12853.06, -64045.34, -63597.50, -53992.40, -85649.52, 0.000, 0.000, 0.000, 16:34:15.556
188, -41217.29, 93339.30, 74026.54, 113677.33, 163350.64, 118398.04, 109027.98, 141236.25, -9896.97, -58525.96, -78329.23, 12853.75, -64068.14, -63607.68, -54025.59, -85672.84, 0.000, 0.000, 0.000, 16:34:15.565
189, -41494.05, 93353.29, 74035.44, 113692.41, 163351.50, 118007.73, 108803.26, 141066.13, -9896.97, -58525.96, -78329.23, 12853.75, -64068.14, -63607.68, -54025.59, -85672.84, 0.000, 0.000, 0.000, 16:34:15.565
190, -41494.05, 93353.29, 74035.44, 113692.41, 163351.50, 118007.73, 108803.26, 141066.13, -9876.92, -58511.19, -78304.82, 12871.81, -64045.12, -63592.14, -54041.11, -85669.65, 0.000, 0.000, 0.000, 16:34:15.572
191, -41236.64, 93331.74, 74019.72, 113677.05, 163340.69, 118159.32, 108867.14, 141081.53, -9876.92, -58511.19, -78304.82, 12871.81, -64045.12, -63592.14, -54041.11, -85669.65, 0.000, 0.000, 0.000, 16:34:15.572
192, -41236.64, 93331.74, 74019.72, 113677.05, 163340.69, 118159.32, 108867.14, 141081.53, -9757.63, -58546.30, -78340.45, 12833.90, -64073.40, -63623.90, -53998.10, -85669.52, 0.000, 0.000, 0.000, 16:34:15.579
193, -41355.15, 93327.65, 74017.69, 113674.60, 163350.25, 118312.36, 109001.61, 141242.84, -9757.63, -58546.30, -78340.45, 12833.90, -64073.40, -63623.90, -53998.10, -85669.52, 0.000, 0.000, 0.000, 16:34:15.579
194, -41355.15, 93327.65, 74017.69, 113674.60, 163350.25, 118312.36, 109001.61, 141242.84, -10076.79, -58537.05, -78325.00, 12851.76, -64075.63, -63612.64, -54068.51, -85698.20, 0.012, 0.968, -0.094, 16:34:15.587
195, -41442.66, 93334.42, 74022.38, 113676.81, 163351.14, 117907.21, 108717.00, 140975.36, -10076.79, -58537.05, -78325.00, 12851.76, -64075.63, -63612.64, -54068.51, -85698.20, 0.000, 0.000, 0.000, 16:34:15.587
196, -41442.66, 93334.42, 74022.38, 113676.81, 163351.14, 117907.21, 108717.00, 140975.36, -9724.19, -58549.86, -78330.86, 12836.83, -64053.30, -63626.45, -54005.81, -85665.13, 0.000, 0.000, 0.000, 16:34:15.595
197, -41229.36, 93319.42, 74010.06, 113680.59, 163340.44, 118391.71, 109011.84, 141232.02, -9724.19, -58549.86, -78330.86, 12836.83, -64053.30, -63626.45, -54005.81, -85665.13, 0.000, 0.000, 0.000, 16:34:15.595
198, -41229.36, 93319.42, 74010.06, 113680.59, 163340.44, 118391.71, 109011.84, 141232.02, -9966.53, -58530.86, -78325.83, 12852.66, -64077.33, -63590.80, -54032.34, -85675.04, 0.000, 0.000, 0.000, 16:34:15.602
199, -41501.02, 93343.72, 74033.20, 113700.91, 163361.00, 118016.54, 108795.37, 141069.08, -9966.53, -58530.86, -78325.83, 12852.66, -64077.33, -63590.80, -54032.34, -85675.04, 0.000, 0.000, 0.000, 16:34:15.602
200, -41501.02, 93343.72, 74033.20, 113700.91, 163361.00, 118016.54, 108795.37, 141069.08, -9920.53, -58518.70, -78296.98, 12871.25, -64039.27, -63590.73, -54036.88, -85666.55, 0.000, 0.000, 0.000, 16:34:15.611
201, -41232.33, 93340.91, 74030.00, 113697.02, 163359.75, 118202.57, 108885.18, 141113.98, -9920.53, -58518.70, -78296.98, 12871.25, -64039.27, -63590.73, -54036.88, -85666.55, 0.000, 0.000, 0.000, 16:34:15.611
202, -41232.33, 93340.91, 74030.00, 113697.02, 163359.75, 118202.57, 108885.18, 141113.98, -9790.06, -58553.93, -78327.93, 12838.66, -64061.53, -63614.58, -53996.07, -85657.80, 0.000, 0.000, 0.000, 16:34:15.618
203, -41377.32, 93324.07, 74005.23, 113664.25, 163352.73, 118330.27, 108988.87, 141242.28, -9790.06, -58553.93, -78327.93, 12838.66, -64061.53, -63614.58, -53996.07, -85657.80, 0.000, 0.000, 0.000, 16:34:15.624
204, -41377.32, 93324.07, 74005.23, 113664.25, 163352.73, 118330.27, 108988.87, 141242.28, -10099.43, -58530.88, -78310.16, 12862.22, -64055.79, -63622.74, -54070.43, -85696.23, 0.008, 0.970, -0.092, 16:34:15.625
205, -41437.47, 93344.59, 74019.19, 113682.13, 163361.50, 117928.11, 108715.98, 140987.22, -10099.43, -58530.88, -78310.16, 12862.22, -64055.79, -63622.74, -54070.43, -85696.23, 0.000, 0.000, 0.000, 16:34:15.631
206, -41437.47, 93344.59, 74019.19, 113682.13, 163361.50, 117928.11, 108715.98, 140987.22, -9773.84, -58554.73, -78325.70, 12841.12, -64064.34, -63624.82, -54011.69, -85673.97, 0.000, 0.000, 0.000, 16:34:15.631
207, -41232.08, 93332.23, 73999.52, 113663.42, 163343.14, 118376.51, 109001.79, 141238.48, -9773.84, -58554.73, -78325.70, 12841.12, -64064.34, -63624.82, -54011.69, -85673.97, 0.000, 0.000, 0.000, 16:34:15.639
208, -41232.08, 93332.23, 73999.52, 113663.42, 163343.14, 118376.51, 109001.79, 141238.48, -10019.55, -58550.75, -78328.42, 12846.58, -64078.70, -63627.37, -54033.91, -85686.73, 0.000, 0.000, 0.000, 16:34:15.639
209, -41505.07, 93349.40, 74027.70, 113697.82, 163374.19, 117991.91, 108775.84, 141045.14, -10019.55, -58550.75, -78328.42, 12846.58, -64078.70, -63627.37, -54033.91, -85686.73, 0.000, 0.000, 0.000, 16:34:15.647
210, -41505.07, 93349.40, 74027.70, 113697.82, 163374.19, 117991.91, 108775.84, 141045.14, -9976.77, -58525.11, -78300.73, 12875.23, -64053.32, -63600.25, -54032.05, -85662.03, 0.000, 0.000, 0.000, 16:34:15.647
211, -41229.91, 93332.50, 74019.30, 113692.45, 163356.31, 118173.18, 108857.71, 141084.47, -9976.77, -58525.11, -78300.73, 12875.23, -64053.32, -63600.25, -54032.05, -85662.03, 0.000, 0.000, 0.000, 16:34:15.655
212, -41229.91, 93332.50, 74019.30, 113692.45, 163356.31, 118173.18, 108857.71, 141084.47, -9830.50, -58547.58, -78318.52, 12854.06, -64072.52, -63602.96, -53978.63, -85646.02, 0.000, 0.000, 0.000, 16:34:15.656
213, -41334.10, 93329.30, 74037.36, 113703.97, 163369.97, 118328.27, 108992.96, 141234.48, -9830.50, -58547.58, -78318.52, 12854.06, -64072.52, -63602.96, -53978.63, -85646.02, 0.000, 0.000, 0.000, 16:34:15.662
214, -41334.10, 93329.30, 74037.36, 113703.97, 163369.97, 118328.27, 108992.96, 141234.48, -10109.36, -58526.77, -78296.98, 12878.29, -64046.24, -63585.93, -54035.61, -85663.57, 0.016, 0.968, -0.086, 16:34:15.663
215, -41408.21, 93319.91, 74032.44, 113694.02, 163365.97, 117940.70, 108726.44, 140984.72, -10109.36, -58526.77, -78296.98, 12878.29, -64046.24, -63585.93, -54035.61, -85663.57, 0.000, 0.000, 0.000, 16:34:15.671
216, -41408.21, 93319.91, 74032.44, 113694.02, 163365.97, 117940.70, 108726.44, 140984.72, -9785.30, -58566.39, -78333.90, 12827.87, -64077.49, -63600.57, -53998.50, -85671.41, 0.000, 0.000, 0.000, 16:34:15.671
217, -41216.13, 93289.96, 73997.86, 113658.73, 163344.33, 118385.43, 109003.73, 141243.47, -9785.30, -58566.39, -78333.90, 12827.87, -64077.49, -63600.57, -53998.50, -85671.41, 0.000, 0.000, 0.000, 16:34:15.678
218, -41216.13, 93289.96, 73997.86, 113658.73, 163344.33, 118385.43, 109003.73, 141243.47, -10040.45, -58541.32, -78330.39, 12849.12, -64075.70, -63612.17, -54030.73, -85683.71, 0.000, 0.000, 0.000, 16:34:15.685
219, -41495.92, 93304.80, 74016.01, 113699.90, 163360.64, 118021.74, 108787.95, 141062.84, -10040.45, -58541.32, -78330.39, 12849.12, -64075.70, -63612.17, -54030.73, -85683.71, 0.000, 0.000, 0.000, 16:34:15.685
220, -41495.92, 93304.80, 74016.01, 113699.90, 163360.64, 118021.74, 108787.95, 141062.84, -10016.17, -58536.71, -78315.16, 12858.06, -64067.77, -63595.85, -54051.34, -85673.70, 0.000, 0.000, 0.000, 16:34:15.691
221, -41249.65, 93290.75, 74004.30, 113685.30, 163347.59, 118181.80, 108855.41, 141080.34, -10016.17, -58536.71, -78315.16, 12858.06, -64067.77, -63595.85, -54051.34, -85673.70, 0.000, 0.000, 0.000, 16:34:15.691
222, -41249.65, 93290.75, 74004.30, 113685.30, 163347.59, 118181.80, 108855.41, 141080.34, -9891.00, -58563.13, -78340.78, 12831.76, -64081.49, -63616.48, -54003.60, -85663.82, 0.000, 0.000, 0.000, 16:34:15.699
223, -41370.98, 93293.14, 74000.23, 113675.85, 163353.73, 118334.91, 108987.64, 141229.53, -9891.00, -58563.13, -78340.78, 12831.76, -64081.49, -63616.48, -54003.60, -85663.82, 0.018, 0.960, -0.086, 16:34:15.699
224, -41370.98, 93293.14, 74000.23, 113675.85, 163353.73, 118334.91, 108987.64, 141229.53, -10196.64, -58541.65, -78318.12, 12854.96, -64068.08, -63595.14, -54071.26, -85692.09, 0.000, 0.000, 0.000, 16:34:15.707
225, -41441.99, 93304.36, 74019.92, 113696.37, 163369.75, 117938.84, 108714.30, 140971.83, -10196.64, -58541.65, -78318.12, 12854.96, -64068.08, -63595.14, -54071.26, -85692.09, 0.000, 0.000, 0.000, 16:34:15.707
226, -41441.99, 93304.36, 74019.92, 113696.37, 163369.75, 117938.84, 108714.30, 140971.83, -9871.80, -58558.71, -78319.52, 12841.86, -64063.72, -63603.81, -53997.52, -85655.26, 0.000, 0.000, 0.000, 16:34:15.714
227, -41224.66, 93278.63, 74007.67, 113679.80, 163364.22, 118411.52, 109007.64, 141236.13, -9871.80, -58558.71, -78319.52, 12841.86, -64063.72, -63603.81, -53997.52, -85655.26, 0.000, 0.000, 0.000, 16:34:15.714
228, -41224.66, 93278.63, 74007.67, 113679.80, 163364.22, 118411.52, 109007.64, 141236.13, -10115.10, -58555.00, -78322.48, 12845.66, -64077.93, -63612.82, -54026.82, -85678.95, 0.000, 0.000, 0.000, 16:34:15.722
229, -41515.97, 93297.32, 74027.08, 113695.05, 163381.44, 118023.27, 108773.60, 141060.22, -10115.10, -58555.00, -78322.48, 12845.66, -64077.93, -63612.82, -54026.82, -85678.95, 0.000, 0.000, 0.000, 16:34:15.722
230, -41515.97, 93297.32, 74027.08, 113695.05, 163381.44, 118023.27, 108773.60, 141060.22, -10100.04, -58552.25, -78309.27, 12852.97, -64047.74, -63625.71, -54045.38, -85680.91, 0.000, 0.000, 0.000, 16:34:15.729
231, -41252.04, 93283.39, 74016.88, 113690.42, 163359.81, 118186.45, 108848.52, 141089.50, -10100.04, -58552.25, -78309.27, 12852.97, -64047.74, -63625.71, -54045.38, -85680.91, 0.000, 0.000, 0.000, 16:34:15.730
232, -41252.04, 93283.39, 74016.88, 113690.42, 163359.81, 118186.45, 108848.52, 141089.50, -9977.53, -58564.27, -78334.14, 12836.38, -64086.56, -63590.18, -53995.75, -85660.40, 0.000, 0.000, 0.000, 16:34:15.737
233, -41361.01, 93271.79, 73993.03, 113679.29, 163356.69, 118338.38, 108968.66, 141226.47, -9977.53, -58564.27, -78334.14, 12836.38, -64086.56, -63590.18, -53995.75, -85660.40, 0.020, 0.958, -0.084, 16:34:15.744
234, -41361.01, 93271.79, 73993.03, 113679.29, 163356.69, 118338.38, 108968.66, 141226.47, -10268.15, -58536.29, -78315.16, 12859.79, -64033.43, -63599.00, -54064.89, -85689.25, 0.000, 0.000, 0.000, 16:34:15.745
235, -41414.25, 93302.19, 74041.60, 113711.84, 163378.58, 117951.80, 108715.33, 140987.25, -10268.15, -58536.29, -78315.16, 12859.79, -64033.43, -63599.00, -54064.89, -85689.25, 0.000, 0.000, 0.000, 16:34:15.751
236, -41414.25, 93302.19, 74041.60, 113711.84, 163378.58, 117951.80, 108715.33, 140987.25, -9925.29, -58553.23, -78312.38, 12848.16, -64064.23, -63603.45, -53988.09, -85647.41, 0.000, 0.000, 0.000, 16:34:15.752
237, -41207.45, 93278.37, 74016.37, 113687.20, 163351.80, 118430.16, 109008.90, 141247.48, -9925.29, -58553.23, -78312.38, 12848.16, -64064.23, -63603.45, -53988.09, -85647.41, 0.000, 0.000, 0.000, 16:34:15.759
238, -41207.45, 93278.37, 74016.37, 113687.20, 163351.80, 118430.16, 109008.90, 141247.48, -10185.56, -58547.02, -78318.84, 12852.90, -64071.39, -63612.73, -54022.20, -85667.35, 0.000, 0.000, 0.000, 16:34:15.760
239, -41496.50, 93303.82, 74042.66, 113706.92, 163373.45, 118032.54, 108775.70, 141059.89, -10185.56, -58547.02, -78318.84, 12852.90, -64071.39, -63612.73, -54022.20, -85667.35, 0.000, 0.000, 0.000, 16:34:15.766
240, -41496.50, 93303.82, 74042.66, 113706.92, 163373.45, 118032.54, 108775.70, 141059.89, -10189.02, -58549.30, -78308.38, 12858.58, -64064.70, -63634.23, -54037.08, -85671.82, 0.000, 0.000, 0.000, 16:34:15.767
241, -41237.34, 93280.48, 74018.47, 113685.26, 163344.47, 118179.97, 108848.27, 141090.02, -10189.02, -58549.30, -78308.38, 12858.58, -64064.70, -63634.23, -54037.08, -85671.82, 0.000, 0.000, 0.000, 16:34:15.774
242, -41237.34, 93280.48, 74018.47, 113685.26, 163344.47, 118179.97, 108848.27, 141090.02, -10124.92, -58572.48, -78339.77, 12836.20, -64099.19, -63613.53, -53998.71, -85664.31, 0.000, 0.000, 0.000, 16:34:15.774
243, -41353.77, 93285.63, 74013.15, 113685.51, 163352.33, 118326.29, 108975.34, 141227.48, -10124.92, -58572.48, -78339.77, 12836.20, -64099.19, -63613.53, -53998.71, -85664.31, 0.020, 0.958, -0.092, 16:34:15.782
244, -41353.77, 93285.63, 74013.15, 113685.51, 163352.33, 118326.29, 108975.34, 141227.48, -10526.13, -58562.95, -78317.54, 12860.14, -64067.23, -63596.50, -54066.25, -85689.48, 0.000, 0.000, 0.000, 16:34:15.782
245, -41428.73, 93303.02, 74032.84, 113703.79, 163381.13, 117924.13, 108695.93, 140965.89, -10526.13, -58562.95, -78317.54, 12860.14, -64067.23, -63596.50, -54066.25, -85689.48, 0.000, 0.000, 0.000, 16:34:15.790
246, -41428.73, 93303.02, 74032.84, 113703.79, 163381.13, 117924.13, 108695.93, 140965.89, -10336.34, -58584.01, -78332.42, 12838.60, -64057.73, -63603.50, -54000.38, -85658.56, 0.000, 0.000, 0.000, 16:34:15.790
247, -41219.01, 93282.12, 74004.41, 113679.36, 163372.20, 118391.95, 108983.62, 141216.70, -10336.34, -58584.01, -78332.42, 12838.60, -64057.73, -63603.50, -54000.38, -85658.56, 0.000, 0.000, 0.000, 16:34:15.797
248, -41219.01, 93282.12, 74004.41, 113679.36, 163372.20, 118391.95, 108983.62, 141216.70, -10698.46, -58586.31, -78343.60, 12836.65, -64078.29, -63627.34, -54025.50, -85677.56, 0.000, 0.000, 0.000, 16:34:15.797
249, -41506.59, 93295.64, 74019.56, 113699.43, 163382.48, 118015.71, 108767.14, 141031.88, -10698.46, -58586.31, -78343.60, 12836.65, -64078.29, -63627.34, -54025.50, -85677.56, 0.000, 0.000, 0.000, 16:34:15.805
250, -41506.59, 93295.64, 74019.56, 113699.43, 163382.48, 118015.71, 108767.14, 141031.88, -10771.75, -58579.38, -78335.35, 12842.35, -64069.84, -63595.89, -54040.59, -85672.16, 0.000, 0.000, 0.000, 16:34:15.813
251, -41240.62, 93275.03, 74001.51, 113675.67, 163368.48, 118180.38, 108844.48, 141071.58, -10771.75, -58579.38, -78335.35, 12842.35, -64069.84, -63595.89, -54040.59, -85672.16, 0.000, 0.000, 0.000, 16:34:15.813
252, -41240.62, 93275.03, 74001.51, 113675.67, 163368.48, 118180.38, 108844.48, 141071.58, -10726.15, -58600.80, -78354.80, 12821.07, -64080.62, -63614.70, -53996.54, -85671.59, 0.000, 0.000, 0.000, 16:34:15.820
253, -41347.62, 93286.41, 74008.91, 113689.38, 163372.73, 118325.99, 108973.06, 141209.17, -10726.15, -58600.80, -78354.80, 12821.07, -64080.62, -63614.70, -53996.54, -85671.59, 0.024, 0.960, -0.100, 16:34:15.820
254, -41347.62, 93286.41, 74008.91, 113689.38, 163372.73, 118325.99, 108973.06, 141209.17, -11081.79, -58592.37, -78342.13, 12844.23, -64068.05, -63636.40, -54070.54, -85689.73, 0.000, 0.000, 0.000, 16:34:15.827
255, -41425.63, 93289.54, 74007.07, 113699.72, 163362.23, 117919.69, 108693.76, 140941.58, -11081.79, -58592.37, -78342.13, 12844.23, -64068.05, -63636.40, -54070.54, -85689.73, 0.000, 0.000, 0.000, 16:34:15.827
0, -41425.63, 93289.54, 74007.07, 113699.72, 163362.23, 117919.69, 108693.76, 140941.58, -10795.65, -58615.77, -78355.49, 12828.96, -64098.95, -63627.03, -54020.36, -85669.31, 0.000, 0.000, 0.000, 16:34:15.835
1, -41232.17, 93244.50, 73956.65, 113672.41, 163328.34, 118380.94, 108970.43, 141182.55, -10795.65, -58615.77, -78355.49, 12828.96, -64098.95, -63627.03, -54020.36, -85669.31, 0.000, 0.000, 0.000, 16:34:15.835
2, -41232.17, 93244.50, 73956.65, 113672.41, 163328.34, 118380.94, 108970.43, 141182.55, -11169.68, -58640.87, -78418.99, 12804.71, -64081.62, -63665.05, -54086.73, -85712.09, 0.000, 0.000, 0.000, 16:34:15.843
3, -41517.89, 93306.39, 74007.92, 113702.65, 163351.03, 118021.19, 108749.46, 141008.91, -11169.68, -58640.87, -78418.99, 12804.71, -64081.62, -63665.05, -54086.73, -85712.09, 0.000, 0.000, 0.000, 16:34:15.843
4, -41517.89, 93306.39, 74007.92, 113702.65, 163351.03, 118021.19, 108749.46, 141008.91, -11322.19, -58580.63, -78290.58, 12874.87, -64027.38, -63585.41, -54045.89, -85666.39, 0.000, 0.000, 0.000, 16:34:15.850
5, -41247.33, 93336.23, 74028.30, 113721.00, 163374.39, 118197.16, 108828.63, 141043.34, -11322.19, -58580.63, -78290.58, 12874.87, -64027.38, -63585.41, -54045.89, -85666.39, 0.000, 0.000, 0.000, 16:34:15.850
6, -41247.33, 93336.23, 74028.30, 113721.00, 163374.39, 118197.16, 108828.63, 141043.34, -12233.18, -58590.25, -78321.83, 12865.19, -64071.39, -63585.26, -53986.10, -85640.82, 0.000, 0.000, 0.000, 16:34:15.857
7, -41373.79, 93343.43, 74022.74, 113728.63, 163398.56, 118365.70, 108961.82, 141190.05, -12233.18, -58590.25, -78321.83, 12865.19, -64071.39, -63585.26, -53986.10, -85640.82, 0.018, 0.966, -0.100, 16:34:15.858
8, -41373.79, 93343.43, 74022.74, 113728.63, 163398.56, 118365.70, 108961.82, 141190.05, -14395.71, -58565.84, -78316.80, 12891.01, -64058.87, -63598.49, -54047.68, -85657.70, 0.000, 0.000, 0.000, 16:34:15.864
9, -41447.66, 93365.47, 74022.91, 113744.60, 163405.34, 117968.21, 108680.86, 140934.98, -14395.71, -58565.84, -78316.80, 12891.01, -64058.87, -63598.49, -54047.68, -85657.70, 0.000, 0.000, 0.000, 16:34:15.873
10, -41447.66, 93365.47, 74022.91, 113744.60, 163405.34, 117968.21, 108680.86, 140934.98, -16052.11, -58581.33, -78347.22, 12868.68, -64081.55, -63563.93, -53983.37, -85629.80, 0.000, 0.000, 0.000, 16:34:15.874
11, -41265.97, 93316.85, 73947.55, 113702.88, 163357.77, 118419.00, 108951.70, 141174.59, -16052.11, -58581.33, -78347.22, 12868.68, -64081.55, -63563.93, -53983.37, -85629.80, 0.000, 0.000, 0.000, 16:34:15.879
12, -41265.97, 93316.85, 73947.55, 113702.88, 163357.77, 118419.00, 108951.70, 141174.59, -17710.40, -58599.79, -78355.73, 12853.77, -64061.33, -63612.26, -54021.95, -85672.00, 0.000, 0.000, 0.000, 16:34:15.880
13, -41518.57, 93374.07, 74020.23, 113732.94, 163421.27, 118070.91, 108775.12, 141043.73, -17710.40, -58599.79, -78355.73, 12853.77, -64061.33, -63612.26, -54021.95, -85672.00, 0.000, 0.000, 0.000, 16:34:15.888
14, -41518.57, 93374.07, 74020.23, 113732.94, 163421.27, 118070.91, 108775.12, 141043.73, -18132.65, -58581.33, -78292.75, 12887.37, -64016.80, -63597.17, -54006.24, -85646.77, 0.000, 0.000, 0.000, 16:34:15.888
15, -41251.93, 93354.16, 73999.13, 113727.55, 163403.97, 118221.63, 108851.23, 141074.81, -18132.65, -58581.33, -78292.75, 12887.37, -64016.80, -63597.17, -54006.24, -85646.77, 0.000, 0.000, 0.000, 16:34:15.895
16, -41251.93, 93354.16, 73999.13, 113727.55, 163403.97, 118221.63, 108851.23, 141074.81, -17614.04, -58625.72, -78343.87, 12844.23, -64082.11, -63604.88, -53982.52, -85661.09, 0.000, 0.000, 0.000, 16:34:15.895
17, -41364.47, 93335.05, 73957.74, 113697.51, 163380.34, 118352.57, 108982.30, 141228.86, -17614.04, -58625.72, -78343.87, 12844.23, -64082.11, -63604.88, -53982.52, -85661.09, 0.024, 0.970, -0.104, 16:34:15.903
18, -41364.47, 93335.05, 73957.74, 113697.51, 163380.34, 118352.57, 108982.30, 141228.86, -16947.36, -58604.06, -78318.92, 12858.38, -64047.51, -63610.38, -54063.41, -85699.71, 0.000, 0.000, 0.000, 16:34:15.903
19, -41432.29, 93342.54, 73971.82, 113704.26, 163380.86, 117937.91, 108697.63, 140980.94, -16947.36, -58604.06, -78318.92, 12858.38, -64047.51, -63610.38, -54063.41, -85699.71, 0.000, 0.000, 0.000, 16:34:15.910
20, -41432.29, 93342.54, 73971.82, 113704.26, 163380.86, 117937.91, 108697.63, 140980.94, -15964.62, -58616.26, -78334.28, 12843.69, -64069.04, -63608.93, -54010.53, -85676.85, 0.000, 0.000, 0.000, 16:34:15.910
21, -41213.93, 93344.66, 73969.97, 113703.48, 163365.23, 118361.20, 108974.79, 141218.19, -15964.62, -58616.26, -78334.28, 12843.69, -64069.04, -63608.93, -54010.53, -85676.85, 0.000, 0.000, 0.000, 16:34:15.918
22, -41213.93, 93344.66, 73969.97, 113703.48, 163365.23, 118361.20, 108974.79, 141218.19, -15601.41, -58610.30, -78333.20, 12856.05, -64071.09, -63604.19, -54032.84, -85683.80, 0.000, 0.000, 0.000, 16:34:15.918
23, -41474.51, 93359.27, 73998.33, 113727.77, 163383.27, 117980.82, 108760.70, 141046.14, -15601.41, -58610.30, -78333.20, 12856.05, -64071.09, -63604.19, -54032.84, -85683.80, 0.000, 0.000, 0.000, 16:34:15.925
24, -41474.51, 93359.27, 73998.33, 113727.77, 163383.27, 117980.82, 108760.70, 141046.14, -15231.57, -58596.88, -78287.81, 12881.40, -64040.25, -63597.35, -54041.29, -85666.81, 0.000, 0.000, 0.000, 16:34:15.933
25, -41204.10, 93352.91, 73998.63, 113727.02, 163362.45, 118127.98, 108820.65, 141075.75, -15231.57, -58596.88, -78287.81, 12881.40, -64040.25, -63597.35, -54041.29, -85666.81, 0.000, 0.000, 0.000, 16:34:15.935
26, -41204.10, 93352.91, 73998.63, 113727.02, 163362.45, 118127.98, 108820.65, 141075.75, -15041.67, -58617.49, -78322.81, 12858.89, -64086.25, -63633.94, -53998.93, -85654.48, 0.030, 0.962, -0.112, 16:34:15.939
27, -41324.77, 93332.59, 73980.78, 113716.20, 163351.39, 118267.79, 108946.38, 141221.61, -15041.67, -58617.49, -78322.81, 12858.89, -64086.25, -63633.94, -53998.93, -85654.48, 0.000, 0.000, 0.000, 16:34:15.939
28, -41324.77, 93332.59, 73980.78, 113716.20, 163351.39, 118267.79, 108946.38, 141221.61, -15075.20, -58599.21, -78313.23, 12877.78, -64063.29, -63588.86, -54073.16, -85692.49, 0.000, 0.000, 0.000, 16:34:15.949
29, -41391.79, 93348.88, 74016.21, 113738.79, 163381.81, 117860.19, 108673.22, 140971.80, -15075.20, -58599.21, -78313.23, 12877.78, -64063.29, -63588.86, -54073.16, -85692.49, 0.000, 0.000, 0.000, 16:34:15.949
30, -41391.79, 93348.88, 74016.21, 113738.79, 163381.81, 117860.19, 108673.22, 140971.80, -14987.36, -58608.21, -78307.52, 12875.25, -64042.84, -63579.69, -53992.85, -85637.46, 0.000, 0.000, 0.000, 16:34:15.955
31, -41180.27, 93332.43, 74024.02, 113737.07, 163371.27, 118333.46, 108968.77, 141229.16, -14987.36, -58608.21, -78307.52, 12875.25, -64042.84, -63579.69, -53992.85, -85637.46, 0.000, 0.000, 0.000, 16:34:15.956
32, -41180.27, 93332.43, 74024.02, 113737.07, 163371.27, 118333.46, 108968.77, 141229.16, -15229.92, -58600.06, -78312.89, 12879.52, -64063.45, -63592.70, -54005.95, -85648.08, 0.000, 0.000, 0.000, 16:34:15.963
33, -41457.50, 93368.77, 74055.26, 113754.30, 163400.55, 117960.86, 108746.20, 141055.55, -15229.92, -58600.06, -78312.89, 12879.52, -64063.45, -63592.70, -54005.95, -85648.08, 0.000, 0.000, 0.000, 16:34:15.963
34, -41457.50, 93368.77, 74055.26, 113754.30, 163400.55, 117960.86, 108746.20, 141055.55, -15321.76, -58601.00, -78299.79, 12884.19, -64023.73, -63586.53, -54026.29, -85645.34, 0.000, 0.000, 0.000, 16:34:15.970
35, -41201.62, 93348.46, 74044.27, 113736.09, 163375.63, 118096.04, 108796.38, 141063.80, -15321.76, -58601.00, -78299.79, 12884.19, -64023.73, -63586.53, -54026.29, -85645.34, 0.000, 0.000, 0.000, 16:34:15.970
36, -41201.62, 93348.46, 74044.27, 113736.09, 163375.63, 118096.04, 108796.38, 141063.80, -15511.15, -58629.54, -78331.38, 12858.62, -64051.02, -63579.60, -53982.41, -85642.18, 0.034, 0.960, -0.114, 16:34:15.978
37, -41311.77, 93341.91, 74046.07, 113724.73, 163371.17, 118204.72, 108933.30, 141223.41, -15511.15, -58629.54, -78331.38, 12858.62, -64051.02, -63579.60, -53982.41, -85642.18, 0.000, 0.000, 0.000, 16:34:15.979
38, -41311.77, 93341.91, 74046.07, 113724.73, 163371.17, 118204.72, 108933.30, 141223.41, -15775.62, -58618.21, -78320.42, 12871.56, -64055.00, -63599.92, -54062.65, -85681.92, 0.000, 0.000, 0.000, 16:34:15.984
39, -41385.06, 93356.77, 74070.51, 113728.31, 163387.72, 117799.99, 108650.28, 140971.86, -15775.62, -58618.21, -78320.42, 12871.56, -64055.00, -63599.92, -54062.65, -85681.92, 0.000, 0.000, 0.000, 16:34:15.992
40, -41385.06, 93356.77, 74070.51, 113728.31, 163387.72, 117799.99, 108650.28, 140971.86, -15893.70, -58637.12, -78317.42, 12859.83, -64040.43, -63599.59, -53991.87, -85651.79, 0.000, 0.000, 0.000, 16:34:15.992
41, -41177.84, 93339.83, 74077.43, 113720.30, 163385.08, 118235.00, 108935.91, 141224.58, -15893.70, -58637.12, -78317.42, 12859.83, -64040.43, -63599.59, -53991.87, -85651.79, 0.000, 0.000, 0.000, 16:34:15.999
42, -41177.84, 93339.83, 74077.43, 113720.30, 163385.08, 118235.00, 108935.91, 141224.58, -16216.19, -58641.34, -78318.86, 12863.92, -64051.47, -63610.31, -54014.98, -85675.06, 0.000, 0.000, 0.000, 16:34:15.999
43, -41460.23, 93360.64, 74109.13, 113735.91, 163407.45, 117848.63, 108715.98, 141051.69, -16216.19, -58641.34, -78318.86, 12863.92, -64051.47, -63610.31, -54014.98, -85675.06, 0.000, 0.000, 0.000, 16:34:16.007
44, -41460.23, 93360.64, 74109.13, 113735.91, 163407.45, 117848.63, 108715.98, 141051.69, -16376.41, -58622.10, -78292.37, 12883.21, -64038.24, -63595.25, -54029.06, -85664.96, 0.000, 0.000, 0.000, 16:34:16.007
45, -41193.62, 93357.38, 74129.91, 113748.88, 163396.61, 118005.63, 108777.24, 141075.58, -16376.41, -58622.10, -78292.37, 12883.21, -64038.24, -63595.25, -54029.06, -85664.96, 0.000, 0.000, 0.000, 16:34:16.016
46, -41193.62, 93357.38, 74129.91, 113748.88, 163396.61, 118005.63, 108777.24, 141075.58, -16578.04, -58629.63, -78298.49, 12873.08, -64053.41, -63581.61, -53971.59, -85643.63, 0.032, 0.964, -0.108, 16:34:16.016
47, -41303.52, 93361.53, 74144.98, 113748.05, 163402.84, 118151.27, 108904.13, 141219.97, -16578.04, -58629.63, -78298.49, 12873.08, -64053.41, -63581.61, -53971.59, -85643.63, 0.000, 0.000, 0.000, 16:34:16.024
48, -41303.52, 93361.53, 74144.98, 113748.05, 163402.84, 118151.27, 108904.13, 141219.97, -16778.09, -58605.51, -78260.54, 12904.31, -64048.14, -63579.27, -54032.57, -85660.48, 0.000, 0.000, 0.000, 16:34:16.024
49, -41360.52, 93387.51, 74193.26, 113785.28, 163417.86, 117787.38, 108626.77, 140972.25, -16778.09, -58605.51, -78260.54, 12904.31, -64048.14, -63579.27, -54032.57, -85660.48, 0.000, 0.000, 0.000, 16:34:16.032
50, -41360.52, 93387.51, 74193.26, 113785.28, 163417.86, 117787.38, 108626.77, 140972.25, -16799.08, -58600.68, -78244.18, 12905.14, -64029.14, -63556.31, -53953.24, -85608.25, 0.000, 0.000, 0.000, 16:34:16.032
51, -41141.65, 93361.69, 74189.41, 113767.52, 163397.66, 118237.75, 108903.69, 141210.63, -16799.08, -58600.68, -78244.18, 12905.14, -64029.14, -63556.31, -53953.24, -85608.25, 0.000, 0.000, 0.000, 16:34:16.039
52, -41141.65, 93361.69, 74189.41, 113767.52, 163397.66, 118237.75, 108903.69, 141210.63, -16988.35, -58620.11, -78259.34, 12890.54, -64067.12, -63589.53, -53993.54, -85645.53, 0.000, 0.000, 0.000, 16:34:16.039
53, -41429.32, 93371.41, 74205.82, 113772.25, 163395.50, 117847.69, 108672.63, 141042.44, -16988.35, -58620.11, -78259.34, 12890.54, -64067.12, -63589.53, -53993.54, -85645.53, 0.000, 0.000, 0.000, 16:34:16.046
54, -41429.32, 93371.41, 74205.82, 113772.25, 163395.50, 117847.69, 108672.63, 141042.44, -16975.37, -58620.22, -78241.20, 12898.16, -64066.27, -63565.21, -54020.79, -85648.59, 0.000, 0.000, 0.000, 16:34:16.046
55, -41160.89, 93373.88, 74209.82, 113770.64, 163395.50, 118009.31, 108732.96, 141070.38, -16975.37, -58620.22, -78241.20, 12898.16, -64066.27, -63565.21, -54020.79, -85648.59, 0.000, 0.000, 0.000, 16:34:16.051
56, -41160.89, 93373.88, 74209.82, 113770.64, 163395.50, 118009.31, 108732.96, 141070.38, -16975.19, -58618.23, -78242.84, 12893.87, -64075.95, -63563.17, -53953.55, -85610.66, 0.034, 0.968, -0.110, 16:34:16.061
57, -41263.69, 93375.91, 74217.87, 113770.80, 163401.19, 118182.27, 108884.28, 141227.13, -16975.19, -58618.23, -78242.84, 12893.87, -64075.95, -63563.17, -53953.55, -85610.66, 0.000, 0.000, 0.000, 16:34:16.061
58, -41263.69, 93375.91, 74217.87, 113770.80, 163401.19, 118182.27, 108884.28, 141227.13, -17006.10, -58624.69, -78241.88, 12886.83, -64087.86, -63597.80, -54047.05, -85666.84, 0.000, 0.000, 0.000, 16:34:16.068
59, -41353.95, 93361.69, 74215.12, 113760.79, 163394.28, 117785.02, 108590.02, 140961.39, -17006.10, -58624.69, -78241.88, 12886.83, -64087.86, -63597.80, -54047.05, -85666.84, 0.000, 0.000, 0.000, 16:34:16.069
60, -41353.95, 93361.69, 74215.12, 113760.79, 163394.28, 117785.02, 108590.02, 140961.39, -16843.60, -58628.80, -78242.70, 12876.01, -64091.50, -63578.02, -53982.57, -85632.77, 0.000, 0.000, 0.000, 16:34:16.074
61, -41147.19, 93339.70, 74207.27, 113743.95, 163394.44, 118251.72, 108881.38, 141208.64, -16843.60, -58628.80, -78242.70, 12876.01, -64091.50, -63578.02, -53982.57, -85632.77, 0.000, 0.000, 0.000, 16:34:16.074
62, -41147.19, 93339.70, 74207.27, 113743.95, 163394.44, 118251.72, 108881.38, 141208.64, -16863.45, -58618.83, -78243.77, 12880.75, -64100.84, -63579.36, -54000.88, -85653.47, 0.000, 0.000, 0.000, 16:34:16.083
63, -41421.94, 93365.18, 74238.12, 113771.94, 163416.44, 117896.62, 108678.88, 141039.77, -16863.45, -58618.83, -78243.77, 12880.75, -64100.84, -63579.36, -54000.88, -85653.47, 0.000, 0.000, 0.000, 16:34:16.083
64, -41421.94, 93365.18, 74238.12, 113771.94, 163416.44, 117896.62, 108678.88, 141039.77, -16698.29, -58614.45, -78235.91, 12882.56, -64082.02, -63572.07, -54022.20, -85659.70, 0.000, 0.000, 0.000, 16:34:16.091
65, -41181.70, 93346.76, 74216.13, 113747.60, 163397.17, 118038.58, 108720.09, 141046.83, -16698.29, -58614.45, -78235.91, 12882.56, -64082.02, -63572.07, -54022.20, -85659.70, 0.000, 0.000, 0.000, 16:34:16.091
66, -41181.70, 93346.76, 74216.13, 113747.60, 163397.17, 118038.58, 108720.09, 141046.83, -16570.24, -58639.13, -78268.52, 12853.35, -64110.43, -63609.22, -53976.38, -85657.47, 0.030, 0.966, -0.114, 16:34:16.098
67, -41289.37, 93338.96, 74197.30, 113727.77, 163378.89, 118198.39, 108858.34, 141199.08, -16570.24, -58639.13, -78268.52, 12853.35, -64110.43, -63609.22, -53976.38, -85657.47, 0.000, 0.000, 0.000, 16:34:16.098
68, -41289.37, 93338.96, 74197.30, 113727.77, 163378.89, 118198.39, 108858.34, 141199.08, -16477.48, -58611.64, -78256.23, 12876.68, -64111.20, -63585.57, -54059.30, -85686.55, 0.000, 0.000, 0.000, 16:34:16.107
69, -41355.11, 93383.13, 74235.35, 113770.73, 163399.19, 117809.42, 108576.59, 140942.67, -16477.48, -58611.64, -78256.23, 12876.68, -64111.20, -63585.57, -54059.30, -85686.55, 0.000, 0.000, 0.000, 16:34:16.107
70, -41355.11, 93383.13, 74235.35, 113770.73, 163399.19, 117809.42, 108576.59, 140942.67, -16118.65, -58592.77, -78235.13, 12893.54, -64071.61, -63549.07, -53972.98, -85625.24, 0.000, 0.000, 0.000, 16:34:16.112
71, -41128.13, 93375.99, 74238.37, 113772.03, 163403.09, 118306.23, 108874.83, 141219.25, -16118.65, -58592.77, -78235.13, 12893.54, -64071.61, -63549.07, -53972.98, -85625.24, 0.000, 0.000, 0.000, 16:34:16.121
72, -41128.13, 93375.99, 74238.37, 113772.03, 163403.09, 118306.23, 108874.83, 141219.25, -15975.55, -58581.44, -78224.40, 12909.25, -64074.56, -63553.41, -53984.02, -85630.98, 0.000, 0.000, 0.000, 16:34:16.121
73, -41398.78, 93390.55, 74263.13, 113789.20, 163421.63, 117975.59, 108680.68, 141060.83, -15975.55, -58581.44, -78224.40, 12909.25, -64074.56, -63553.41, -53984.02, -85630.98, 0.000, 0.000, 0.000, 16:34:16.129
74, -41398.78, 93390.55, 74263.13, 113789.20, 163421.63, 117975.59, 108680.68, 141060.83, -15682.50, -58584.43, -78210.59, 12915.62, -64069.17, -63561.99, -54010.75, -85633.80, 0.000, 0.000, 0.000, 16:34:16.129
75, -41166.30, 93368.13, 74239.30, 113763.45, 163386.83, 118116.11, 108717.45, 141054.80, -15682.50, -58584.43, -78210.59, 12915.62, -64069.17, -63561.99, -54010.75, -85633.80, 0.028, 0.968, -0.110, 16:34:16.135
76, -41166.30, 93368.13, 74239.30, 113763.45, 163386.83, 118116.11, 108717.45, 141054.80, -15465.10, -58614.39, -78245.38, 12883.52, -64098.39, -63577.50, -53977.52, -85632.70, 0.000, 0.000, 0.000, 16:34:16.135
77, -41272.63, 93374.39, 74247.38, 113763.22, 163398.75, 118267.59, 108858.18, 141197.48, -15465.10, -58614.39, -78245.38, 12883.52, -64098.39, -63577.50, -53977.52, -85632.70, 0.000, 0.000, 0.000, 16:34:16.143
78, -41272.63, 93374.39, 74247.38, 113763.22, 163398.75, 118267.59, 108858.18, 141197.48, -15312.49, -58585.46, -78227.46, 12910.99, -64074.63, -63579.02, -54031.59, -85653.18, 0.000, 0.000, 0.000, 16:34:16.143
79, -41336.64, 93383.71, 74263.60, 113780.48, 163399.27, 117880.30, 108586.98, 140935.45, -15312.49, -58585.46, -78227.46, 12910.99, -64074.63, -63579.02, -54031.59, -85653.18, 0.000, 0.000, 0.000, 16:34:16.150
80, -41336.64, 93383.71, 74263.60, 113780.48, 163399.27, 117880.30, 108586.98, 140935.45, -14926.83, -58606.96, -78244.20, 12892.44, -64075.27, -63575.38, -53966.96, -85617.33, 0.000, 0.000, 0.000, 16:34:16.150
81, -41128.88, 93363.95, 74251.76, 113771.00, 163391.31, 118330.76, 108876.62, 141174.69, -14926.83, -58606.96, -78244.20, 12892.44, -64075.27, -63575.38, -53966.96, -85617.33, 0.000, 0.000, 0.000, 16:34:16.157
82, -41128.88, 93363.95, 74251.76, 113771.00, 163391.31, 118330.76, 108876.62, 141174.69, -14818.07, -58604.53, -78249.38, 12898.05, -64084.15, -63577.88, -53983.17, -85631.38, 0.000, 0.000, 0.000, 16:34:16.158
83, -41411.86, 93378.39, 74275.02, 113786.71, 163414.41, 117952.50, 108670.58, 141009.17, -14818.07, -58604.53, -78249.38, 12898.05, -64084.15, -63577.88, -53983.17, -85631.38, 0.000, 0.000, 0.000, 16:34:16.166
84, -41411.86, 93378.39, 74275.02, 113786.71, 163414.41, 117952.50, 108670.58, 141009.17, -14539.21, -58598.89, -78235.98, 12901.90, -64063.11, -63570.57, -53999.42, -85625.28, 0.000, 0.000, 0.000, 16:34:16.166
85, -41165.59, 93353.89, 74261.55, 113773.48, 163398.06, 118090.77, 108731.20, 141032.78, -14539.21, -58598.89, -78235.98, 12901.90, -64063.11, -63570.57, -53999.42, -85625.28, 0.028, 0.968, -0.112, 16:34:16.172
86, -41165.59, 93353.89, 74261.55, 113773.48, 163398.06, 118090.77, 108731.20, 141032.78, -14385.90, -58614.03, -78259.52, 12879.75, -64072.19, -63576.47, -53947.74, -85615.49, 0.000, 0.000, 0.000, 16:34:16.180
87, -41278.15, 93343.14, 74256.52, 113758.55, 163420.23, 118237.73, 108875.92, 141183.42, -14385.90, -58614.03, -78259.52, 12879.75, -64072.19, -63576.47, -53947.74, -85615.49, 0.000, 0.000, 0.000, 16:34:16.180
88, -41278.15, 93343.14, 74256.52, 113758.55, 163420.23, 118237.73, 108875.92, 141183.42, -14330.91, -58612.31, -78261.01, 12882.05, -64075.74, -63586.42, -54030.31, -85665.88, 0.000, 0.000, 0.000, 16:34:16.188
89, -41361.79, 93345.77, 74263.89, 113761.37, 163425.84, 117831.76, 108595.81, 140920.14, -14330.91, -58612.31, -78261.01, 12882.05, -64075.74, -63586.42, -54030.31, -85665.88, 0.000, 0.000, 0.000, 16:34:16.188
90, -41361.79, 93345.77, 74263.89, 113761.37, 163425.84, 117831.76, 108595.81, 140920.14, -14015.42, -58621.02, -78268.09, 12871.14, -64081.80, -63589.75, -53978.19, -85644.35, 0.000, 0.000, 0.000, 16:34:16.195
91, -41156.31, 93327.83, 74242.37, 113742.16, 163399.06, 118289.67, 108881.06, 141172.03, -14015.42, -58621.02, -78268.09, 12871.14, -64081.80, -63589.75, -53978.19, -85644.35, 0.000, 0.000, 0.000, 16:34:16.195
92, -41156.31, 93327.83, 74242.37, 113742.16, 163399.06, 118289.67, 108881.06, 141172.03, -14004.19, -58623.24, -78281.46, 12870.74, -64086.56, -63591.52, -54015.31, -85675.46, 0.000, 0.000, 0.000, 16:34:16.203
93, -41439.35, 93327.91, 74253.14, 113751.73, 163392.44, 117930.08, 108665.64, 141005.19, -14004.19, -58623.24, -78281.46, 12870.74, -64086.56, -63591.52, -54015.31, -85675.46, 0.000, 0.000, 0.000, 16:34:16.204
94, -41439.35, 93327.91, 74253.14, 113751.73, 163392.44, 117930.08, 108665.64, 141005.19, -13771.71, -58614.12, -78260.49, 12884.82, -64080.28, -63575.51, -54045.58, -85664.09, 0.000, 0.000, 0.000, 16:34:16.211
95, -41187.58, 93327.07, 74253.97, 113757.97, 163383.13, 118084.09, 108715.26, 141001.23, -13771.71, -58614.12, -78260.49, 12884.82, -64080.28, -63575.51, -54045.58, -85664.09, 0.022, 0.966, -0.114, 16:34:16.211
96, -41187.58, 93327.07, 74253.97, 113757.97, 163383.13, 118084.09, 108715.26, 141001.23, -13618.29, -58625.52, -78265.21, 12878.52, -64077.71, -63571.89, -53990.79, -85642.43, 0.000, 0.000, 0.000, 16:34:16.218
97, -41288.16, 93339.70, 74264.18, 113761.28, 163388.27, 118242.47, 108850.04, 141145.70, -13618.29, -58625.52, -78265.21, 12878.52, -64077.71, -63571.89, -53990.79, -85642.43, 0.000, 0.000, 0.000, 16:34:16.218
98, -41288.16, 93339.70, 74264.18, 113761.28, 163388.27, 118242.47, 108850.04, 141145.70, -13621.00, -58608.57, -78239.41, 12903.82, -64070.65, -63584.45, -54053.22, -85664.91, 0.000, 0.000, 0.000, 16:34:16.225
99, -41353.54, 93349.13, 74278.45, 113776.45, 163386.66, 117860.90, 108577.22, 140897.06, -13621.00, -58608.57, -78239.41, 12903.82, -64070.65, -63584.45, -54053.22, -85664.91, 0.000, 0.000, 0.000, 16:34:16.226
100, -41353.54, 93349.13, 74278.45, 113776.45, 163386.66, 117860.90, 108577.22, 140897.06, -13337.04, -58622.50, -78240.65, 12896.78, -64069.26, -63572.18, -53990.17, -85631.88, 0.000, 0.000, 0.000, 16:34:16.234
101, -41139.05, 93344.66, 74271.96, 113776.34, 163376.06, 118311.34, 108862.54, 141150.70, -13337.04, -58622.50, -78240.65, 12896.78, -64069.26, -63572.18, -53990.17, -85631.88, 0.000, 0.000, 0.000, 16:34:16.239
102, -41139.05, 93344.66, 74271.96, 113776.34, 163376.06, 118311.34, 108862.54, 141150.70, -13406.38, -58605.13, -78236.00, 12910.39, -64071.65, -63558.50, -53996.27, -85638.70, 0.000, 0.000, 0.000, 16:34:16.239
103, -41418.68, 93357.96, 74291.30, 113794.91, 163413.94, 117953.39, 108660.86, 140991.06, -13406.38, -58605.13, -78236.00, 12910.39, -64071.65, -63558.50, -53996.27, -85638.70, 0.000, 0.000, 0.000, 16:34:16.247
104, -41418.68, 93357.96, 74291.30, 113794.91, 163413.94, 117953.39, 108660.86, 140991.06, -13276.85, -58605.04, -78221.47, 12917.47, -64066.40, -63568.36, -54004.11, -85629.17, 0.000, 0.000, 0.000, 16:34:16.247
105, -41173.03, 93337.55, 74277.62, 113783.36, 163406.52, 118091.59, 108718.75, 141009.16, -13276.85, -58605.04, -78221.47, 12917.47, -64066.40, -63568.36, -54004.11, -85629.17, 0.026, 0.972, -0.104, 16:34:16.255
106, -41173.03, 93337.55, 74277.62, 113783.36, 163406.52, 118091.59, 108718.75, 141009.16, -13195.82, -58632.16, -78248.90, 12890.23, -64064.23, -63567.31, -53946.56, -85615.25, 0.000, 0.000, 0.000, 16:34:16.255
107, -41282.22, 93330.11, 74268.01, 113777.57, 163413.13, 118265.02, 108864.03, 141167.31, -13195.82, -58632.16, -78248.90, 12890.23, -64064.23, -63567.31, -53946.56, -85615.25, 0.000, 0.000, 0.000, 16:34:16.263
108, -41282.22, 93330.11, 74268.01, 113777.57, 163413.13, 118265.02, 108864.03, 141167.31, -13284.40, -58609.34, -78234.21, 12911.02, -64068.88, -63559.22, -54015.92, -85637.76, 0.000, 0.000, 0.000, 16:34:16.264
109, -41362.04, 93344.15, 74274.53, 113794.59, 163421.05, 117880.95, 108587.03, 140921.89, -13284.40, -58609.34, -78234.21, 12911.02, -64068.88, -63559.22, -54015.92, -85637.76, 0.000, 0.000, 0.000, 16:34:16.270
110, -41362.04, 93344.15, 74274.53, 113794.59, 163421.05, 117880.95, 108587.03, 140921.89, -13021.95, -58625.70, -78247.60, 12894.36, -64066.45, -63563.80, -53956.82, -85599.87, 0.000, 0.000, 0.000, 16:34:16.271
111, -41162.82, 93299.62, 74241.36, 113766.30, 163404.05, 118350.12, 108873.42, 141178.23, -13021.95, -58625.70, -78247.60, 12894.36, -64066.45, -63563.80, -53956.82, -85599.87, 0.000, 0.000, 0.000, 16:34:16.278
112, -41162.82, 93299.62, 74241.36, 113766.30, 163404.05, 118350.12, 108873.42, 141178.23, -13155.57, -58641.39, -78272.32, 12875.39, -64096.33, -63588.74, -54001.57, -85643.50, 0.000, 0.000, 0.000, 16:34:16.278
113, -41445.39, 93297.38, 74249.52, 113764.20, 163408.84, 117979.39, 108665.21, 141017.16, -13155.57, -58641.39, -78272.32, 12875.39, -64096.33, -63588.74, -54001.57, -85643.50, 0.000, 0.000, 0.000, 16:34:16.287
114, -41445.39, 93297.38, 74249.52, 113764.20, 163408.84, 117979.39, 108665.21, 141017.16, -13025.88, -58634.97, -78258.38, 12884.71, -64077.11, -63597.04, -54031.52, -85654.84, 0.000, 0.000, 0.000, 16:34:16.287
115, -41198.36, 93275.30, 74241.20, 113757.30, 163402.94, 118123.84, 108723.06, 141032.00, -13025.88, -58634.97, -78258.38, 12884.71, -64077.11, -63597.04, -54031.52, -85654.84, 0.022, 0.970, -0.104, 16:34:16.293
116, -41198.36, 93275.30, 74241.20, 113757.30, 163402.94, 118123.84, 108723.06, 141032.00, -12950.98, -58644.36, -78271.90, 12875.23, -64084.15, -63571.31, -53989.45, -85642.18, 0.000, 0.000, 0.000, 16:34:16.293
117, -41303.54, 93280.55, 74247.80, 113757.37, 163407.31, 118260.44, 108851.77, 141161.03, -12950.98, -58644.36, -78271.90, 12875.23, -64084.15, -63571.31, -53989.45, -85642.18, 0.000, 0.000, 0.000, 16:34:16.300
118, -41303.54, 93280.55, 74247.80, 113757.37, 163407.31, 118260.44, 108851.77, 141161.03, -13058.54, -58625.67, -78254.69, 12897.43, -64074.85, -63574.06, -54060.35, -85675.89, 0.000, 0.000, 0.000, 16:34:16.308
119, -41381.14, 93292.24, 74254.84, 113764.01, 163400.95, 117847.71, 108561.84, 140889.97, -13058.54, -58625.67, -78254.69, 12897.43, -64074.85, -63574.06, -54060.35, -85675.89, 0.000, 0.000, 0.000, 16:34:16.308
120, -41381.14, 93292.24, 74254.84, 113764.01, 163400.95, 117847.71, 108561.84, 140889.97, -12791.08, -58643.51, -78257.50, 12885.91, -64072.32, -63604.03, -53997.61, -85646.05, 0.000, 0.000, 0.000, 16:34:16.315
121, -41176.05, 93282.52, 74245.05, 113760.90, 163385.91, 118308.45, 108858.47, 141141.06, -12791.08, -58643.51, -78257.50, 12885.91, -64072.32, -63604.03, -53997.61, -85646.05, 0.000, 0.000, 0.000, 16:34:16.315
122, -41176.05, 93282.52, 74245.05, 113760.90, 163385.91, 118308.45, 108858.47, 141141.06, -12954.83, -58633.41, -78265.39, 12890.25, -64111.77, -63578.64, -54016.43, -85654.32, 0.000, 0.000, 0.000, 16:34:16.323
123, -41456.18, 93299.84, 74271.31, 113785.58, 163405.17, 117938.35, 108641.27, 140974.38, -12954.83, -58633.41, -78265.39, 12890.25, -64111.77, -63578.64, -54016.43, -85654.32, 0.000, 0.000, 0.000, 16:34:16.323
124, -41456.18, 93299.84, 74271.31, 113785.58, 163405.17, 117938.35, 108641.27, 140974.38, -12828.65, -58609.87, -78231.88, 12918.50, -64049.84, -63553.34, -54017.13, -85643.50, 0.000, 0.000, 0.000, 16:34:16.330
125, -41190.11, 93301.12, 74278.09, 113792.33, 163405.34, 118079.52, 108699.23, 140988.34, -12828.65, -58609.87, -78231.88, 12918.50, -64049.84, -63553.34, -54017.13, -85643.50, 0.024, 0.966, -0.102, 16:34:16.330
126, -41190.11, 93301.12, 74278.09, 113792.33, 163405.34, 118079.52, 108699.23, 140988.34, -12766.78, -58636.76, -78254.35, 12897.34, -64065.33, -63570.26, -53958.41, -85623.88, 0.000, 0.000, 0.000, 16:34:16.338
127, -41297.30, 93288.96, 74268.23, 113780.26, 163407.88, 118259.01, 108845.44, 141138.86, -12766.78, -58636.76, -78254.35, 12897.34, -64065.33, -63570.26, -53958.41, -85623.88, 0.000, 0.000, 0.000, 16:34:16.338
128, -41297.30, 93288.96, 74268.23, 113780.26, 163407.88, 118259.01, 108845.44, 141138.86, -12910.30, -58604.26, -78229.38, 12926.97, -64056.45, -63559.30, -54021.21, -85634.76, 0.000, 0.000, 0.000, 16:34:16.346
129, -41377.57, 93311.42, 74286.40, 113803.45, 163424.42, 117871.74, 108570.22, 140885.67, -12910.30, -58604.26, -78229.38, 12926.97, -64056.45, -63559.30, -54021.21, -85634.76, 0.000, 0.000, 0.000, 16:34:16.347
130, -41377.57, 93311.42, 74286.40, 113803.45, 163424.42, 117871.74, 108570.22, 140885.67, -12684.82, -58640.74, -78267.07, 12890.83, -64089.02, -63594.20, -53972.44, -85621.44, 0.000, 0.000, 0.000, 16:34:16.354
131, -41180.34, 93277.09, 74240.16, 113770.33, 163394.84, 118321.84, 108857.84, 141148.22, -12684.82, -58640.74, -78267.07, 12890.83, -64089.02, -63594.20, -53972.44, -85621.44, 0.000, 0.000, 0.000, 16:34:16.356
132, -41180.34, 93277.09, 74240.16, 113770.33, 163394.84, 118321.84, 108857.84, 141148.22, -12899.44, -58641.48, -78272.38, 12890.94, -64090.27, -63598.11, -54001.12, -85636.28, 0.000, 0.000, 0.000, 16:34:16.362
133, -41468.32, 93280.66, 74257.77, 113783.88, 163403.89, 117950.93, 108640.78, 140987.05, -12899.44, -58641.48, -78272.38, 12890.94, -64090.27, -63598.11, -54001.12, -85636.28, 0.000, 0.000, 0.000, 16:34:16.369
134, -41468.32, 93280.66, 74257.77, 113783.88, 163403.89, 117950.93, 108640.78, 140987.05, -12901.56, -58636.11, -78270.80, 12896.38, -64086.72, -63570.17, -54021.77, -85630.06, 0.020, 0.962, -0.096, 16:34:16.369
135, -41215.12, 93264.73, 74243.89, 113781.95, 163413.91, 118103.71, 108705.90, 141016.22, -12901.56, -58636.11, -78270.80, 12896.38, -64086.72, -63570.17, -54021.77, -85630.06, 0.000, 0.000, 0.000, 16:34:16.375
136, -41215.12, 93264.73, 74243.89, 113781.95, 163413.91, 118103.71, 108705.90, 141016.22, -12981.69, -58648.18, -78292.84, 12880.93, -64095.26, -63582.20, -53969.40, -85608.63, 0.000, 0.000, 0.000, 16:34:16.376
137, -41312.10, 93271.75, 74240.53, 113778.82, 163436.27, 118283.57, 108849.33, 141176.34, -12981.69, -58648.18, -78292.84, 12880.93, -64095.26, -63582.20, -53969.40, -85608.63, 0.000, 0.000, 0.000, 16:34:16.382
138, -41312.10, 93271.75, 74240.53, 113778.82, 163436.27, 118283.57, 108849.33, 141176.34, -13261.87, -58626.43, -78277.05, 12903.17, -64075.86, -63556.65, -54042.47, -85643.12, 0.000, 0.000, 0.000, 16:34:16.383
139, -41405.87, 93279.95, 74250.93, 113779.54, 163436.95, 117866.04, 108566.48, 140920.09, -13261.87, -58626.43, -78277.05, 12903.17, -64075.86, -63556.65, -54042.47, -85643.12, 0.000, 0.000, 0.000, 16:34:16.390
140, -41405.87, 93279.95, 74250.93, 113779.54, 163436.95, 117866.04, 108566.48, 140920.09, -13241.51, -58653.73, -78303.97, 12878.65, -64096.64, -63596.54, -53997.54, -85634.23, 0.000, 0.000, 0.000, 16:34:16.391
141, -41204.66, 93247.56, 74219.10, 113754.30, 163399.19, 118332.66, 108841.16, 141168.92, -13241.51, -58653.73, -78303.97, 12878.65, -64096.64, -63596.54, -53997.54, -85634.23, 0.000, 0.000, 0.000, 16:34:16.399
142, -41204.66, 93247.56, 74219.10, 113754.30, 163399.19, 118332.66, 108841.16, 141168.92, -13565.54, -58641.01, -78307.10, 12888.22, -64103.19, -63585.19, -54025.66, -85649.31, 0.000, 0.000, 0.000, 16:34:16.400
143, -41470.24, 93277.72, 74252.45, 113788.34, 163415.25, 117960.16, 108630.93, 140993.09, -13565.54, -58641.01, -78307.10, 12888.22, -64103.19, -63585.19, -54025.66, -85649.31, 0.000, 0.000, 0.000, 16:34:16.406
144, -41470.24, 93277.72, 74252.45, 113788.34, 163415.25, 117960.16, 108630.93, 140993.09, -13620.08, -58640.89, -78302.49, 12892.06, -64096.31, -63584.30, -54044.62, -85651.68, 0.014, 0.966, -0.094, 16:34:16.406
145, -41230.90, 93254.27, 74235.35, 113766.98, 163391.22, 118065.09, 108680.95, 140999.42, -13620.08, -58640.89, -78302.49, 12892.06, -64096.31, -63584.30, -54044.62, -85651.68, 0.000, 0.000, 0.000, 16:34:16.413
146, -41230.90, 93254.27, 74235.35, 113766.98, 163391.22, 118065.09, 108680.95, 140999.42, -13686.38, -58653.46, -78313.55, 12876.97, -64104.84, -63592.16, -53982.55, -85640.86, 0.000, 0.000, 0.000, 16:34:16.413
147, -41320.46, 93285.16, 74265.99, 113775.90, 163415.41, 118198.79, 108832.27, 141156.22, -13686.38, -58653.46, -78313.55, 12876.97, -64104.84, -63592.16, -53982.55, -85640.86, 0.000, 0.000, 0.000, 16:34:16.420
148, -41320.46, 93285.16, 74265.99, 113775.90, 163415.41, 118198.79, 108832.27, 141156.22, -13890.60, -58630.55, -78282.67, 12905.47, -64083.39, -63584.96, -54034.91, -85662.72, 0.000, 0.000, 0.000, 16:34:16.428
149, -41408.28, 93291.59, 74267.83, 113779.07, 163410.84, 117770.78, 108551.94, 140897.09, -13890.60, -58630.55, -78282.67, 12905.47, -64083.39, -63584.96, -54034.91, -85662.72, 0.000, 0.000, 0.000, 16:34:16.428
150, -41408.28, 93291.59, 74267.83, 113779.07, 163410.84, 117770.78, 108551.94, 140897.09, -13869.68, -58644.16, -78296.86, 12891.08, -64090.29, -63588.18, -53979.48, -85640.51, 0.000, 0.000, 0.000, 16:34:16.435
151, -41208.08, 93269.76, 74245.32, 113762.48, 163393.86, 118199.51, 108826.75, 141138.25, -13869.68, -58644.16, -78296.86, 12891.08, -64090.29, -63588.18, -53979.48, -85640.51, 0.000, 0.000, 0.000, 16:34:16.435
152, -41208.08, 93269.76, 74245.32, 113762.48, 163393.86, 118199.51, 108826.75, 141138.25, -14175.68, -58648.43, -78317.07, 12885.58, -64118.91, -63591.70, -54013.17, -85666.74, 0.000, 0.000, 0.000, 16:34:16.443
153, -41484.05, 93277.60, 74262.73, 113784.13, 163410.27, 117846.55, 108622.91, 140978.30, -14175.68, -58648.43, -78317.07, 12885.58, -64118.91, -63591.70, -54013.17, -85666.74, 0.000, 0.000, 0.000, 16:34:16.443
154, -41484.05, 93277.60, 74262.73, 113784.13, 163410.27, 117846.55, 108622.91, 140978.30, -14253.46, -58642.59, -78295.59, 12902.12, -64099.77, -63577.03, -54021.57, -85643.01, 0.014, 0.964, -0.086, 16:34:16.450
155, -41237.27, 93269.98, 74247.02, 113778.58, 163405.89, 117995.81, 108679.12, 140986.03, -14253.46, -58642.59, -78295.59, 12902.12, -64099.77, -63577.03, -54021.57, -85643.01, 0.000, 0.000, 0.000, 16:34:16.450
156, -41237.27, 93269.98, 74247.02, 113778.58, 163405.89, 117995.81, 108679.12, 140986.03, -14365.69, -58656.30, -78312.91, 12886.12, -64081.27, -63591.45, -53971.28, -85624.39, 0.000, 0.000, 0.000, 16:34:16.458
157, -41335.71, 93268.95, 74242.61, 113769.57, 163410.53, 118151.43, 108817.59, 141153.77, -14365.69, -58656.30, -78312.91, 12886.12, -64081.27, -63591.45, -53971.28, -85624.39, 0.000, 0.000, 0.000, 16:34:16.458
158, -41335.71, 93268.95, 74242.61, 113769.57, 163410.53, 118151.43, 108817.59, 141153.77, -14637.96, -58655.38, -78313.38, 12890.07, -64114.03, -63612.08, -54045.46, -85666.66, 0.000, 0.000, 0.000, 16:34:16.465
159, -41434.57, 93281.09, 74255.64, 113780.73, 163433.98, 117737.56, 108534.59, 140895.95, -14637.96, -58655.38, -78313.38, 12890.07, -64114.03, -63612.08, -54045.46, -85666.66, 0.000, 0.000, 0.000, 16:34:16.465
160, -41434.57, 93281.09, 74255.64, 113780.73, 163433.98, 117737.56, 108534.59, 140895.95, -14641.44, -58657.14, -78311.86, 12885.36, -64097.89, -63580.70, -53976.53, -85625.71, 0.000, 0.000, 0.000, 16:34:16.473
161, -41214.45, 93264.93, 74243.80, 113772.25, 163433.84, 118204.18, 108819.84, 141139.13, -14641.44, -58657.14, -78311.86, 12885.36, -64097.89, -63580.70, -53976.53, -85625.71, 0.000, 0.000, 0.000, 16:34:16.473
162, -41214.45, 93264.93, 74243.80, 113772.25, 163433.84, 118204.18, 108819.84, 141139.13, -14929.87, -58658.91, -78328.65, 12877.76, -64109.90, -63572.43, -54010.02, -85650.97, 0.000, 0.000, 0.000, 16:34:16.480
163, -41492.50, 93282.66, 74250.66, 113783.52, 163435.88, 117844.98, 108608.04, 140992.42, -14929.87, -58658.91, -78328.65, 12877.76, -64109.90, -63572.43, -54010.02, -85650.97, 0.000, 0.000, 0.000, 16:34:16.488
164, -41492.50, 93282.66, 74250.66, 113783.52, 163435.88, 117844.98, 108608.04, 140992.42, -14996.48, -58642.84, -78302.54, 12893.27, -64092.20, -63574.39, -54046.32, -85655.52, 0.020, 0.964, -0.084, 16:34:16.488
165, -41249.83, 93273.11, 74241.14, 113779.43, 163411.94, 117964.59, 108643.47, 140987.61, -14996.48, -58642.84, -78302.54, 12893.27, -64092.20, -63574.39, -54046.32, -85655.52, 0.000, 0.000, 0.000, 16:34:16.495
166, -41249.83, 93273.11, 74241.14, 113779.43, 163411.94, 117964.59, 108643.47, 140987.61, -15123.79, -58667.25, -78325.16, 12872.26, -64117.25, -63589.70, -54007.24, -85639.99, 0.000, 0.000, 0.000, 16:34:16.495
167, -41339.64, 93275.97, 74233.52, 113775.65, 163392.66, 118146.63, 108793.63, 141154.08, -15123.79, -58667.25, -78325.16, 12872.26, -64117.25, -63589.70, -54007.24, -85639.99, 0.000, 0.000, 0.000, 16:34:16.503
168, -41339.64, 93275.97, 74233.52, 113775.65, 163392.66, 118146.63, 108793.63, 141154.08, -15300.17, -58649.77, -78304.23, 12896.49, -64116.87, -63606.54, -54073.05, -85663.08, 0.000, 0.000, 0.000, 16:34:16.504
169, -41423.05, 93297.72, 74260.30, 113797.48, 163408.03, 117741.79, 108514.32, 140902.89, -15300.17, -58649.77, -78304.23, 12896.49, -64116.87, -63606.54, -54073.05, -85663.08, 0.000, 0.000, 0.000, 16:34:16.510
170, -41423.05, 93297.72, 74260.30, 113797.48, 163408.03, 117741.79, 108514.32, 140902.89, -15198.27, -58644.56, -78290.45, 12896.98, -64086.14, -63560.38, -53999.51, -85621.26, 0.000, 0.000, 0.000, 16:34:16.511
171, -41211.92, 93269.29, 74248.91, 113783.95, 163398.08, 118183.34, 108791.05, 141136.38, -15198.27, -58644.56, -78290.45, 12896.98, -64086.14, -63560.38, -53999.51, -85621.26, 0.000, 0.000, 0.000, 16:34:16.517
172, -41211.92, 93269.29, 74248.91, 113783.95, 163398.08, 118183.34, 108791.05, 141136.38, -15368.72, -58658.39, -78301.00, 12886.76, -64100.87, -63584.88, -54024.54, -85646.85, 0.000, 0.000, 0.000, 16:34:16.518
173, -41496.32, 93279.95, 74261.57, 113789.28, 163413.31, 117819.41, 108591.95, 140983.25, -15368.72, -58658.39, -78301.00, 12886.76, -64100.87, -63584.88, -54024.54, -85646.85, 0.000, 0.000, 0.000, 16:34:16.525
174, -41496.32, 93279.95, 74261.57, 113789.28, 163413.31, 117819.41, 108591.95, 140983.25, -15316.60, -58657.30, -78280.10, 12895.10, -64086.67, -63596.75, -54038.92, -85649.47, 0.018, 0.966, -0.084, 16:34:16.525
175, -41251.73, 93265.02, 74254.08, 113786.91, 163398.28, 117939.65, 108638.05, 140983.91, -15316.60, -58657.30, -78280.10, 12895.10, -64086.67, -63596.75, -54038.92, -85649.47, 0.000, 0.000, 0.000, 16:34:16.534
176, -41251.73, 93265.02, 74254.08, 113786.91, 163398.28, 117939.65, 108638.05, 140983.91, -15278.18, -58661.77, -78290.40, 12882.34, -64103.66, -63581.23, -53978.25, -85624.55, 0.000, 0.000, 0.000, 16:34:16.534
177, -41329.83, 93270.95, 74263.80, 113790.83, 163404.59, 118112.83, 108785.16, 141139.11, -15278.18, -58661.77, -78290.40, 12882.34, -64103.66, -63581.23, -53978.25, -85624.55, 0.000, 0.000, 0.000, 16:34:16.541
178, -41329.83, 93270.95, 74263.80, 113790.83, 163404.59, 118112.83, 108785.16, 141139.11, -15288.57, -58638.30, -78259.60, 12911.31, -64086.50, -63584.79, -54040.10, -85640.46, 0.000, 0.000, 0.000, 16:34:16.541
179, -41422.21, 93286.03, 74278.66, 113810.27, 163411.00, 117717.60, 108508.10, 140873.61, -15288.57, -58638.30, -78259.60, 12911.31, -64086.50, -63584.79, -54040.10, -85640.46, 0.000, 0.000, 0.000, 16:34:16.547
180, -41422.21, 93286.03, 74278.66, 113810.27, 163411.00, 117717.60, 108508.10, 140873.61, -15002.85, -58660.65, -78265.99, 12893.00, -64098.03, -63572.07, -53972.75, -85608.38, 0.000, 0.000, 0.000, 16:34:16.556
181, -41204.88, 93257.76, 74257.59, 113788.21, 163408.45, 118175.63, 108795.57, 141138.50, -15002.85, -58660.65, -78265.99, 12893.00, -64098.03, -63572.07, -53972.75, -85608.38, 0.000, 0.000, 0.000, 16:34:16.556
182, -41204.88, 93257.76, 74257.59, 113788.21, 163408.45, 118175.63, 108795.57, 141138.50, -14953.09, -58677.30, -78292.64, 12870.74, -64109.32, -63605.42, -54011.80, -85649.34, 0.000, 0.000, 0.000, 16:34:16.563
183, -41491.92, 93269.91, 74265.32, 113791.48, 163415.05, 117816.06, 108587.07, 140984.19, -14953.09, -58677.30, -78292.64, 12870.74, -64109.32, -63605.42, -54011.80, -85649.34, 0.020, 0.966, -0.080, 16:34:16.563
184, -41491.92, 93269.91, 74265.32, 113791.48, 163415.05, 117816.06, 108587.07, 140984.19, -14614.78, -58649.12, -78259.04, 12897.54, -64088.20, -63594.31, -54024.12, -85639.19, 0.000, 0.000, 0.000, 16:34:16.570
185, -41239.86, 93263.39, 74249.74, 113773.70, 163403.94, 117948.99, 108634.13, 140999.38, -14614.78, -58649.12, -78259.04, 12897.54, -64088.20, -63594.31, -54024.12, -85639.19, 0.000, 0.000, 0.000, 16:34:16.571
186, -41239.86, 93263.39, 74249.74, 113773.70, 163403.94, 117948.99, 108634.13, 140999.38, -14346.89, -58694.63, -78298.72, 12851.18, -64115.84, -63613.64, -54006.30, -85659.88, 0.000, 0.000, 0.000, 16:34:16.578
187, -41351.46, 93255.56, 74240.45, 113751.82, 163393.03, 118100.63, 108750.24, 141138.83, -14346.89, -58694.63, -78298.72, 12851.18, -64115.84, -63613.64, -54006.30, -85659.88, 0.000, 0.000, 0.000, 16:34:16.578
188, -41351.46, 93255.56, 74240.45, 113751.82, 163393.03, 118100.63, 108750.24, 141138.83, -14172.41, -58669.71, -78266.64, 12878.78, -64109.56, -63607.90, -54087.58, -85695.00, 0.000, 0.000, 0.000, 16:34:16.586
189, -41427.30, 93281.36, 74270.40, 113779.02, 163401.34, 117714.63, 108471.09, 140877.28, -14172.41, -58669.71, -78266.64, 12878.78, -64109.56, -63607.90, -54087.58, -85695.00, 0.000, 0.000, 0.000, 16:34:16.587
190, -41427.30, 93281.36, 74270.40, 113779.02, 163401.34, 117714.63, 108471.09, 140877.28, -13737.72, -58670.73, -78252.67, 12880.77, -64101.49, -63611.39, -54016.88, -85654.32, 0.000, 0.000, 0.000, 16:34:16.594
191, -41207.07, 93267.19, 74260.12, 113768.43, 163381.97, 118182.37, 108750.46, 141119.75, -13737.72, -58670.73, -78252.67, 12880.77, -64101.49, -63611.39, -54016.88, -85654.32, 0.000, 0.000, 0.000, 16:34:16.595
192, -41207.07, 93267.19, 74260.12, 113768.43, 163381.97, 118182.37, 108750.46, 141119.75, -13649.47, -58653.25, -78242.21, 12898.54, -64098.88, -63600.70, -54029.62, -85659.62, 0.000, 0.000, 0.000, 16:34:16.600
193, -41474.69, 93292.91, 74279.56, 113793.27, 163394.84, 117834.91, 108545.86, 140973.94, -13649.47, -58653.25, -78242.21, 12898.54, -64098.88, -63600.70, -54029.62, -85659.62, 0.024, 0.968, -0.088, 16:34:16.601
194, -41474.69, 93292.91, 74279.56, 113793.27, 163394.84, 117834.91, 108545.86, 140973.94, -13353.20, -58661.59, -78243.17, 12894.43, -64102.30, -63590.22, -54061.40, -85668.16, 0.000, 0.000, 0.000, 16:34:16.607
195, -41236.71, 93280.73, 74265.03, 113786.31, 163375.33, 117962.67, 108590.02, 140964.42, -13353.20, -58661.59, -78243.17, 12894.43, -64102.30, -63590.22, -54061.40, -85668.16, 0.000, 0.000, 0.000, 16:34:16.615
196, -41236.71, 93280.73, 74265.03, 113786.31, 163375.33, 117962.67, 108590.02, 140964.42, -13118.13, -58672.48, -78257.92, 12882.43, -64092.38, -63592.72, -53999.80, -85647.48, 0.000, 0.000, 0.000, 16:34:16.616
197, -41328.42, 93258.76, 74268.05, 113785.82, 163394.58, 118137.75, 108738.04, 141119.19, -13118.13, -58672.48, -78257.92, 12882.43, -64092.38, -63592.72, -53999.80, -85647.48, 0.000, 0.000, 0.000, 16:34:16.623
198, -41328.42, 93258.76, 74268.05, 113785.82, 163394.58, 118137.75, 108738.04, 141119.19, -13077.76, -58655.65, -78248.45, 12896.40, -64092.33, -63599.52, -54066.57, -85681.54, 0.000, 0.000, 0.000, 16:34:16.623
199, -41428.51, 93253.20, 74271.13, 113787.63, 163394.64, 117722.66, 108451.20, 140856.31, -13077.76, -58655.65, -78248.45, 12896.40, -64092.33, -63599.52, -54066.57, -85681.54, 0.000, 0.000, 0.000, 16:34:16.630
200, -41428.51, 93253.20, 74271.13, 113787.63, 163394.64, 117722.66, 108451.20, 140856.31, -12755.74, -58683.56, -78269.16, 12868.97, -64102.88, -63613.66, -54004.61, -85655.91, 0.000, 0.000, 0.000, 16:34:16.630
201, -41211.90, 93230.15, 74238.41, 113765.57, 163387.53, 118188.31, 108737.66, 141098.41, -12755.74, -58683.56, -78269.16, 12868.97, -64102.88, -63613.66, -54004.61, -85655.91, 0.000, 0.000, 0.000, 16:34:16.638
202, -41211.90, 93230.15, 74238.41, 113765.57, 163387.53, 118188.31, 108737.66, 141098.41, -12802.48, -58677.93, -78278.55, 12872.39, -64122.28, -63597.42, -54022.31, -85668.66, 0.000, 0.000, 0.000, 16:34:16.638
203, -41496.19, 93260.70, 74256.56, 113785.82, 163412.39, 117844.41, 108545.99, 140953.63, -12802.48, -58677.93, -78278.55, 12872.39, -64122.28, -63597.42, -54022.31, -85668.66, 0.020, 0.966, -0.090, 16:34:16.646
204, -41496.19, 93260.70, 74256.56, 113785.82, 163412.39, 117844.41, 108545.99, 140953.63, -12608.80, -58662.53, -78251.66, 12892.13, -64092.93, -63590.33, -54034.98, -85659.73, 0.000, 0.000, 0.000, 16:34:16.647
205, -41254.70, 93261.76, 74254.23, 113790.23, 163408.41, 117962.35, 108603.01, 140982.17, -12608.80, -58662.53, -78251.66, 12892.13, -64092.93, -63590.33, -54034.98, -85659.73, 0.000, 0.000, 0.000, 16:34:16.654
206, -41254.70, 93261.76, 74254.23, 113790.23, 163408.41, 117962.35, 108603.01, 140982.17, -12480.97, -58684.30, -78276.45, 12869.35, -64119.87, -63594.89, -53980.15, -85636.73, 0.000, 0.000, 0.000, 16:34:16.654
207, -41338.77, 93244.26, 74243.55, 113772.99, 163414.47, 118160.44, 108758.40, 141144.17, -12480.97, -58684.30, -78276.45, 12869.35, -64119.87, -63594.89, -53980.15, -85636.73, 0.000, 0.000, 0.000, 16:34:16.661
208, -41338.77, 93244.26, 74243.55, 113772.99, 163414.47, 118160.44, 108758.40, 141144.17, -12532.49, -58677.30, -78266.77, 12876.64, -64121.12, -63610.18, -54050.41, -85669.23, 0.000, 0.000, 0.000, 16:34:16.661
209, -41431.35, 93249.62, 74254.44, 113777.05, 163439.42, 117759.31, 108472.72, 140878.25, -12532.49, -58677.30, -78266.77, 12876.64, -64121.12, -63610.18, -54050.41, -85669.23, 0.000, 0.000, 0.000, 16:34:16.668
210, -41431.35, 93249.62, 74254.44, 113777.05, 163439.42, 117759.31, 108472.72, 140878.25, -12233.58, -58696.91, -78271.27, 12860.48, -64116.36, -63612.01, -54000.38, -85654.77, 0.000, 0.000, 0.000, 16:34:16.676
211, -41216.84, 93230.04, 74231.80, 113754.41, 163416.53, 118208.34, 108750.98, 141125.02, -12233.58, -58696.91, -78271.27, 12860.48, -64116.36, -63612.01, -54000.38, -85654.77, 0.000, 0.000, 0.000, 16:34:16.676
212, -41216.84, 93230.04, 74231.80, 113754.41, 163416.53, 118208.34, 108750.98, 141125.02, -12330.29, -58683.34, -78273.03, 12866.16, -64123.78, -63609.57, -54030.82, -85675.58, 0.000, 0.000, 0.000, 16:34:16.683
213, -41487.32, 93262.34, 74256.59, 113777.28, 163416.75, 117861.37, 108551.84, 140981.77, -12330.29, -58683.34, -78273.03, 12866.16, -64123.78, -63609.57, -54030.82, -85675.58, 0.016, 0.966, -0.090, 16:34:16.683
214, -41487.32, 93262.34, 74256.59, 113777.28, 163416.75, 117861.37, 108551.84, 140981.77, -12190.33, -58644.40, -78237.54, 12898.25, -64099.79, -63530.56, -54053.27, -85671.26, 0.000, 0.000, 0.000, 16:34:16.690
215, -41237.80, 93256.23, 74248.23, 113773.10, 163389.56, 117989.02, 108587.95, 140982.27, -12190.33, -58644.40, -78237.54, 12898.25, -64099.79, -63530.56, -54053.27, -85671.26, 0.000, 0.000, 0.000, 16:34:16.690
216, -41237.80, 93256.23, 74248.23, 113773.10, 163389.56, 117989.02, 108587.95, 140982.27, -12105.88, -58681.57, -78270.15, 12874.87, -64129.43, -63632.38, -54016.07, -85660.33, 0.000, 0.000, 0.000, 16:34:16.698
217, -41332.02, 93243.23, 74243.15, 113777.13, 163381.30, 118158.56, 108717.16, 141124.53, -12105.88, -58681.57, -78270.15, 12874.87, -64129.43, -63632.38, -54016.07, -85660.33, 0.000, 0.000, 0.000, 16:34:16.698
218, -41332.02, 93243.23, 74243.15, 113777.13, 163381.30, 118158.56, 108717.16, 141124.53, -12217.64, -58670.76, -78249.16, 12896.49, -64111.95, -63608.84, -54076.63, -85682.23, 0.000, 0.000, 0.000, 16:34:16.706
219, -41415.79, 93256.50, 74257.92, 113793.27, 163395.61, 117750.33, 108435.53, 140873.88, -12217.64, -58670.76, -78249.16, 12896.49, -64111.95, -63608.84, -54076.63, -85682.23, 0.000, 0.000, 0.000, 16:34:16.707
220, -41415.79, 93256.50, 74257.92, 113793.27, 163395.61, 117750.33, 108435.53, 140873.88, -11957.69, -58678.04, -78256.80, 12884.64, -64117.92, -63606.02, -54013.95, -85658.50, 0.000, 0.000, 0.000, 16:34:16.713
221, -41196.43, 93230.53, 74233.70, 113771.96, 163389.28, 118228.59, 108721.74, 141129.53, -11957.69, -58678.04, -78256.80, 12884.64, -64117.92, -63606.02, -54013.95, -85658.50, 0.000, 0.000, 0.000, 16:34:16.714
222, -41196.43, 93230.53, 74233.70, 113771.96, 163389.28, 118228.59, 108721.74, 141129.53, -12113.15, -58684.75, -78266.02, 12881.42, -64126.64, -63606.22, -54032.52, -85673.79, 0.000, 0.000, 0.000, 16:34:16.722
223, -41477.06, 93259.63, 74268.23, 113803.45, 163411.77, 117886.96, 108527.70, 140969.91, -12113.15, -58684.75, -78266.02, 12881.42, -64126.64, -63606.22, -54032.52, -85673.79, 0.020, 0.964, -0.082, 16:34:16.722
224, -41477.06, 93259.63, 74268.23, 113803.45, 163411.77, 117886.96, 108527.70, 140969.91, -12011.63, -58658.29, -78229.80, 12910.17, -64097.00, -63577.90, -54038.58, -85657.18, 0.000, 0.000, 0.000, 16:34:16.729
225, -41232.08, 93250.00, 74258.55, 113797.11, 163402.53, 118017.99, 108573.57, 140964.06, -12011.63, -58658.29, -78229.80, 12910.17, -64097.00, -63577.90, -54038.58, -85657.18, 0.000, 0.000, 0.000, 16:34:16.736
226, -41232.08, 93250.00, 74258.55, 113797.11, 163402.53, 118017.99, 108573.57, 140964.06, -11952.15, -58686.74, -78268.32, 12875.45, -64132.18, -63578.89, -53990.57, -85648.64, 0.000, 0.000, 0.000, 16:34:16.736
227, -41320.89, 93242.02, 74245.32, 113790.09, 163412.44, 118212.94, 108737.30, 141139.17, -11952.15, -58686.74, -78268.32, 12875.45, -64132.18, -63578.89, -53990.57, -85648.64, 0.000, 0.000, 0.000, 16:34:16.743
228, -41320.89, 93242.02, 74245.32, 113790.09, 163412.44, 118212.94, 108737.30, 141139.17, -12114.69, -58670.69, -78257.03, 12892.04, -64129.93, -63594.55, -54057.76, -85672.09, 0.000, 0.000, 0.000, 16:34:16.743
229, -41421.94, 93250.31, 74245.63, 113788.73, 163425.22, 117806.05, 108455.87, 140882.69, -12114.69, -58670.69, -78257.03, 12892.04, -64129.93, -63594.55, -54057.76, -85672.09, 0.000, 0.000, 0.000, 16:34:16.751
230, -41421.94, 93250.31, 74245.63, 113788.73, 163425.22, 117806.05, 108455.87, 140882.69, -11856.86, -58698.63, -78277.39, 12862.69, -64128.32, -63607.39, -54002.39, -85657.96, 0.000, 0.000, 0.000, 16:34:16.751
231, -41206.82, 93229.34, 74226.38, 113774.55, 163416.09, 118272.11, 108744.52, 141136.91, -11856.86, -58698.63, -78277.39, 12862.69, -64128.32, -63607.39, -54002.39, -85657.96, 0.000, 0.000, 0.000, 16:34:16.758
232, -41206.82, 93229.34, 74226.38, 113774.55, 163416.09, 118272.11, 108744.52, 141136.91, -12026.00, -58685.46, -78276.88, 12869.84, -64141.55, -63596.95, -54023.47, -85667.30, 0.000, 0.000, 0.000, 16:34:16.758
233, -41498.67, 93242.66, 74247.11, 113785.38, 163441.56, 117901.70, 108538.28, 140977.36, -12026.00, -58685.46, -78276.88, 12869.84, -64141.55, -63596.95, -54023.47, -85667.30, 0.020, 0.962, -0.090, 16:34:16.765
234, -41498.67, 93242.66, 74247.11, 113785.38, 163441.56, 117901.70, 108538.28, 140977.36, -11935.32, -58680.01, -78267.20, 12877.62, -64112.58, -63613.38, -54053.40, -85675.15, 0.000, 0.000, 0.000, 16:34:16.765
235, -41249.11, 93235.90, 74238.32, 113769.84, 163416.28, 118030.10, 108579.67, 140982.42, -11935.32, -58680.01, -78267.20, 12877.62, -64112.58, -63613.38, -54053.40, -85675.15, 0.000, 0.000, 0.000, 16:34:16.773
236, -41249.11, 93235.90, 74238.32, 113769.84, 163416.28, 118030.10, 108579.67, 140982.42, -11858.74, -58696.19, -78268.54, 12862.36, -64125.25, -63621.98, -54004.81, -85658.27, 0.000, 0.000, 0.000, 16:34:16.773
237, -41345.68, 93249.10, 74243.35, 113768.59, 163416.14, 118215.04, 108727.06, 141134.08, -11858.74, -58696.19, -78268.54, 12862.36, -64125.25, -63621.98, -54004.81, -85658.27, 0.000, 0.000, 0.000, 16:34:16.781
238, -41345.68, 93249.10, 74243.35, 113768.59, 163416.14, 118215.04, 108727.06, 141134.08, -12046.36, -58676.95, -78264.66, 12879.57, -64137.32, -63601.73, -54079.33, -85693.16, 0.000, 0.000, 0.000, 16:34:16.781
239, -41429.85, 93240.84, 74250.77, 113784.57, 163411.11, 117797.82, 108444.02, 140874.39, -12046.36, -58676.95, -78264.66, 12879.57, -64137.32, -63601.73, -54079.33, -85693.16, 0.000, 0.000, 0.000, 16:34:16.788
240, -41429.85, 93240.84, 74250.77, 113784.57, 163411.11, 117797.82, 108444.02, 140874.39, -11861.22, -58684.30, -78275.56, 12871.88, -64131.20, -63602.22, -54020.41, -85661.63, 0.000, 0.000, 0.000, 16:34:16.788
241, -41222.27, 93227.91, 74245.83, 113780.66, 163389.55, 118236.43, 108711.73, 141106.69, -11861.22, -58684.30, -78275.56, 12871.88, -64131.20, -63602.22, -54020.41, -85661.63, 0.000, 0.000, 0.000, 16:34:16.796
242, -41222.27, 93227.91, 74245.83, 113780.66, 163389.55, 118236.43, 108711.73, 141106.69, -12132.15, -58682.38, -78286.53, 12872.95, -64141.77, -63610.49, -54033.64, -85670.95, 0.018, 0.968, -0.090, 16:34:16.804
243, -41503.50, 93238.33, 74260.72, 113787.02, 163418.81, 117889.27, 108511.77, 140953.45, -12132.15, -58682.38, -78286.53, 12872.95, -64141.77, -63610.49, -54033.64, -85670.95, 0.000, 0.000, 0.000, 16:34:16.804
244, -41503.50, 93238.33, 74260.72, 113787.02, 163418.81, 117889.27, 108511.77, 140953.45, -12198.53, -58671.36, -78277.93, 12882.11, -64125.63, -63616.10, -54050.11, -85669.96, 0.000, 0.000, 0.000, 16:34:16.811
245, -41254.81, 93218.57, 74258.88, 113783.59, 163401.70, 118011.35, 108561.28, 140954.00, -12198.53, -58671.36, -78277.93, 12882.11, -64125.63, -63616.10, -54050.11, -85669.96, 0.000, 0.000, 0.000, 16:34:16.811
246, -41254.81, 93218.57, 74258.88, 113783.59, 163401.70, 118011.35, 108561.28, 140954.00, -12274.28, -58690.02, -78302.31, 12861.39, -64141.28, -63635.91, -53994.88, -85653.31, 0.000, 0.000, 0.000, 16:34:16.819
247, -41341.45, 93222.55, 74260.34, 113782.09, 163396.00, 118200.06, 108723.58, 141126.45, -12274.28, -58690.02, -78302.31, 12861.39, -64141.28, -63635.91, -53994.88, -85653.31, 0.000, 0.000, 0.000, 16:34:16.819
248, -41341.45, 93222.55, 74260.34, 113782.09, 163396.00, 118200.06, 108723.58, 141126.45, -12590.56, -58677.77, -78320.69, 12873.64, -64166.69, -63594.31, -54072.67, -85688.92, 0.000, 0.000, 0.000, 16:34:16.826
249, -41445.59, 93228.90, 74257.34, 113786.96, 163388.27, 117767.29, 108430.74, 140863.80, -12590.56, -58677.77, -78320.69, 12873.64, -64166.69, -63594.31, -54072.67, -85688.92, 0.000, 0.000, 0.000, 16:34:16.826
250, -41445.59, 93228.90, 74257.34, 113786.96, 163388.27, 117767.29, 108430.74, 140863.80, -12421.51, -58695.52, -78305.83, 12861.75, -64134.86, -63604.75, -54014.00, -85656.42, 0.000, 0.000, 0.000, 16:34:16.835
251, -41214.49, 93216.27, 74257.21, 113780.23, 163390.84, 118225.79, 108726.03, 141118.38, -12421.51, -58695.52, -78305.83, 12861.75, -64134.86, -63604.75, -54014.00, -85656.42, 0.000, 0.000, 0.000, 16:34:16.836
252, -41214.49, 93216.27, 74257.21, 113780.23, 163390.84, 118225.79, 108726.03, 141118.38, -12771.58, -58687.72, -78336.91, 12862.15, -64161.42, -63612.88, -54032.28, -85666.73, 0.020, 0.966, -0.094, 16:34:16.842
253, -41495.66, 93239.13, 74283.43, 113799.09, 163418.41, 117856.88, 108526.59, 140953.89, -12771.58, -58687.72, -78336.91, 12862.15, -64161.42, -63612.88, -54032.28, -85666.73, 0.000, 0.000, 0.000, 16:34:16.842
254, -41495.66, 93239.13, 74283.43, 113799.09, 163418.41, 117856.88, 108526.59, 140953.89, -12959.14, -58671.20, -78300.30, 12886.56, -64118.52, -63607.12, -54042.87, -85656.66, 0.000, 0.000, 0.000, 16:34:16.849
255, -41245.18, 93236.41, 74266.62, 113791.03, 163411.88, 117978.60, 108576.27, 140960.33, -12959.14, -58671.20, -78300.30, 12886.56, -64118.52, -63607.12, -54042.87, -85656.66, 0.000, 0.000, 0.000, 16:34:16.849
0, -41245.18, 93236.41, 74266.62, 113791.03, 163411.88, 117978.60, 108576.27, 140960.33, -13279.86, -58697.15, -78340.41, 12857.53, -64158.11, -63622.94, -53997.86, -85651.32, 0.000, 0.000, 0.000, 16:34:16.855
1, -41341.58, 93233.86, 74245.34, 113774.64, 163409.70, 118160.05, 108734.26, 141132.28, -13279.86, -58697.15, -78340.41, 12857.53, -64158.11, -63622.94, -53997.86, -85651.32, 0.000, 0.000, 0.000, 16:34:16.863
2, -41341.58, 93233.86, 74245.34, 113774.64, 163409.70, 118160.05, 108734.26, 141132.28, -13764.36, -58678.71, -78333.09, 12879.61, -64148.05, -63596.03, -54068.49, -85682.30, 0.000, 0.000, 0.000, 16:34:16.863
3, -41440.40, 93238.13, 74255.55, 113794.78, 163426.98, 117742.98, 108447.27, 140868.53, -13764.36, -58678.71, -78333.09, 12879.61, -64148.05, -63596.03, -54068.49, -85682.30, 0.000, 0.000, 0.000, 16:34:16.871
4, -41440.40, 93238.13, 74255.55, 113794.78, 163426.98, 117742.98, 108447.27, 140868.53, -13830.72, -58695.34, -78339.48, 12866.94, -64146.24, -63588.66, -54012.43, -85657.31, 0.000, 0.000, 0.000, 16:34:16.872
5, -41219.99, 93217.99, 74237.72, 113779.83, 163416.02, 118174.63, 108720.87, 141101.23, -13830.72, -58695.34, -78339.48, 12866.94, -64146.24, -63588.66, -54012.43, -85657.31, 0.000, 0.000, 0.000, 16:34:16.878
6, -41219.99, 93217.99, 74237.72, 113779.83, 163416.02, 118174.63, 108720.87, 141101.23, -14192.60, -58699.75, -78350.55, 12867.45, -64151.83, -63622.41, -54036.26, -85675.84, 0.024, 0.962, -0.094, 16:34:16.879
7, -41500.01, 93232.23, 74253.68, 113796.26, 163426.86, 117825.36, 108517.56, 140942.19, -14192.60, -58699.75, -78350.55, 12867.45, -64151.83, -63622.41, -54036.26, -85675.84, 0.000, 0.000, 0.000, 16:34:16.886
8, -41500.01, 93232.23, 74253.68, 113796.26, 163426.86, 117825.36, 108517.56, 140942.19, -14328.34, -58700.37, -78349.27, 12871.54, -64171.54, -63611.97, -54071.84, -85676.29, 0.000, 0.000, 0.000, 16:34:16.886
9, -41276.99, 93205.72, 74193.10, 113773.98, 163368.78, 117922.39, 108534.73, 140909.50, -14328.34, -58700.37, -78349.27, 12871.54, -64171.54, -63611.97, -54071.84, -85676.29, 0.000, 0.000, 0.000, 16:34:16.894
10, -41276.99, 93205.72, 74193.10, 113773.98, 163368.78, 117922.39, 108534.73, 140909.50, -14463.84, -58723.75, -78393.55, 12842.37, -64120.63, -63611.32, -54040.77, -85668.63, 0.000, 0.000, 0.000, 16:34:16.894
11, -41348.89, 93229.19, 74221.00, 113785.71, 163391.63, 118115.13, 108700.91, 141083.63, -14463.84, -58723.75, -78393.55, 12842.37, -64120.63, -63611.32, -54040.77, -85668.63, 0.000, 0.000, 0.000, 16:34:16.901
12, -41348.89, 93229.19, 74221.00, 113785.71, 163391.63, 118115.13, 108700.91, 141083.63, -14644.30, -58684.10, -78344.16, 12884.24, -64103.35, -63579.82, -54081.43, -85677.92, 0.000, 0.000, 0.000, 16:34:16.901
13, -41440.51, 93269.06, 74276.54, 113817.18, 163429.13, 117711.73, 108419.19, 140821.97, -14644.30, -58684.10, -78344.16, 12884.24, -64103.35, -63579.82, -54081.43, -85677.92, 0.000, 0.000, 0.000, 16:34:16.909
14, -41440.51, 93269.06, 74276.54, 113817.18, 163429.13, 117711.73, 108419.19, 140821.97, -14575.77, -58697.11, -78332.58, 12877.08, -64111.95, -63593.66, -54006.89, -85644.41, 0.000, 0.000, 0.000, 16:34:16.909
15, -41223.43, 93238.55, 74240.40, 113791.45, 163404.13, 118157.60, 108705.63, 141061.56, -14575.77, -58697.11, -78332.58, 12877.08, -64111.95, -63593.66, -54006.89, -85644.41, 0.000, 0.000, 0.000, 16:34:16.916
16, -41223.43, 93238.55, 74240.40, 113791.45, 163404.13, 118157.60, 108705.63, 141061.56, -14771.33, -58712.02, -78370.98, 12861.64, -64155.61, -63624.06, -54040.05, -85671.80, 0.022, 0.960, -0.090, 16:34:16.924
17, -41508.15, 93237.80, 74234.55, 113794.31, 163410.73, 117801.65, 108517.18, 140912.75, -14771.33, -58712.02, -78370.98, 12861.64, -64155.61, -63624.06, -54040.05, -85671.80, 0.000, 0.000, 0.000, 16:34:16.924
18, -41508.15, 93237.80, 74234.55, 113794.31, 163410.73, 117801.65, 108517.18, 140912.75, -14813.57, -58698.29, -78351.11, 12877.44, -64104.89, -63588.66, -54057.00, -85668.76, 0.000, 0.000, 0.000, 16:34:16.931
19, -41281.17, 93223.55, 74211.95, 113783.92, 163395.05, 117909.76, 108547.53, 140900.34, -14813.57, -58698.29, -78351.11, 12877.44, -64104.89, -63588.66, -54057.00, -85668.76, 0.000, 0.000, 0.000, 16:34:16.931
20, -41281.17, 93223.55, 74211.95, 113783.92, 163395.05, 117909.76, 108547.53, 140900.34, -14934.85, -58732.20, -78374.53, 12847.42, -64137.08, -63612.59, -54014.15, -85652.26, 0.000, 0.000, 0.000, 16:34:16.938
21, -41364.27, 93221.84, 74219.68, 113781.48, 163412.09, 118078.61, 108698.66, 141054.30, -14934.85, -58732.20, -78374.53, 12847.42, -64137.08, -63612.59, -54014.15, -85652.26, 0.000, 0.000, 0.000, 16:34:16.938
22, -41364.27, 93221.84, 74219.68, 113781.48, 163412.09, 118078.61, 108698.66, 141054.30, -15076.56, -58712.53, -78348.70, 12868.99, -64095.59, -63606.98, -54073.59, -85672.09, 0.000, 0.000, 0.000, 16:34:16.946
23, -41479.09, 93230.02, 74232.64, 113794.60, 163430.77, 117663.60, 108403.38, 140785.14, -15076.56, -58712.53, -78348.70, 12868.99, -64095.59, -63606.98, -54073.59, -85672.09, 0.000, 0.000, 0.000, 16:34:16.946
24, -41479.09, 93230.02, 74232.64, 113794.60, 163430.77, 117663.60, 108403.38, 140785.14, -15080.65, -58729.39, -78357.95, 12848.23, -64093.91, -63608.52, -54012.72, -85653.85, 0.000, 0.000, 0.000, 16:34:16.954
25, -41272.70, 93203.80, 74199.30, 113767.29, 163412.80, 118100.51, 108681.46, 141038.59, -15080.65, -58729.39, -78357.95, 12848.23, -64093.91, -63608.52, -54012.72, -85653.85, 0.000, 0.000, 0.000, 16:34:16.955
26, -41272.70, 93203.80, 74199.30, 113767.29, 163412.80, 118100.51, 108681.46, 141038.59, -15280.70, -58736.02, -78370.71, 12838.39, -64123.71, -63626.54, -54039.74, -85677.03, 0.028, 0.960, -0.088, 16:34:16.961
27, -41547.22, 93225.70, 74218.67, 113774.53, 163424.48, 117746.37, 108480.79, 140922.72, -15280.70, -58736.02, -78370.71, 12838.39, -64123.71, -63626.54, -54039.74, -85677.03, 0.000, 0.000, 0.000, 16:34:16.962
28, -41547.22, 93225.70, 74218.67, 113774.53, 163424.48, 117746.37, 108480.79, 140922.72, -15355.87, -58734.01, -78354.64, 12844.72, -64090.94, -63615.97, -54065.63, -85687.60, 0.000, 0.000, 0.000, 16:34:16.968
29, -41299.41, 93217.84, 74220.20, 113773.21, 163412.13, 117857.88, 108516.28, 140949.48, -15355.87, -58734.01, -78354.64, 12844.72, -64090.94, -63615.97, -54065.63, -85687.60, 0.000, 0.000, 0.000, 16:34:16.969
30, -41299.41, 93217.84, 74220.20, 113773.21, 163412.13, 117857.88, 108516.28, 140949.48, -15514.26, -58745.90, -78371.49, 12832.20, -64110.16, -63612.62, -54012.47, -85662.07, 0.000, 0.000, 0.000, 16:34:16.975
31, -41386.91, 93217.90, 74226.14, 113762.04, 163405.27, 118017.72, 108655.89, 141112.06, -15514.26, -58745.90, -78371.49, 12832.20, -64110.16, -63612.62, -54012.47, -85662.07, 0.000, 0.000, 0.000, 16:34:16.983
32, -41386.91, 93217.90, 74226.14, 113762.04, 163405.27, 118017.72, 108655.89, 141112.06, -15727.98, -58734.35, -78348.70, 12851.09, -64095.91, -63622.50, -54089.54, -85686.46, 0.000, 0.000, 0.000, 16:34:16.984
33, -41480.23, 93240.41, 74263.65, 113788.55, 163412.45, 117618.74, 108347.62, 140857.52, -15727.98, -58734.35, -78348.70, 12851.09, -64095.91, -63622.50, -54089.54, -85686.46, 0.000, 0.000, 0.000, 16:34:16.990
34, -41480.23, 93240.41, 74263.65, 113788.55, 163412.45, 117618.74, 108347.62, 140857.52, -15847.43, -58734.17, -78337.14, 12856.54, -64093.76, -63606.45, -54021.37, -85642.38, 0.000, 0.000, 0.000, 16:34:16.991
35, -41251.60, 93225.81, 74261.30, 113776.97, 163397.58, 118055.90, 108614.48, 141104.55, -15847.43, -58734.17, -78337.14, 12856.54, -64093.76, -63606.45, -54021.37, -85642.38, 0.000, 0.000, 0.000, 16:34:16.998
36, -41251.60, 93225.81, 74261.30, 113776.97, 163397.58, 118055.90, 108614.48, 141104.55, -16168.16, -58748.21, -78354.84, 12842.26, -64113.43, -63633.71, -54049.71, -85671.35, 0.032, 0.964, -0.092, 16:34:16.998
37, -41525.94, 93235.45, 74279.29, 113773.98, 163391.05, 117701.82, 108419.41, 140967.16, -16168.16, -58748.21, -78354.84, 12842.26, -64113.43, -63633.71, -54049.71, -85671.35, 0.000, 0.000, 0.000, 16:34:17.006
38, -41525.94, 93235.45, 74279.29, 113773.98, 163391.05, 117701.82, 108419.41, 140967.16, -16326.43, -58745.37, -78334.44, 12851.00, -64109.27, -63620.80, -54075.20, -85672.06, 0.000, 0.000, 0.000, 16:34:17.006
39, -41288.14, 93225.03, 74295.74, 113775.49, 163401.69, 117822.30, 108446.34, 140948.98, -16326.43, -58745.37, -78334.44, 12851.00, -64109.27, -63620.80, -54075.20, -85672.06, 0.000, 0.000, 0.000, 16:34:17.014
40, -41288.14, 93225.03, 74295.74, 113775.49, 163401.69, 117822.30, 108446.34, 140948.98, -16479.25, -58766.40, -78346.69, 12829.39, -64126.88, -63622.43, -54016.32, -85653.78, 0.000, 0.000, 0.000, 16:34:17.014
41, -41389.82, 93222.71, 74300.70, 113765.39, 163409.27, 117989.27, 108594.12, 141095.14, -16479.25, -58766.40, -78346.69, 12829.39, -64126.88, -63622.43, -54016.32, -85653.78, 0.000, 0.000, 0.000, 16:34:17.021
42, -41389.82, 93222.71, 74300.70, 113765.39, 163409.27, 117989.27, 108594.12, 141095.14, -16690.45, -58759.56, -78327.13, 12840.34, -64145.46, -63628.44, -54085.90, -85685.55, 0.000, 0.000, 0.000, 16:34:17.021
43, -41491.99, 93230.30, 74314.01, 113770.94, 163415.70, 117595.81, 108311.16, 140837.58, -16690.45, -58759.56, -78327.13, 12840.34, -64145.46, -63628.44, -54085.90, -85685.55, 0.000, 0.000, 0.000, 16:34:17.029
44, -41491.99, 93230.30, 74314.01, 113770.94, 163415.70, 117595.81, 108311.16, 140837.58, -16758.38, -58780.68, -78328.55, 12821.09, -64150.38, -63636.09, -54024.97, -85659.55, 0.000, 0.000, 0.000, 16:34:17.030
45, -41272.52, 93223.27, 74316.30, 113765.08, 163410.05, 118033.30, 108597.66, 141096.92, -16758.38, -58780.68, -78328.55, 12821.09, -64150.38, -63636.09, -54024.97, -85659.55, 0.026, 0.970, -0.094, 16:34:17.037
46, -41272.52, 93223.27, 74316.30, 113765.08, 163410.05, 118033.30, 108597.66, 141096.92, -16936.56, -58779.41, -78326.26, 12824.38, -64158.49, -63637.63, -54040.77, -85666.37, 0.000, 0.000, 0.000, 16:34:17.037
47, -41566.13, 93230.58, 74335.66, 113767.63, 163415.00, 117683.54, 108392.32, 140945.16, -16936.56, -58779.41, -78326.26, 12824.38, -64158.49, -63637.63, -54040.77, -85666.37, 0.000, 0.000, 0.000, 16:34:17.044
48, -41566.13, 93230.58, 74335.66, 113767.63, 163415.00, 117683.54, 108392.32, 140945.16, -16955.32, -58774.83, -78304.62, 12832.40, -64153.37, -63632.87, -54074.10, -85675.24, 0.000, 0.000, 0.000, 16:34:17.051
49, -41329.87, 93210.08, 74332.58, 113766.69, 163400.92, 117802.72, 108422.07, 140939.34, -16955.32, -58774.83, -78304.62, 12832.40, -64153.37, -63632.87, -54074.10, -85675.24, 0.000, 0.000, 0.000, 16:34:17.051
50, -41329.87, 93210.08, 74332.58, 113766.69, 163400.92, 117802.72, 108422.07, 140939.34, -16970.09, -58794.79, -78317.42, 12815.30, -64170.96, -63632.84, -54022.89, -85655.84, 0.000, 0.000, 0.000, 16:34:17.059
51, -41409.80, 93228.84, 74339.28, 113769.64, 163406.33, 117981.73, 108579.07, 141105.31, -16970.09, -58794.79, -78317.42, 12815.30, -64170.96, -63632.84, -54022.89, -85655.84, 0.000, 0.000, 0.000, 16:34:17.059
52, -41409.80, 93228.84, 74339.28, 113769.64, 163406.33, 117981.73, 108579.07, 141105.31, -16958.78, -58772.99, -78288.97, 12841.21, -64161.39, -63607.70, -54093.28, -85686.70, 0.000, 0.000, 0.000, 16:34:17.066
53, -41512.48, 93218.59, 74350.15, 113757.52, 163405.16, 117582.76, 108282.38, 140836.91, -16958.78, -58772.99, -78288.97, 12841.21, -64161.39, -63607.70, -54093.28, -85686.70, 0.000, 0.000, 0.000, 16:34:17.066
54, -41512.48, 93218.59, 74350.15, 113757.52, 163405.16, 117582.76, 108282.38, 140836.91, -16764.41, -58774.43, -78289.28, 12829.12, -64155.47, -63563.93, -54042.54, -85677.07, 0.000, 0.000, 0.000, 16:34:17.073
