%OpenBCI Raw EEG Data
%
%Sample Rate = 250.0 Hz
%First Column = SampleIndex
%Last Column = Timestamp 
%Other Columns = EEG data in microvolts followed by Accel Data (in G) interleaved with Aux Data
0, 0.00, 0.00, 0.00, 0.00, 0.00, 0.00, 0.00, 0.00, 35339.83, 7035.64, 75043.14, -1108.09, 15679.68, -1892.70, -61156.38, -1335.56, -0.018, 0.914, 0.156, 16:58:30.300
1, -27826.18, -21255.59, 68001.58, 54999.04, 10917.15, -36162.04, -31884.90, 68736.02, 35339.83, 7035.64, 75043.14, -1108.09, 15679.68, -1892.70, -61156.38, -1335.56, 0.000, 0.000, 0.000, 16:58:30.789
2, -27826.18, -21255.59, 68001.58, 54999.04, 10917.15, -36162.04, -31884.90, 68736.02, 72065.06, 14030.21, 159667.98, -10476.22, 23714.28, -4422.29, 103359.45, -2602.84, 0.000, 0.000, 0.000, 16:58:30.789
3, -55629.00, -42487.47, 136004.23, 109993.16, 21864.30, -72332.39, -63763.67, 137467.53, 72065.06, 14030.21, 159667.98, -10476.22, 23714.28, -4422.29, 103359.45, -2602.84, 0.000, 0.000, 0.000, 16:58:30.789
4, -55629.00, -42487.47, 136004.23, 109993.16, 21864.30, -72332.39, -63763.67, 137467.53, 72013.32, 13959.83, 159649.19, -10533.95, 23655.92, -4488.23, 103440.88, -2665.02, 0.000, 0.000, 0.000, 16:58:30.789
5, -55631.30, -42480.50, 135997.58, 109989.96, 21868.01, -72333.08, -63758.26, 137478.09, 72013.32, 13959.83, 159649.19, -10533.95, 23655.92, -4488.23, 103440.88, -2665.02, 0.000, 0.000, 0.000, 16:58:30.789
6, -55631.30, -42480.50, 135997.58, 109989.96, 21868.01, -72333.08, -63758.26, 137478.09, 72026.44, 13964.79, 159637.78, -10522.17, 23673.04, -4472.81, 103520.13, -2660.60, 0.000, 0.000, 0.000, 16:58:30.789
7, -55658.48, -42494.82, 136001.67, 109992.69, 21853.37, -72327.13, -63746.55, 137481.11, 72026.44, 13964.79, 159637.78, -10522.17, 23673.04, -4472.81, 103520.13, -2660.60, 0.000, 0.000, 0.000, 16:58:30.790
8, -55658.48, -42494.82, 136001.67, 109992.69, 21853.37, -72327.13, -63746.55, 137481.11, 72037.62, 13977.48, 159649.11, -10509.57, 23680.78, -4460.27, 103604.47, -2643.79, -0.040, 0.880, 0.332, 16:58:30.790
9, -55666.17, -42491.00, 136013.17, 109998.63, 21852.79, -72319.00, -63739.57, 137482.47, 72037.62, 13977.48, 159649.11, -10509.57, 23680.78, -4460.27, 103604.47, -2643.79, 0.000, 0.000, 0.000, 16:58:30.790
10, -55666.17, -42491.00, 136013.17, 109998.63, 21852.79, -72319.00, -63739.57, 137482.47, 72038.91, 13982.94, 159662.53, -10496.78, 23690.28, -4456.42, 103689.11, -2628.72, 0.000, 0.000, 0.000, 16:58:30.790
11, -55672.47, -42487.87, 136018.63, 109997.63, 21860.97, -72315.05, -63727.13, 137486.06, 72038.91, 13982.94, 159662.53, -10496.78, 23690.28, -4456.42, 103689.11, -2628.72, 0.000, 0.000, 0.000, 16:58:30.790
12, -55672.47, -42487.87, 136018.63, 109997.63, 21860.97, -72315.05, -63727.13, 137486.06, 72044.90, 13985.13, 159671.27, -10499.33, 23679.75, -4458.77, 103775.19, -2632.32, 0.000, 0.000, 0.000, 16:58:30.790
13, -55683.31, -42487.74, 136015.52, 109990.45, 21855.36, -72313.97, -63754.77, 137487.36, 72044.90, 13985.13, 159671.27, -10499.33, 23679.75, -4458.77, 103775.19, -2632.32, 0.000, 0.000, 0.000, 16:58:30.791
14, -55683.31, -42487.74, 136015.52, 109990.45, 21855.36, -72313.97, -63754.77, 137487.36, 72026.88, 13960.76, 159664.77, -10528.65, 23651.83, -4484.68, 103863.21, -2644.14, 0.000, 0.000, 0.000, 16:58:30.791
15, -55711.18, -42500.21, 136012.58, 109977.46, 21842.06, -72315.09, -63744.49, 137480.48, 72026.88, 13960.76, 159664.77, -10528.65, 23651.83, -4484.68, 103863.21, -2644.14, 0.000, 0.000, 0.000, 16:58:30.791
16, -55711.18, -42500.21, 136012.58, 109977.46, 21842.06, -72315.09, -63744.49, 137480.48, 72055.88, 13984.01, 159672.34, -10503.17, 23683.71, -4455.69, 103952.73, -2624.45, 0.000, 0.000, 0.000, 16:58:30.791
17, -55738.07, -42507.94, 136015.25, 109968.19, 21843.35, -72313.32, -63752.45, 137478.27, 72055.88, 13984.01, 159672.34, -10503.17, 23683.71, -4455.69, 103952.73, -2624.45, -0.044, 0.880, 0.336, 16:58:30.791
18, -55738.07, -42507.94, 136015.25, 109968.19, 21843.35, -72313.32, -63752.45, 137478.27, 72056.88, 13982.27, 159684.83, -10510.26, 23680.44, -4460.20, 104046.09, -2627.89, 0.000, 0.000, 0.000, 16:58:30.791
19, -55749.20, -42501.91, 136023.95, 109966.13, 21856.07, -72312.34, -63779.76, 137471.41, 72056.88, 13982.27, 159684.83, -10510.26, 23680.44, -4460.20, 104046.09, -2627.89, 0.000, 0.000, 0.000, 16:58:30.792
20, -55749.20, -42501.91, 136023.95, 109966.13, 21856.07, -72312.34, -63779.76, 137471.41, 72035.02, 13969.93, 159680.86, -10533.44, 23655.88, -4486.64, 104136.39, -2643.36, 0.000, 0.000, 0.000, 16:58:30.792
21, -55745.61, -42478.30, 136027.28, 109965.39, 21883.12, -72308.38, -63760.98, 137478.64, 72035.02, 13969.93, 159680.86, -10533.44, 23655.88, -4486.64, 104136.39, -2643.36, 0.000, 0.000, 0.000, 16:58:30.792
22, -55745.61, -42478.30, 136027.28, 109965.39, 21883.12, -72308.38, -63760.98, 137478.64, 72017.38, 13946.53, 159663.44, -10553.67, 23637.73, -4502.22, 104227.84, -2664.13, 0.000, 0.000, 0.000, 16:58:30.792
23, -55779.18, -42492.61, 136024.98, 109963.20, 21868.39, -72311.31, -63773.04, 137470.38, 72017.38, 13946.53, 159663.44, -10553.67, 23637.73, -4502.22, 104227.84, -2664.13, 0.000, 0.000, 0.000, 16:58:30.792
24, -55779.18, -42492.61, 136024.98, 109963.20, 21868.39, -72311.31, -63773.04, 137470.38, 72028.43, 13953.03, 159664.83, -10544.75, 23646.65, -4493.06, 104324.10, -2662.96, 0.000, 0.000, 0.000, 16:58:30.793
25, -55793.17, -42493.55, 136031.06, 109962.40, 21861.19, -72301.12, -63769.64, 137478.13, 72028.43, 13953.03, 159664.83, -10544.75, 23646.65, -4493.06, 104324.10, -2662.96, 0.000, 0.000, 0.000, 16:58:30.793
26, -55793.17, -42493.55, 136031.06, 109962.40, 21861.19, -72301.12, -63769.64, 137478.13, 72047.96, 13976.57, 159680.14, -10516.09, 23669.00, -4467.87, 104420.98, -2637.37, 0.000, 0.000, 0.000, 16:58:30.793
27, -55785.06, -42484.38, 136039.39, 109961.86, 21864.16, -72294.99, -63743.82, 137476.02, 72047.96, 13976.57, 159680.14, -10516.09, 23669.00, -4467.87, 104420.98, -2637.37, -0.048, 0.886, 0.336, 16:58:30.793
28, -55785.06, -42484.38, 136039.39, 109961.86, 21864.16, -72294.99, -63743.82, 137476.02, 72035.58, 13962.49, 159687.19, -10535.41, 23653.31, -4482.91, 104516.42, -2649.42, 0.000, 0.000, 0.000, 16:58:30.793
29, -55771.22, -42477.86, 136037.05, 109953.03, 21869.77, -72294.01, -63744.22, 137481.81, 72035.58, 13962.49, 159687.19, -10535.41, 23653.31, -4482.91, 104516.42, -2649.42, 0.000, 0.000, 0.000, 16:58:30.794
30, -55771.22, -42477.86, 136037.05, 109953.03, 21869.77, -72294.01, -63744.22, 137481.81, 72033.23, 13952.47, 159687.31, -10547.77, 23647.00, -4489.33, 104617.45, -2640.43, 0.000, 0.000, 0.000, 16:58:30.794
31, -55759.98, -42477.90, 136025.11, 109930.23, 21865.44, -72304.38, -63777.88, 137466.31, 72033.23, 13952.47, 159687.31, -10547.77, 23647.00, -4489.33, 104617.45, -2640.43, 0.000, 0.000, 0.000, 16:58:30.794
32, -55759.98, -42477.90, 136025.11, 109930.23, 21865.44, -72304.38, -63777.88, 137466.31, 72031.71, 13949.57, 159683.63, -10554.47, 23639.94, -4494.35, 104724.94, -2654.45, 0.000, 0.000, 0.000, 16:58:30.794
33, -55730.05, -42464.78, 136022.16, 109919.48, 21876.79, -72309.08, -63766.69, 137475.11, 72031.71, 13949.57, 159683.63, -10554.47, 23639.94, -4494.35, 104724.94, -2654.45, 0.000, 0.000, 0.000, 16:58:30.795
34, -55730.05, -42464.78, 136022.16, 109919.48, 21876.79, -72309.08, -63766.69, 137475.11, 72027.69, 13943.35, 159677.58, -10560.42, 23633.08, -4500.84, 104833.61, -2664.69, 0.000, 0.000, 0.000, 16:58:30.795
35, -55725.89, -42478.75, 136025.66, 109918.01, 21857.84, -72308.52, -63770.84, 137467.83, 72027.69, 13943.35, 159677.58, -10560.42, 23633.08, -4500.84, 104833.61, -2664.69, 0.000, 0.000, 0.000, 16:58:30.795
36, -55725.89, -42478.75, 136025.66, 109918.01, 21857.84, -72308.52, -63770.84, 137467.83, 72046.24, 13961.19, 159692.72, -10543.34, 23653.96, -4486.17, 104945.05, -2646.76, 0.000, 0.000, 0.000, 16:58:30.795
37, -55698.51, -42467.04, 136031.13, 109921.12, 21867.49, -72310.20, -63770.42, 137475.09, 72046.24, 13961.19, 159692.72, -10543.34, 23653.96, -4486.17, 104945.05, -2646.76, -0.048, 0.886, 0.340, 16:58:30.796
38, -55698.51, -42467.04, 136031.13, 109921.12, 21867.49, -72310.20, -63770.42, 137475.09, 72016.60, 13928.69, 159683.11, -10579.48, 23616.81, -4521.31, 105061.11, -2658.99, 0.000, 0.000, 0.000, 16:58:30.796
39, -55689.84, -42470.26, 136025.11, 109914.97, 21858.53, -72314.44, -63782.98, 137473.48, 72016.60, 13928.69, 159683.11, -10579.48, 23616.81, -4521.31, 105061.11, -2658.99, 0.000, 0.000, 0.000, 16:58:30.796
40, -55689.84, -42470.26, 136025.11, 109914.97, 21858.53, -72314.44, -63782.98, 137473.48, 72036.30, 13949.08, 159684.64, -10565.47, 23629.30, -4500.10, 105183.55, -2653.31, 0.000, 0.000, 0.000, 16:58:30.797
41, -55686.66, -42478.98, 136031.28, 109913.11, 21848.67, -72322.02, -63804.57, 137474.33, 72036.30, 13949.08, 159684.64, -10565.47, 23629.30, -4500.10, 105183.55, -2653.31, 0.000, 0.000, 0.000, 16:58:30.798
42, -55686.66, -42478.98, 136031.28, 109913.11, 21848.67, -72322.02, -63804.57, 137474.33, 72025.81, 13937.30, 159688.56, -10583.24, 23611.33, -4512.91, 105309.44, -2656.73, 0.000, 0.000, 0.000, 16:58:30.798
43, -55666.39, -42469.68, 136037.45, 109910.54, 21866.26, -72345.58, -63810.27, 137470.48, 72025.81, 13937.30, 159688.56, -10583.24, 23611.33, -4512.91, 105309.44, -2656.73, 0.000, 0.000, 0.000, 16:58:30.798
44, -55666.39, -42469.68, 136037.45, 109910.54, 21866.26, -72345.58, -63810.27, 137470.48, 72046.87, 13946.53, 159688.92, -10564.69, 23628.03, -4485.77, 105434.29, -2648.88, 0.000, 0.000, 0.000, 16:58:30.798
45, -55693.88, -42500.68, 136039.17, 109911.01, 21836.04, -72355.27, -63806.25, 137471.56, 72046.87, 13946.53, 159688.92, -10564.69, 23628.03, -4485.77, 105434.29, -2648.88, 0.000, 0.000, 0.000, 16:58:30.799
46, -55693.88, -42500.68, 136039.17, 109911.01, 21836.04, -72355.27, -63806.25, 137471.56, 72057.41, 13964.68, 159711.59, -10558.58, 23630.89, -4477.93, 105558.81, -2632.83, 0.000, 0.000, 0.000, 16:58:30.799
47, -55669.57, -42484.14, 136038.03, 109904.93, 21865.12, -72372.73, -63782.96, 137466.16, 72057.41, 13964.68, 159711.59, -10558.58, 23630.89, -4477.93, 105558.81, -2632.83, -0.048, 0.886, 0.344, 16:58:30.799
48, -55669.57, -42484.14, 136038.03, 109904.93, 21865.12, -72372.73, -63782.96, 137466.16, 72021.48, 13921.09, 159698.38, -10606.62, 23591.33, -4518.79, 105684.07, -2672.53, 0.000, 0.000, 0.000, 16:58:30.799
49, -55654.37, -42471.78, 136034.09, 109892.99, 21883.12, -72380.80, -63754.53, 137466.83, 72021.48, 13921.09, 159698.38, -10606.62, 23591.33, -4518.79, 105684.07, -2672.53, 0.000, 0.000, 0.000, 16:58:30.800
50, -55654.37, -42471.78, 136034.09, 109892.99, 21883.12, -72380.80, -63754.53, 137466.83, 71986.52, 13882.53, 159668.16, -10651.72, 23557.06, -4557.10, 105809.18, -2706.97, 0.000, 0.000, 0.000, 16:58:30.800
51, -55662.77, -42483.80, 136034.91, 109893.60, 21872.03, -72379.23, -63755.49, 137509.97, 71986.52, 13882.53, 159668.16, -10651.72, 23557.06, -4557.10, 105809.18, -2706.97, 0.000, 0.000, 0.000, 16:58:30.800
52, -55662.77, -42483.80, 136034.91, 109893.60, 21872.03, -72379.23, -63755.49, 137509.97, 72035.69, 13926.79, 159670.47, -10594.32, 23606.23, -4496.50, 105929.52, -2673.58, 0.000, 0.000, 0.000, 16:58:30.800
53, -55678.15, -42499.52, 136042.22, 109896.05, 21857.23, -72384.09, -63756.45, 137506.27, 72035.69, 13926.79, 159670.47, -10594.32, 23606.23, -4496.50, 105929.52, -2673.58, 0.000, 0.000, 0.000, 16:58:30.801
54, -55678.15, -42499.52, 136042.22, 109896.05, 21857.23, -72384.09, -63756.45, 137506.27, 72001.60, 13896.68, 159670.91, -10635.45, 23564.84, -4539.77, 106047.29, -2692.29, 0.000, 0.000, 0.000, 16:58:30.801
55, -55653.94, -42476.38, 136041.70, 109894.74, 21881.98, -72395.47, -63768.52, 137493.59, 72001.60, 13896.68, 159670.91, -10635.45, 23564.84, -4539.77, 106047.29, -2692.29, 0.000, 0.000, 0.000, 16:58:30.801
56, -55653.94, -42476.38, 136041.70, 109894.74, 21881.98, -72395.47, -63768.52, 137493.59, 72028.23, 13908.48, 159662.47, -10606.89, 23584.84, -4511.90, 106168.84, -2684.18, 0.000, 0.000, 0.000, 16:58:30.801
57, -55695.74, -42515.32, 136042.03, 109912.11, 21837.65, -72380.11, -63804.35, 137507.81, 72028.23, 13908.48, 159662.47, -10606.89, 23584.84, -4511.90, 106168.84, -2684.18, -0.048, 0.884, 0.344, 16:58:30.801
58, -55695.74, -42515.32, 136042.03, 109912.11, 21837.65, -72380.11, -63804.35, 137507.81, 72042.87, 13946.73, 159701.00, -10583.15, 23601.54, -4489.21, 106292.91, -2639.38, 0.000, 0.000, 0.000, 16:58:30.802
59, -55654.88, -42475.42, 136047.55, 109902.34, 21888.95, -72390.86, -63750.44, 137504.08, 72042.87, 13946.73, 159701.00, -10583.15, 23601.54, -4489.21, 106292.91, -2639.38, 0.000, 0.000, 0.000, 16:58:30.802
60, -55654.88, -42475.42, 136047.55, 109902.34, 21888.95, -72390.86, -63750.44, 137504.08, 72012.11, 13908.60, 159683.78, -10618.24, 23566.23, -4524.10, 106412.54, -2673.47, 0.000, 0.000, 0.000, 16:58:30.802
61, -55664.40, -42482.71, 136048.72, 109911.66, 21877.48, -72393.56, -63752.54, 137505.88, 72012.11, 13908.60, 159683.78, -10618.24, 23566.23, -4524.10, 106412.54, -2673.47, 0.000, 0.000, 0.000, 16:58:30.802
62, -55664.40, -42482.71, 136048.72, 109911.66, 21877.48, -72393.56, -63752.54, 137505.88, 72029.97, 13938.28, 159687.72, -10593.63, 23584.58, -4501.55, 106529.95, -2661.87, 0.000, 0.000, 0.000, 16:58:30.802
63, -55657.70, -42474.48, 136052.67, 109910.16, 21882.60, -72400.36, -63749.65, 137511.44, 72029.97, 13938.28, 159687.72, -10593.63, 23584.58, -4501.55, 106529.95, -2661.87, 0.000, 0.000, 0.000, 16:58:30.802
64, -55657.70, -42474.48, 136052.67, 109910.16, 21882.60, -72400.36, -63749.65, 137511.44, 72005.74, 13912.62, 159686.41, -10622.73, 23548.88, -4530.41, 106648.23, -2682.03, 0.000, 0.000, 0.000, 16:58:30.803
65, -55646.97, -42465.90, 136057.17, 109906.38, 21883.81, -72402.82, -63768.03, 137503.44, 72005.74, 13912.62, 159686.41, -10622.73, 23548.88, -4530.41, 106648.23, -2682.03, 0.000, 0.000, 0.000, 16:58:30.803
66, -55646.97, -42465.90, 136057.17, 109906.38, 21883.81, -72402.82, -63768.03, 137503.44, 71996.40, 13902.45, 159683.61, -10625.59, 23543.07, -4536.26, 106767.28, -2691.31, 0.000, 0.000, 0.000, 16:58:30.803
67, -55650.23, -42467.15, 136058.94, 109910.16, 21874.58, -72403.58, -63761.52, 137501.92, 71996.40, 13902.45, 159683.61, -10625.59, 23543.07, -4536.26, 106767.28, -2691.31, -0.056, 0.886, 0.350, 16:58:30.803
68, -55650.23, -42467.15, 136058.94, 109910.16, 21874.58, -72403.58, -63761.52, 137501.92, 72025.12, 13931.75, 159693.31, -10594.77, 23562.40, -4506.04, 106887.18, -2673.58, 0.000, 0.000, 0.000, 16:58:30.804
69, -55646.21, -42465.79, 136066.16, 109906.79, 21875.85, -72399.63, -63759.98, 137508.98, 72025.12, 13931.75, 159693.31, -10594.77, 23562.40, -4506.04, 106887.18, -2673.58, 0.000, 0.000, 0.000, 16:58:30.804
70, -55646.21, -42465.79, 136066.16, 109906.79, 21875.85, -72399.63, -63759.98, 137508.98, 72013.34, 13922.68, 159693.69, -10608.03, 23545.73, -4516.97, 107003.09, -2672.31, 0.000, 0.000, 0.000, 16:58:30.804
71, -55660.40, -42474.19, 136065.03, 109894.16, 21860.01, -72395.11, -63774.75, 137515.03, 72013.34, 13922.68, 159693.69, -10608.03, 23545.73, -4516.97, 107003.09, -2672.31, 0.000, 0.000, 0.000, 16:58:30.804
72, -55660.40, -42474.19, 136065.03, 109894.16, 21860.01, -72395.11, -63774.75, 137515.03, 72045.80, 13959.67, 159714.05, -10577.43, 23580.87, -4484.10, 107122.72, -2638.67, 0.000, 0.000, 0.000, 16:58:30.804
73, -55655.06, -42466.91, 136072.70, 109889.35, 21865.79, -72401.09, -63763.98, 137511.61, 72045.80, 13959.67, 159714.05, -10577.43, 23580.87, -4484.10, 107122.72, -2638.67, 0.000, 0.000, 0.000, 16:58:30.804
74, -55655.06, -42466.91, 136072.70, 109889.35, 21865.79, -72401.09, -63763.98, 137511.61, 72047.76, 13962.49, 159726.05, -10578.54, 23576.06, -4491.47, 107245.81, -2638.15, 0.000, 0.000, 0.000, 16:58:30.805
75, -55647.30, -42461.21, 136072.09, 109883.59, 21881.98, -72405.30, -63761.97, 137509.20, 72047.76, 13962.49, 159726.05, -10578.54, 23576.06, -4491.47, 107245.81, -2638.15, 0.000, 0.000, 0.000, 16:58:30.805
76, -55647.30, -42461.21, 136072.09, 109883.59, 21881.98, -72405.30, -63761.97, 137509.20, 72019.58, 13934.73, 159721.47, -10607.74, 23543.03, -4524.04, 107363.94, -2661.42, 0.000, 0.000, 0.000, 16:58:30.805
77, -55635.68, -42449.18, 136070.64, 109878.96, 21898.83, -72407.96, -63755.42, 137502.61, 72019.58, 13934.73, 159721.47, -10607.74, 23543.03, -4524.04, 107363.94, -2661.42, -0.064, 0.888, 0.346, 16:58:30.805
78, -55635.68, -42449.18, 136070.64, 109878.96, 21898.83, -72407.96, -63755.42, 137502.61, 72002.92, 13913.47, 159710.00, -10624.10, 23526.60, -4536.51, 107479.16, -2686.01, 0.000, 0.000, 0.000, 16:58:30.806
79, -55649.34, -42457.56, 136070.28, 109880.01, 21884.82, -72395.91, -63788.21, 137507.44, 72002.92, 13913.47, 159710.00, -10624.10, 23526.60, -4536.51, 107479.16, -2686.01, 0.000, 0.000, 0.000, 16:58:30.806
80, -55649.34, -42457.56, 136070.28, 109880.01, 21884.82, -72395.91, -63788.21, 137507.44, 72028.63, 13947.96, 159718.30, -10599.62, 23549.33, -4498.53, 107595.21, -2654.22, 0.000, 0.000, 0.000, 16:58:30.806
81, -55655.71, -42465.72, 136074.16, 109883.74, 21879.96, -72395.51, -63774.91, 137509.67, 72028.63, 13947.96, 159718.30, -10599.62, 23549.33, -4498.53, 107595.21, -2654.22, 0.000, 0.000, 0.000, 16:58:30.806
82, -55655.71, -42465.72, 136074.16, 109883.74, 21879.96, -72395.51, -63774.91, 137509.67, 72039.52, 13955.00, 159731.94, -10590.99, 23557.15, -4491.47, 107715.89, -2634.64, 0.000, 0.000, 0.000, 16:58:30.806
83, -55642.52, -42456.71, 136074.36, 109880.59, 21892.13, -72402.98, -63731.95, 137509.36, 72039.52, 13955.00, 159731.94, -10590.99, 23557.15, -4491.47, 107715.89, -2634.64, 0.000, 0.000, 0.000, 16:58:30.807
84, -55642.52, -42456.71, 136074.36, 109880.59, 21892.13, -72402.98, -63731.95, 137509.36, 72001.52, 13912.66, 159722.70, -10637.46, 23507.26, -4534.74, 107835.80, -2678.92, 0.000, 0.000, 0.000, 16:58:30.807
85, -55640.62, -42456.60, 136071.02, 109875.25, 21886.71, -72404.43, -63757.68, 137498.36, 72001.52, 13912.66, 159722.70, -10637.46, 23507.26, -4534.74, 107835.80, -2678.92, 0.000, 0.000, 0.000, 16:58:30.807
86, -55640.62, -42456.60, 136071.02, 109875.25, 21886.71, -72404.43, -63757.68, 137498.36, 72005.38, 13915.59, 159712.95, -10631.18, 23505.67, -4537.52, 107949.58, -2717.97, 0.000, 0.000, 0.000, 16:58:30.807
87, -55640.96, -42456.02, 136070.31, 109867.05, 21891.57, -72404.05, -63777.48, 137498.83, 72005.38, 13915.59, 159712.95, -10631.18, 23505.67, -4537.52, 107949.58, -2717.97, -0.058, 0.884, 0.342, 16:58:30.807
88, -55640.96, -42456.02, 136070.31, 109867.05, 21891.57, -72404.05, -63777.48, 137498.83, 71984.17, 13888.32, 159698.42, -10661.65, 23476.75, -4566.77, 108066.45, -2748.12, 0.000, 0.000, 0.000, 16:58:30.807
89, -55653.16, -42470.68, 136066.94, 109860.72, 21884.55, -72406.77, -63806.81, 137497.28, 71984.17, 13888.32, 159698.42, -10661.65, 23476.75, -4566.77, 108066.45, -2748.12, 0.000, 0.000, 0.000, 16:58:30.808
90, -55653.16, -42470.68, 136066.94, 109860.72, 21884.55, -72406.77, -63806.81, 137497.28, 72013.79, 13914.59, 159708.73, -10634.65, 23503.91, -4542.03, 108182.51, -2714.40, 0.000, 0.000, 0.000, 16:58:30.808
91, -55662.19, -42479.82, 136067.98, 109859.34, 21877.71, -72405.48, -63796.17, 137501.64, 72013.79, 13914.59, 159708.73, -10634.65, 23503.91, -4542.03, 108182.51, -2714.40, 0.000, 0.000, 0.000, 16:58:30.808
92, -55662.19, -42479.82, 136067.98, 109859.34, 21877.71, -72405.48, -63796.17, 137501.64, 72020.27, 13927.64, 159724.53, -10624.45, 23509.52, -4533.89, 108299.63, -2684.11, 0.000, 0.000, 0.000, 16:58:30.808
93, -55646.77, -42469.05, 136074.05, 109850.80, 21890.69, -72407.76, -63797.78, 137497.64, 72020.27, 13927.64, 159724.53, -10624.45, 23509.52, -4533.89, 108299.63, -2684.11, 0.000, 0.000, 0.000, 16:58:30.808
94, -55646.77, -42469.05, 136074.05, 109850.80, 21890.69, -72407.76, -63797.78, 137497.64, 71997.52, 13894.38, 159715.02, -10651.10, 23476.82, -4556.45, 108413.51, -2699.06, 0.000, 0.000, 0.000, 16:58:30.809
95, -55657.23, -42480.23, 136077.64, 109848.20, 21885.93, -72405.26, -63831.44, 137495.08, 71997.52, 13894.38, 159715.02, -10651.10, 23476.82, -4556.45, 108413.51, -2699.06, 0.000, 0.000, 0.000, 16:58:30.809
96, -55657.23, -42480.23, 136077.64, 109848.20, 21885.93, -72405.26, -63831.44, 137495.08, 72005.77, 13906.54, 159715.09, -10644.79, 23482.34, -4543.82, 108527.48, -2696.38, 0.000, 0.000, 0.000, 16:58:30.809
97, -55662.70, -42484.90, 136079.20, 109850.10, 21877.93, -72402.98, -63841.90, 137498.42, 72005.77, 13906.54, 159715.09, -10644.79, 23482.34, -4543.82, 108527.48, -2696.38, -0.056, 0.882, 0.338, 16:58:30.809
98, -55662.70, -42484.90, 136079.20, 109850.10, 21877.93, -72402.98, -63841.90, 137498.42, 71993.67, 13899.88, 159717.06, -10658.00, 23468.35, -4555.42, 108640.12, -2699.51, 0.000, 0.000, 0.000, 16:58:30.809
99, -55643.39, -42463.30, 136084.19, 109851.96, 21905.38, -72406.71, -63844.80, 137496.17, 71993.67, 13899.88, 159717.06, -10658.00, 23468.35, -4555.42, 108640.12, -2699.51, 0.000, 0.000, 0.000, 16:58:30.810
100, -55643.39, -42463.30, 136084.19, 109851.96, 21905.38, -72406.71, -63844.80, 137496.17, 71969.62, 13866.08, 159699.72, -10688.56, 23439.02, -4578.73, 108753.93, -2725.46, 0.000, 0.000, 0.000, 16:58:30.811
101, -55655.84, -42476.56, 136081.70, 109849.88, 21892.66, -72415.38, -63846.53, 137488.22, 71969.62, 13866.08, 159699.72, -10688.56, 23439.02, -4578.73, 108753.93, -2725.46, 0.000, 0.000, 0.000, 16:58:30.811
102, -55655.84, -42476.56, 136081.70, 109849.88, 21892.66, -72415.38, -63846.53, 137488.22, 71986.00, 13867.40, 159694.38, -10686.23, 23445.04, -4572.09, 108868.30, -2718.37, 0.000, 0.000, 0.000, 16:58:30.812
103, -55666.19, -42486.33, 136084.05, 109841.01, 21889.89, -72417.26, -63846.86, 137498.11, 71986.00, 13867.40, 159694.38, -10686.23, 23445.04, -4572.09, 108868.30, -2718.37, 0.000, 0.000, 0.000, 16:58:30.812
104, -55666.19, -42486.33, 136084.05, 109841.01, 21889.89, -72417.26, -63846.86, 137498.11, 71986.18, 13867.31, 159699.91, -10687.49, 23445.32, -4568.23, 108984.82, -2710.57, 0.000, 0.000, 0.000, 16:58:30.813
105, -55663.66, -42486.78, 136087.03, 109840.83, 21900.75, -72407.65, -63823.79, 137487.31, 71986.18, 13867.31, 159699.91, -10687.49, 23445.32, -4568.23, 108984.82, -2710.57, 0.000, 0.000, 0.000, 16:58:30.813
106, -55663.66, -42486.78, 136087.03, 109840.83, 21900.75, -72407.65, -63823.79, 137487.31, 71995.93, 13876.83, 159700.23, -10677.27, 23447.76, -4554.17, 109100.38, -2694.08, 0.000, 0.000, 0.000, 16:58:30.813
107, -55678.60, -42502.94, 136089.28, 109843.82, 21883.34, -72395.30, -63829.92, 137500.89, 71995.93, 13876.83, 159700.23, -10677.27, 23447.76, -4554.17, 109100.38, -2694.08, -0.062, 0.886, 0.342, 16:58:30.813
108, -55678.60, -42502.94, 136089.28, 109843.82, 21883.34, -72395.30, -63829.92, 137500.89, 72008.09, 13904.95, 159714.83, -10666.90, 23459.16, -4541.40, 109214.42, -2672.60, 0.000, 0.000, 0.000, 16:58:30.814
109, -55662.32, -42489.64, 136088.17, 109836.18, 21895.43, -72398.15, -63844.31, 137503.91, 72008.09, 13904.95, 159714.83, -10666.90, 23459.16, -4541.40, 109214.42, -2672.60, 0.000, 0.000, 0.000, 16:58:30.814
110, -55662.32, -42489.64, 136088.17, 109836.18, 21895.43, -72398.15, -63844.31, 137503.91, 71978.52, 13874.13, 159703.77, -10700.07, 23419.08, -4571.16, 109325.98, -2694.77, 0.000, 0.000, 0.000, 16:58:30.814
111, -55661.74, -42483.67, 136087.25, 109832.47, 21897.20, -72400.41, -63843.35, 137481.16, 71978.52, 13874.13, 159703.77, -10700.07, 23419.08, -4571.16, 109325.98, -2694.77, 0.000, 0.000, 0.000, 16:58:30.815
112, -55661.74, -42483.67, 136087.25, 109832.47, 21897.20, -72400.41, -63843.35, 137481.16, 71994.79, 13883.83, 159703.19, -10683.04, 23433.30, -4549.74, 109441.16, -2685.16, 0.000, 0.000, 0.000, 16:58:30.815
113, -55674.91, -42493.59, 136096.53, 109832.80, 21887.59, -72397.56, -63867.58, 137491.47, 71994.79, 13883.83, 159703.19, -10683.04, 23433.30, -4549.74, 109441.16, -2685.16, 0.000, 0.000, 0.000, 16:58:30.815
114, -55674.91, -42493.59, 136096.53, 109832.80, 21887.59, -72397.56, -63867.58, 137491.47, 72006.37, 13891.79, 159718.81, -10675.21, 23446.35, -4542.52, 109557.70, -2662.74, 0.000, 0.000, 0.000, 16:58:30.815
115, -55679.31, -42498.55, 136105.47, 109827.98, 21884.57, -72404.23, -63823.59, 137488.53, 72006.37, 13891.79, 159718.81, -10675.21, 23446.35, -4542.52, 109557.70, -2662.74, 0.000, 0.000, 0.000, 16:58:30.815
116, -55679.31, -42498.55, 136105.47, 109827.98, 21884.57, -72404.23, -63823.59, 137488.53, 72001.88, 13880.14, 159720.33, -10686.44, 23436.12, -4559.08, 109672.95, -2660.89, -0.054, 0.888, 0.338, 16:58:30.815
117, -55677.39, -42495.96, 136098.92, 109819.41, 21896.97, -72405.86, -63803.19, 137492.03, 72001.88, 13880.14, 159720.33, -10686.44, 23436.12, -4559.08, 109672.95, -2660.89, 0.000, 0.000, 0.000, 16:58:30.816
118, -55677.39, -42495.96, 136098.92, 109819.41, 21896.97, -72405.86, -63803.19, 137492.03, 71988.35, 13862.15, 159708.69, -10707.60, 23410.28, -4579.56, 109783.95, -2681.11, 0.000, 0.000, 0.000, 16:58:30.816
119, -55675.73, -42494.71, 136090.47, 109816.20, 21908.40, -72415.49, -63806.67, 137484.91, 71988.35, 13862.15, 159708.69, -10707.60, 23410.28, -4579.56, 109783.95, -2681.11, 0.000, 0.000, 0.000, 16:58:30.816
120, -55675.73, -42494.71, 136090.47, 109816.20, 21908.40, -72415.49, -63806.67, 137484.91, 71972.93, 13832.96, 159699.45, -10734.16, 23382.43, -4606.43, 109897.35, -2710.10, 0.000, 0.000, 0.000, 16:58:30.816
121, -55665.03, -42485.61, 136090.98, 109824.17, 21916.82, -72404.98, -63790.07, 137494.38, 71972.93, 13832.96, 159699.45, -10734.16, 23382.43, -4606.43, 109897.35, -2710.10, 0.000, 0.000, 0.000, 16:58:31.269
122, -55665.03, -42485.61, 136090.98, 109824.17, 21916.82, -72404.98, -63790.07, 137494.38, 71977.63, 13845.45, 159695.88, -10718.09, 23385.11, -4588.37, 110010.45, -2692.96, 0.000, 0.000, 0.000, 16:58:31.269
123, -55680.18, -42499.47, 136096.45, 109824.91, 21898.52, -72396.11, -63799.66, 137499.34, 71977.63, 13845.45, 159695.88, -10718.09, 23385.11, -4588.37, 110010.45, -2692.96, 0.000, 0.000, 0.000, 16:58:31.269
124, -55680.18, -42499.47, 136096.45, 109824.91, 21898.52, -72396.11, -63799.66, 137499.34, 71990.63, 13860.20, 159707.28, -10708.54, 23401.43, -4580.07, 110121.34, -2677.94, 0.000, 0.000, 0.000, 16:58:31.269
125, -55683.76, -42501.30, 136098.22, 109819.75, 21897.60, -72401.59, -63773.13, 137489.20, 71990.63, 13860.20, 159707.28, -10708.54, 23401.43, -4580.07, 110121.34, -2677.94, 0.000, 0.000, 0.000, 16:58:31.270
126, -55683.76, -42501.30, 136098.22, 109819.75, 21897.60, -72401.59, -63773.13, 137489.20, 71981.53, 13856.16, 159710.03, -10716.45, 23392.04, -4594.38, 110227.89, -2682.90, -0.048, 0.886, 0.340, 16:58:31.270
127, -55653.23, -42474.46, 136103.59, 109819.19, 21927.26, -72406.80, -63763.00, 137494.98, 71981.53, 13856.16, 159710.03, -10716.45, 23392.04, -4594.38, 110227.89, -2682.90, 0.000, 0.000, 0.000, 16:58:31.270
128, -55653.23, -42474.46, 136103.59, 109819.19, 21927.26, -72406.80, -63763.00, 137494.98, 71951.09, 13817.78, 159692.75, -10748.82, 23352.90, -4621.89, 110336.55, -2719.98, 0.000, 0.000, 0.000, 16:58:31.270
129, -55676.34, -42495.56, 136098.38, 109823.51, 21907.93, -72403.42, -63808.02, 137481.91, 71951.09, 13817.78, 159692.75, -10748.82, 23352.90, -4621.89, 110336.55, -2719.98, 0.000, 0.000, 0.000, 16:58:31.270
130, -55676.34, -42495.56, 136098.38, 109823.51, 21907.93, -72403.42, -63808.02, 137481.91, 71991.70, 13863.16, 159708.47, -10700.36, 23396.42, -4569.77, 110447.38, -2686.61, 0.000, 0.000, 0.000, 16:58:31.270
131, -55683.63, -42503.05, 136108.34, 109828.09, 21902.16, -72396.09, -63783.18, 137497.22, 71991.70, 13863.16, 159708.47, -10700.36, 23396.42, -4569.77, 110447.38, -2686.61, 0.000, 0.000, 0.000, 16:58:31.270
132, -55683.63, -42503.05, 136108.34, 109828.09, 21902.16, -72396.09, -63783.18, 137497.22, 72009.67, 13892.93, 159729.14, -10675.10, 23415.04, -4551.58, 110555.81, -2664.04, 0.000, 0.000, 0.000, 16:58:31.271
133, -55692.30, -42505.15, 136111.41, 109828.91, 21898.21, -72394.17, -63814.16, 137493.52, 72009.67, 13892.93, 159729.14, -10675.10, 23415.04, -4551.58, 110555.81, -2664.04, 0.000, 0.000, 0.000, 16:58:31.271
134, -55692.30, -42505.15, 136111.41, 109828.91, 21898.21, -72394.17, -63814.16, 137493.52, 72028.65, 13912.64, 159753.09, -10657.02, 23432.92, -4538.77, 110664.29, -2648.30, 0.000, 0.000, 0.000, 16:58:31.271
135, -55687.25, -42495.07, 136123.84, 109828.60, 21909.40, -72391.06, -63789.06, 137510.44, 72028.65, 13912.64, 159753.09, -10657.02, 23432.92, -4538.77, 110664.29, -2648.30, 0.000, 0.000, 0.000, 16:58:31.271
136, -55687.25, -42495.07, 136123.84, 109828.60, 21909.40, -72391.06, -63789.06, 137510.44, 72030.64, 13911.66, 159771.83, -10651.37, 23437.17, -4537.05, 110772.83, -2636.21, -0.052, 0.884, 0.336, 16:58:31.271
137, -55689.04, -42491.34, 136124.38, 109823.21, 21911.73, -72390.46, -63771.27, 137500.13, 72030.64, 13911.66, 159771.83, -10651.37, 23437.17, -4537.05, 110772.83, -2636.21, 0.000, 0.000, 0.000, 16:58:31.271
138, -55689.04, -42491.34, 136124.38, 109823.21, 21911.73, -72390.46, -63771.27, 137500.13, 72041.97, 13914.36, 159789.83, -10646.67, 23435.74, -4537.67, 110884.81, -2633.68, 0.000, 0.000, 0.000, 16:58:31.272
139, -55671.87, -42473.81, 136123.64, 109808.02, 21930.48, -72400.41, -63779.25, 137490.98, 72041.97, 13914.36, 159789.83, -10646.67, 23435.74, -4537.67, 110884.81, -2633.68, 0.000, 0.000, 0.000, 16:58:31.272
140, -55671.87, -42473.81, 136123.64, 109808.02, 21930.48, -72400.41, -63779.25, 137490.98, 71997.31, 13865.66, 159772.39, -10708.47, 23374.80, -4590.20, 110994.06, -2677.76, 0.000, 0.000, 0.000, 16:58:31.272
141, -55676.85, -42474.17, 136109.52, 109795.56, 21924.65, -72404.72, -63799.05, 137481.50, 71997.31, 13865.66, 159772.39, -10708.47, 23374.80, -4590.20, 110994.06, -2677.76, 0.000, 0.000, 0.000, 16:58:31.272
142, -55676.85, -42474.17, 136109.52, 109795.56, 21924.65, -72404.72, -63799.05, 137481.50, 72000.84, 13863.54, 159760.78, -10710.15, 23375.59, -4582.46, 111100.82, -2690.35, 0.000, 0.000, 0.000, 16:58:31.272
143, -55688.09, -42480.11, 136114.47, 109798.47, 21914.43, -72401.74, -63808.06, 137489.64, 72000.84, 13863.54, 159760.78, -10710.15, 23375.59, -4582.46, 111100.82, -2690.35, 0.000, 0.000, 0.000, 16:58:31.272
144, -55688.09, -42480.11, 136114.47, 109798.47, 21914.43, -72401.74, -63808.06, 137489.64, 72003.62, 13876.86, 159761.13, -10701.86, 23377.49, -4576.77, 111210.68, -2675.66, 0.000, 0.000, 0.000, 16:58:31.273
145, -55688.30, -42479.31, 136124.95, 109804.38, 21912.49, -72395.51, -63786.24, 137498.45, 72003.62, 13876.86, 159761.13, -10701.86, 23377.49, -4576.77, 111210.68, -2675.66, 0.000, 0.000, 0.000, 16:58:31.273
146, -55688.30, -42479.31, 136124.95, 109804.38, 21912.49, -72395.51, -63786.24, 137498.45, 71996.84, 13877.35, 159765.86, -10702.33, 23372.17, -4573.79, 111323.89, -2666.88, -0.052, 0.882, 0.346, 16:58:31.273
147, -55673.97, -42462.48, 136135.94, 109804.86, 21926.64, -72396.56, -63752.78, 137491.78, 71996.84, 13877.35, 159765.86, -10702.33, 23372.17, -4573.79, 111323.89, -2666.88, 0.000, 0.000, 0.000, 16:58:31.273
148, -55673.97, -42462.48, 136135.94, 109804.86, 21926.64, -72396.56, -63752.78, 137491.78, 71980.05, 13852.14, 159752.98, -10726.62, 23352.28, -4594.04, 111436.49, -2701.90, 0.000, 0.000, 0.000, 16:58:31.273
149, -55687.78, -42476.49, 136129.86, 109799.90, 21914.28, -72397.30, -63774.11, 137488.13, 71980.05, 13852.14, 159752.98, -10726.62, 23352.28, -4594.04, 111436.49, -2701.90, 0.000, 0.000, 0.000, 16:58:31.273
150, -55687.78, -42476.49, 136129.86, 109799.90, 21914.28, -72397.30, -63774.11, 137488.13, 71993.67, 13859.96, 159755.02, -10723.83, 23363.47, -4581.41, 111545.62, -2690.03, 0.000, 0.000, 0.000, 16:58:31.273
151, -55686.22, -42480.45, 136128.73, 109795.59, 21923.53, -72399.98, -63780.63, 137492.19, 71993.67, 13859.96, 159755.02, -10723.83, 23363.47, -4581.41, 111545.62, -2690.03, 0.000, 0.000, 0.000, 16:58:31.274
152, -55686.22, -42480.45, 136128.73, 109795.59, 21923.53, -72399.98, -63780.63, 137492.19, 71972.88, 13844.85, 159748.16, -10749.20, 23335.80, -4600.86, 111656.03, -2710.28, 0.000, 0.000, 0.000, 16:58:31.274
153, -55674.28, -42472.18, 136126.95, 109798.20, 21931.91, -72397.41, -63799.10, 137494.98, 71972.88, 13844.85, 159748.16, -10749.20, 23335.80, -4600.86, 111656.03, -2710.28, 0.000, 0.000, 0.000, 16:58:31.274
154, -55674.28, -42472.18, 136126.95, 109798.20, 21931.91, -72397.41, -63799.10, 137494.98, 71971.27, 13851.93, 159739.83, -10748.42, 23341.66, -4593.91, 111769.27, -2711.40, 0.000, 0.000, 0.000, 16:58:31.274
155, -55674.55, -42480.05, 136142.73, 109805.53, 21925.21, -72389.79, -63767.96, 137504.28, 71971.27, 13851.93, 159739.83, -10748.42, 23341.66, -4593.91, 111769.27, -2711.40, 0.000, 0.000, 0.000, 16:58:31.274
156, -55674.55, -42480.05, 136142.73, 109805.53, 21925.21, -72389.79, -63767.96, 137504.28, 71970.00, 13856.45, 159746.48, -10746.54, 23347.51, -4590.38, 111882.84, -2697.99, -0.052, 0.890, 0.348, 16:58:31.274
157, -55659.64, -42477.25, 136149.25, 109797.29, 21928.60, -72399.58, -63765.10, 137500.19, 71970.00, 13856.45, 159746.48, -10746.54, 23347.51, -4590.38, 111882.84, -2697.99, 0.000, 0.000, 0.000, 16:58:31.275
158, -55659.64, -42477.25, 136149.25, 109797.29, 21928.60, -72399.58, -63765.10, 137500.19, 71957.88, 13837.50, 159741.94, -10768.38, 23327.29, -4608.17, 111991.87, -2718.87, 0.000, 0.000, 0.000, 16:58:31.275
159, -55638.41, -42471.55, 136145.98, 109783.12, 21934.39, -72415.41, -63789.24, 137493.83, 71957.88, 13837.50, 159741.94, -10768.38, 23327.29, -4608.17, 111991.87, -2718.87, 0.000, 0.000, 0.000, 16:58:31.275
160, -55638.41, -42471.55, 136145.98, 109783.12, 21934.39, -72415.41, -63789.24, 137493.83, 71954.02, 13825.25, 159731.58, -10782.57, 23327.33, -4615.75, 112105.20, -2747.63, 0.000, 0.000, 0.000, 16:58:31.275
161, -55633.20, -42482.20, 136146.81, 109774.24, 21925.92, -72414.04, -63802.27, 137491.75, 71954.02, 13825.25, 159731.58, -10782.57, 23327.33, -4615.75, 112105.20, -2747.63, 0.000, 0.000, 0.000, 16:58:31.275
162, -55633.20, -42482.20, 136146.81, 109774.24, 21925.92, -72414.04, -63802.27, 137491.75, 71969.13, 13837.92, 159734.97, -10774.30, 23343.18, -4599.16, 112220.17, -2742.69, 0.000, 0.000, 0.000, 16:58:31.275
163, -55629.24, -42491.18, 136150.94, 109772.81, 21910.34, -72411.91, -63798.96, 137488.19, 71969.13, 13837.92, 159734.97, -10774.30, 23343.18, -4599.16, 112220.17, -2742.69, 0.000, 0.000, 0.000, 16:58:31.276
164, -55629.24, -42491.18, 136150.94, 109772.81, 21910.34, -72411.91, -63798.96, 137488.19, 71985.38, 13861.66, 159753.23, -10753.65, 23373.44, -4573.75, 112337.56, -2721.82, 0.000, 0.000, 0.000, 16:58:31.276
165, -55604.61, -42484.18, 136159.42, 109774.40, 21915.39, -72403.47, -63793.31, 137501.95, 71985.38, 13861.66, 159753.23, -10753.65, 23373.44, -4573.75, 112337.56, -2721.82, 0.000, 0.000, 0.000, 16:58:31.276
166, -55604.61, -42484.18, 136159.42, 109774.40, 21915.39, -72403.47, -63793.31, 137501.95, 71980.70, 13858.75, 159763.41, -10764.42, 23367.92, -4575.07, 112449.97, -2720.30, -0.044, 0.884, 0.348, 16:58:31.276
167, -55585.43, -42484.85, 136151.52, 109764.27, 21910.56, -72408.36, -63825.70, 137490.02, 71980.70, 13858.75, 159763.41, -10764.42, 23367.92, -4575.07, 112449.97, -2720.30, 0.000, 0.000, 0.000, 16:58:31.276
168, -55585.43, -42484.85, 136151.52, 109764.27, 21910.56, -72408.36, -63825.70, 137490.02, 71988.98, 13864.76, 159769.59, -10760.93, 23371.14, -4564.74, 112565.46, -2718.49, 0.000, 0.000, 0.000, 16:58:31.277
169, -55567.98, -42481.34, 136151.09, 109764.43, 21906.83, -72401.92, -63826.86, 137501.00, 71988.98, 13864.76, 159769.59, -10760.93, 23371.14, -4564.74, 112565.46, -2718.49, 0.000, 0.000, 0.000, 16:58:31.277
170, -55567.98, -42481.34, 136151.09, 109764.43, 21906.83, -72401.92, -63826.86, 137501.00, 71972.41, 13856.40, 159767.17, -10779.08, 23346.51, -4580.48, 112686.38, -2715.27, 0.000, 0.000, 0.000, 16:58:31.279
171, -55546.39, -42466.75, 136155.69, 109759.89, 21922.03, -72408.16, -63798.71, 137492.48, 71972.41, 13856.40, 159767.17, -10779.08, 23346.51, -4580.48, 112686.38, -2715.27, 0.000, 0.000, 0.000, 16:58:31.279
172, -55546.39, -42466.75, 136155.69, 109759.89, 21922.03, -72408.16, -63798.71, 137492.48, 71966.96, 13843.35, 159755.73, -10790.21, 23337.23, -4587.47, 112808.22, -2719.98, 0.000, 0.000, 0.000, 16:58:31.280
173, -55543.46, -42471.06, 136155.88, 109754.80, 21923.44, -72410.77, -63813.89, 137485.03, 71966.96, 13843.35, 159755.73, -10790.21, 23337.23, -4587.47, 112808.22, -2719.98, 0.000, 0.000, 0.000, 16:58:31.280
174, -55543.46, -42471.06, 136155.88, 109754.80, 21923.44, -72410.77, -63813.89, 137485.03, 71949.91, 13824.11, 159749.61, -10807.07, 23319.44, -4610.11, 112929.81, -2751.63, 0.000, 0.000, 0.000, 16:58:31.280
175, -55523.41, -42460.02, 136157.75, 109749.23, 21937.57, -72418.63, -63806.09, 137491.45, 71949.91, 13824.11, 159749.61, -10807.07, 23319.44, -4610.11, 112929.81, -2751.63, 0.000, 0.000, 0.000, 16:58:31.281
176, -55523.41, -42460.02, 136157.75, 109749.23, 21937.57, -72418.63, -63806.09, 137491.45, 71924.96, 13798.31, 159732.42, -10833.26, 23286.61, -4634.16, 113049.95, -2774.90, -0.048, 0.882, 0.348, 16:58:31.281
177, -55517.91, -42457.52, 136160.86, 109756.27, 21932.02, -72407.29, -63819.88, 137492.91, 71924.96, 13798.31, 159732.42, -10833.26, 23286.61, -4634.16, 113049.95, -2774.90, 0.000, 0.000, 0.000, 16:58:31.281
178, -55517.91, -42457.52, 136160.86, 109756.27, 21932.02, -72407.29, -63819.88, 137492.91, 71952.30, 13831.17, 159734.41, -10800.41, 23313.49, -4594.60, 113170.72, -2748.55, 0.000, 0.000, 0.000, 16:58:31.281
179, -55533.24, -42479.15, 136160.52, 109758.30, 21905.47, -72403.42, -63797.11, 137493.48, 71952.30, 13831.17, 159734.41, -10800.41, 23313.49, -4594.60, 113170.72, -2748.55, 0.000, 0.000, 0.000, 16:58:31.281
180, -55533.24, -42479.15, 136160.52, 109758.30, 21905.47, -72403.42, -63797.11, 137493.48, 71954.45, 13834.41, 159747.70, -10802.91, 23309.92, -4600.26, 113290.08, -2749.33, 0.000, 0.000, 0.000, 16:58:31.282
181, -55517.15, -42464.96, 136158.02, 109751.27, 21914.57, -72408.48, -63804.08, 137494.27, 71954.45, 13834.41, 159747.70, -10802.91, 23309.92, -4600.26, 113290.08, -2749.33, 0.000, 0.000, 0.000, 16:58:31.282
182, -55517.15, -42464.96, 136158.02, 109751.27, 21914.57, -72408.48, -63804.08, 137494.27, 71938.93, 13809.35, 159737.67, -10827.16, 23286.47, -4620.49, 113411.49, -2771.15, 0.000, 0.000, 0.000, 16:58:31.282
183, -55522.27, -42469.30, 136160.25, 109747.82, 21907.99, -72410.69, -63796.88, 137485.69, 71938.93, 13809.35, 159737.67, -10827.16, 23286.47, -4620.49, 113411.49, -2771.15, 0.000, 0.000, 0.000, 16:58:31.282
184, -55522.27, -42469.30, 136160.25, 109747.82, 21907.99, -72410.69, -63796.88, 137485.69, 71934.73, 13811.48, 159734.55, -10827.56, 23278.07, -4622.72, 113534.92, -2772.89, 0.000, 0.000, 0.000, 16:58:31.282
185, -55514.27, -42462.39, 136153.95, 109741.36, 21909.22, -72412.56, -63808.84, 137481.31, 71934.73, 13811.48, 159734.55, -10827.56, 23278.07, -4622.72, 113534.92, -2772.89, 0.000, 0.000, 0.000, 16:58:31.283
186, -55514.27, -42462.39, 136153.95, 109741.36, 21909.22, -72412.56, -63808.84, 137481.31, 71934.37, 13805.17, 159728.80, -10836.55, 23269.37, -4624.44, 113658.37, -2788.11, -0.052, 0.892, 0.344, 16:58:31.283
187, -55519.52, -42469.09, 136154.33, 109734.97, 21894.76, -72416.77, -63816.39, 137484.08, 71934.37, 13805.17, 159728.80, -10836.55, 23269.37, -4624.44, 113658.37, -2788.11, 0.000, 0.000, 0.000, 16:58:31.283
188, -55519.52, -42469.09, 136154.33, 109734.97, 21894.76, -72416.77, -63816.39, 137484.08, 71942.20, 13813.22, 159728.67, -10834.61, 23280.95, -4616.62, 113782.40, -2785.54, 0.000, 0.000, 0.000, 16:58:31.283
189, -55516.99, -42467.29, 136159.48, 109736.13, 21895.52, -72413.66, -63807.61, 137483.55, 71942.20, 13813.22, 159728.67, -10834.61, 23280.95, -4616.62, 113782.40, -2785.54, 0.000, 0.000, 0.000, 16:58:31.283
190, -55516.99, -42467.29, 136159.48, 109736.13, 21895.52, -72413.66, -63807.61, 137483.55, 71905.36, 13786.76, 159719.45, -10872.98, 23237.74, -4654.77, 113906.20, -2805.93, 0.000, 0.000, 0.000, 16:58:31.283
191, -55507.20, -42455.82, 136160.88, 109728.06, 21903.41, -72410.22, -63818.36, 137487.03, 71905.36, 13786.76, 159719.45, -10872.98, 23237.74, -4654.77, 113906.20, -2805.93, 0.000, 0.000, 0.000, 16:58:31.284
192, -55507.20, -42455.82, 136160.88, 109728.06, 21903.41, -72410.22, -63818.36, 137487.03, 71930.23, 13818.25, 159721.61, -10838.23, 23267.18, -4622.92, 114030.46, -2797.52, 0.000, 0.000, 0.000, 16:58:31.284
193, -55512.66, -42461.81, 136171.97, 109725.42, 21898.45, -72405.08, -63810.54, 137487.98, 71930.23, 13818.25, 159721.61, -10838.23, 23267.18, -4622.92, 114030.46, -2797.52, 0.000, 0.000, 0.000, 16:58:31.284
194, -55512.66, -42461.81, 136171.97, 109725.42, 21898.45, -72405.08, -63810.54, 137487.98, 71940.74, 13826.95, 159736.13, -10832.42, 23277.66, -4618.09, 114157.73, -2783.84, 0.000, 0.000, 0.000, 16:58:31.284
195, -55516.66, -42468.52, 136177.64, 109721.65, 21901.65, -72412.16, -63780.70, 137485.59, 71940.74, 13826.95, 159736.13, -10832.42, 23277.66, -4618.09, 114157.73, -2783.84, 0.000, 0.000, 0.000, 16:58:31.285
196, -55516.66, -42468.52, 136177.64, 109721.65, 21901.65, -72412.16, -63780.70, 137485.59, 71936.47, 13817.04, 159748.42, -10849.47, 23268.52, -4630.32, 114280.48, -2782.97, -0.054, 0.886, 0.340, 16:58:31.285
197, -55507.58, -42461.70, 136175.25, 109713.42, 21912.31, -72419.27, -63804.71, 137480.91, 71936.47, 13817.04, 159748.42, -10849.47, 23268.52, -4630.32, 114280.48, -2782.97, 0.000, 0.000, 0.000, 16:58:31.285
198, -55507.58, -42461.70, 136175.25, 109713.42, 21912.31, -72419.27, -63804.71, 137480.91, 71914.81, 13785.06, 159732.20, -10876.16, 23237.30, -4655.00, 114404.23, -2807.07, 0.000, 0.000, 0.000, 16:58:31.285
199, -55516.39, -42467.66, 136170.95, 109713.02, 21903.41, -72417.95, -63820.29, 137477.22, 71914.81, 13785.06, 159732.20, -10876.16, 23237.30, -4655.00, 114404.23, -2807.07, 0.000, 0.000, 0.000, 16:58:31.285
200, -55516.39, -42467.66, 136170.95, 109713.02, 21903.41, -72417.95, -63820.29, 137477.22, 71933.45, 13801.40, 159733.73, -10861.00, 23258.91, -4632.56, 114529.89, -2786.44, 0.000, 0.000, 0.000, 16:58:31.286
201, -55523.30, -42475.38, 136173.84, 109710.23, 21903.59, -72418.35, -63799.61, 137479.47, 71933.45, 13801.40, 159733.73, -10861.00, 23258.91, -4632.56, 114529.89, -2786.44, 0.000, 0.000, 0.000, 16:58:31.286
202, -55523.30, -42475.38, 136173.84, 109710.23, 21903.59, -72418.35, -63799.61, 137479.47, 71959.29, 13819.37, 159748.41, -10839.39, 23289.09, -4604.68, 114657.20, -2758.74, 0.000, 0.000, 0.000, 16:58:31.286
203, -55526.92, -42476.02, 136183.39, 109706.74, 21905.27, -72416.32, -63789.69, 137482.77, 71959.29, 13819.37, 159748.41, -10839.39, 23289.09, -4604.68, 114657.20, -2758.74, 0.000, 0.000, 0.000, 16:58:31.286
204, -55526.92, -42476.02, 136183.39, 109706.74, 21905.27, -72416.32, -63789.69, 137482.77, 71936.72, 13801.42, 159753.02, -10866.17, 23264.52, -4632.62, 114782.22, -2772.69, 0.000, 0.000, 0.000, 16:58:31.286
205, -55504.41, -42454.86, 136181.91, 109700.08, 21932.00, -72420.25, -63812.57, 137475.83, 71936.72, 13801.42, 159753.02, -10866.17, 23264.52, -4632.62, 114782.22, -2772.69, -0.050, 0.888, 0.338, 16:58:31.286
206, -55504.41, -42454.86, 136181.91, 109700.08, 21932.00, -72420.25, -63812.57, 137475.83, 71900.71, 13763.22, 159729.22, -10906.78, 23217.81, -4671.47, 114903.66, -2817.12, 0.000, 0.000, 0.000, 16:58:31.287
207, -55506.64, -42459.37, 136183.83, 109701.09, 21932.04, -72422.38, -63801.44, 137476.72, 71900.71, 13763.22, 159729.22, -10906.78, 23217.81, -4671.47, 114903.66, -2817.12, 0.000, 0.000, 0.000, 16:58:31.287
208, -55506.64, -42459.37, 136183.83, 109701.09, 21932.04, -72422.38, -63801.44, 137476.72, 71915.33, 13780.03, 159725.88, -10895.49, 23234.91, -4655.71, 115027.93, -2819.05, 0.000, 0.000, 0.000, 16:58:31.287
209, -55518.71, -42472.38, 136187.67, 109699.67, 21918.14, -72419.23, -63806.74, 137484.38, 71915.33, 13780.03, 159725.88, -10895.49, 23234.91, -4655.71, 115027.93, -2819.05, 0.000, 0.000, 0.000, 16:58:31.287
210, -55518.71, -42472.38, 136187.67, 109699.67, 21918.14, -72419.23, -63806.74, 137484.38, 71928.25, 13795.97, 159737.72, -10885.92, 23248.32, -4643.22, 115154.66, -2799.00, 0.000, 0.000, 0.000, 16:58:31.288
211, -55523.95, -42474.48, 136186.45, 109698.47, 21912.44, -72418.40, -63831.62, 137477.53, 71928.25, 13795.97, 159737.72, -10885.92, 23248.32, -4643.22, 115154.66, -2799.00, 0.000, 0.000, 0.000, 16:58:31.288
212, -55523.95, -42474.48, 136186.45, 109698.47, 21912.44, -72418.40, -63831.62, 137477.53, 71942.04, 13809.91, 159748.16, -10875.29, 23257.84, -4628.49, 115278.65, -2791.76, 0.000, 0.000, 0.000, 16:58:31.288
213, -55514.38, -42465.39, 136192.06, 109702.20, 21923.22, -72422.00, -63821.11, 137476.52, 71942.04, 13809.91, 159748.16, -10875.29, 23257.84, -4628.49, 115278.65, -2791.76, 0.000, 0.000, 0.000, 16:58:31.288
214, -55514.38, -42465.39, 136192.06, 109702.20, 21923.22, -72422.00, -63821.11, 137476.52, 71907.52, 13774.53, 159736.42, -10915.23, 23214.23, -4664.63, 115401.45, -2821.77, 0.000, 0.000, 0.000, 16:58:31.288
215, -55509.57, -42463.11, 136186.06, 109695.16, 21924.13, -72420.12, -63822.27, 137471.98, 71907.52, 13774.53, 159736.42, -10915.23, 23214.23, -4664.63, 115401.45, -2821.77, -0.054, 0.886, 0.338, 16:58:31.288
216, -55509.57, -42463.11, 136186.06, 109695.16, 21924.13, -72420.12, -63822.27, 137471.98, 71927.55, 13789.51, 159732.53, -10903.29, 23228.98, -4645.12, 115526.13, -2807.27, 0.000, 0.000, 0.000, 16:58:31.289
217, -55524.88, -42478.59, 136191.95, 109693.80, 21906.65, -72415.72, -63826.48, 137473.14, 71927.55, 13789.51, 159732.53, -10903.29, 23228.98, -4645.12, 115526.13, -2807.27, 0.000, 0.000, 0.000, 16:58:31.289
218, -55524.88, -42478.59, 136191.95, 109693.80, 21906.65, -72415.72, -63826.48, 137473.14, 71922.05, 13783.18, 159741.70, -10915.34, 23212.46, -4655.80, 115653.82, -2801.86, 0.000, 0.000, 0.000, 16:58:31.289
219, -55519.45, -42471.24, 136186.16, 109685.10, 21921.05, -72427.47, -63836.67, 137465.69, 71922.05, 13783.18, 159741.70, -10915.34, 23212.46, -4655.80, 115653.82, -2801.86, 0.000, 0.000, 0.000, 16:58:31.289
220, -55519.45, -42471.24, 136186.16, 109685.10, 21921.05, -72427.47, -63836.67, 137465.69, 71898.07, 13750.35, 159724.52, -10952.51, 23180.05, -4687.27, 115777.38, -2839.63, 0.000, 0.000, 0.000, 16:58:31.289
221, -55526.07, -42474.19, 136179.09, 109685.55, 21917.45, -72422.33, -63864.74, 137460.94, 71898.07, 13750.35, 159724.52, -10952.51, 23180.05, -4687.27, 115777.38, -2839.63, 0.000, 0.000, 0.000, 16:58:31.289
222, -55526.07, -42474.19, 136179.09, 109685.55, 21917.45, -72422.33, -63864.74, 137460.94, 71901.89, 13756.69, 159717.52, -10944.33, 23178.45, -4677.10, 115898.20, -2843.70, 0.000, 0.000, 0.000, 16:58:31.289
223, -55523.39, -42469.61, 136187.52, 109690.66, 21923.15, -72416.59, -63841.30, 137478.83, 71901.89, 13756.69, 159717.52, -10944.33, 23178.45, -4677.10, 115898.20, -2843.70, 0.000, 0.000, 0.000, 16:58:31.290
224, -55523.39, -42469.61, 136187.52, 109690.66, 21923.15, -72416.59, -63841.30, 137478.83, 71908.29, 13771.11, 159721.06, -10934.05, 23188.82, -4664.47, 116019.30, -2839.39, 0.000, 0.000, 0.000, 16:58:31.290
225, -55541.42, -42483.71, 136195.36, 109692.70, 21905.83, -72413.68, -63836.22, 137463.05, 71908.29, 13771.11, 159721.06, -10934.05, 23188.82, -4664.47, 116019.30, -2839.39, -0.044, 0.882, 0.344, 16:58:31.290
226, -55541.42, -42483.71, 136195.36, 109692.70, 21905.83, -72413.68, -63836.22, 137463.05, 71925.61, 13792.01, 159737.34, -10925.49, 23195.10, -4653.72, 116142.84, -2823.56, 0.000, 0.000, 0.000, 16:58:31.290
227, -55532.95, -42477.93, 136191.67, 109680.19, 21922.37, -72424.39, -63841.32, 137461.77, 71925.61, 13792.01, 159737.34, -10925.49, 23195.10, -4653.72, 116142.84, -2823.56, 0.000, 0.000, 0.000, 16:58:31.290
228, -55532.95, -42477.93, 136191.67, 109680.19, 21922.37, -72424.39, -63841.32, 137461.77, 71897.05, 13759.11, 159730.34, -10960.54, 23162.22, -4690.71, 116265.23, -2840.41, 0.000, 0.000, 0.000, 16:58:31.291
229, -55528.75, -42474.55, 136189.05, 109675.42, 21934.93, -72426.09, -63825.92, 137468.23, 71897.05, 13759.11, 159730.34, -10960.54, 23162.22, -4690.71, 116265.23, -2840.41, 0.000, 0.000, 0.000, 16:58:31.291
230, -55528.75, -42474.55, 136189.05, 109675.42, 21934.93, -72426.09, -63825.92, 137468.23, 71896.71, 13760.90, 159717.41, -10964.94, 23158.78, -4684.43, 116384.28, -2841.89, 0.000, 0.000, 0.000, 16:58:31.291
231, -55535.52, -42478.86, 136186.67, 109675.85, 21930.30, -72425.35, -63836.87, 137466.00, 71896.71, 13760.90, 159717.41, -10964.94, 23158.78, -4684.43, 116384.28, -2841.89, 0.000, 0.000, 0.000, 16:58:31.291
232, -55535.52, -42478.86, 136186.67, 109675.85, 21930.30, -72425.35, -63836.87, 137466.00, 71894.61, 13756.98, 159716.33, -10975.11, 23154.66, -4689.60, 116507.19, -2846.61, 0.000, 0.000, 0.000, 16:58:31.292
233, -55549.02, -42489.73, 136182.48, 109674.35, 21915.82, -72428.52, -63830.30, 137459.89, 71894.61, 13756.98, 159716.33, -10975.11, 23154.66, -4689.60, 116507.19, -2846.61, 0.000, 0.000, 0.000, 16:58:31.292
234, -55549.02, -42489.73, 136182.48, 109674.35, 21915.82, -72428.52, -63830.30, 137459.89, 71937.32, 13799.18, 159739.69, -10925.26, 23199.54, -4639.15, 116630.86, -2812.48, 0.000, 0.000, 0.000, 16:58:31.292
235, -55564.33, -42502.42, 136189.22, 109679.54, 21897.36, -72416.63, -63828.98, 137473.28, 71937.32, 13799.18, 159739.69, -10925.26, 23199.54, -4639.15, 116630.86, -2812.48, -0.044, 0.886, 0.342, 16:58:31.293
236, -55564.33, -42502.42, 136189.22, 109679.54, 21897.36, -72416.63, -63828.98, 137473.28, 71942.24, 13810.32, 159762.11, -10924.68, 23202.12, -4631.91, 116751.45, -2785.16, 0.000, 0.000, 0.000, 16:58:31.293
237, -55524.88, -42466.79, 136194.89, 109670.08, 21943.31, -72419.88, -63812.26, 137460.70, 71942.24, 13810.32, 159762.11, -10924.68, 23202.12, -4631.91, 116751.45, -2785.16, 0.000, 0.000, 0.000, 16:58:31.294
238, -55524.88, -42466.79, 136194.89, 109670.08, 21943.31, -72419.88, -63812.26, 137460.70, 71888.66, 13750.30, 159733.14, -10987.49, 23138.62, -4689.53, 116866.72, -2846.58, 0.000, 0.000, 0.000, 16:58:31.294
239, -55520.39, -42461.74, 136197.17, 109673.77, 21942.71, -72412.38, -63833.50, 137474.48, 71888.66, 13750.30, 159733.14, -10987.49, 23138.62, -4689.53, 116866.72, -2846.58, 0.000, 0.000, 0.000, 16:58:31.294
240, -55520.39, -42461.74, 136197.17, 109673.77, 21942.71, -72412.38, -63833.50, 137474.48, 71886.65, 13756.02, 159723.55, -10979.62, 23141.07, -4686.13, 116984.78, -2839.79, 0.000, 0.000, 0.000, 16:58:31.294
241, -55531.34, -42472.54, 136207.80, 109686.65, 21926.37, -72405.16, -63826.12, 137479.70, 71886.65, 13756.02, 159723.55, -10979.62, 23141.07, -4686.13, 116984.78, -2839.79, 0.000, 0.000, 0.000, 16:58:31.748
242, -55531.34, -42472.54, 136207.80, 109686.65, 21926.37, -72405.16, -63826.12, 137479.70, 71898.43, 13774.46, 159736.64, -10964.29, 23153.52, -4673.46, 117105.03, -2823.72, 0.000, 0.000, 0.000, 16:58:31.748
243, -55514.73, -42462.86, 136213.22, 109675.70, 21936.16, -72410.46, -63822.23, 137482.52, 71898.43, 13774.46, 159736.64, -10964.29, 23153.52, -4673.46, 117105.03, -2823.72, 0.000, 0.000, 0.000, 16:58:31.749
244, -55514.73, -42462.86, 136213.22, 109675.70, 21936.16, -72410.46, -63822.23, 137482.52, 71880.39, 13746.37, 159733.56, -10992.21, 23124.89, -4699.23, 117224.16, -2845.44, 0.000, 0.000, 0.000, 16:58:31.749
245, -55520.48, -42469.68, 136206.11, 109669.23, 21932.76, -72416.32, -63867.85, 137462.59, 71880.39, 13746.37, 159733.56, -10992.21, 23124.89, -4699.23, 117224.16, -2845.44, -0.042, 0.876, 0.350, 16:58:31.749
246, -55520.48, -42469.68, 136206.11, 109669.23, 21932.76, -72416.32, -63867.85, 137462.59, 71879.03, 13752.83, 159727.23, -10992.79, 23123.53, -4697.51, 117339.95, -2852.15, 0.000, 0.000, 0.000, 16:58:31.749
247, -55519.72, -42467.55, 136215.75, 109676.23, 21942.21, -72405.86, -63832.27, 137475.05, 71879.03, 13752.83, 159727.23, -10992.79, 23123.53, -4697.51, 117339.95, -2852.15, 0.000, 0.000, 0.000, 16:58:31.749
248, -55519.72, -42467.55, 136215.75, 109676.23, 21942.21, -72405.86, -63832.27, 137475.05, 71887.97, 13767.71, 159730.50, -10979.24, 23133.27, -4680.34, 117455.53, -2836.32, 0.000, 0.000, 0.000, 16:58:31.750
249, -55523.79, -42471.91, 136220.05, 109677.95, 21942.80, -72401.39, -63791.59, 137477.94, 71887.97, 13767.71, 159730.50, -10979.24, 23133.27, -4680.34, 117455.53, -2836.32, 0.000, 0.000, 0.000, 16:58:31.750
250, -55523.79, -42471.91, 136220.05, 109677.95, 21942.80, -72401.39, -63791.59, 137477.94, 71869.48, 13758.06, 159736.84, -11001.73, 23114.07, -4702.49, 117575.54, -2835.36, 0.000, 0.000, 0.000, 16:58:31.750
251, -55491.69, -42445.43, 136220.06, 109669.50, 21977.58, -72406.84, -63793.24, 137470.91, 71869.48, 13758.06, 159736.84, -11001.73, 23114.07, -4702.49, 117575.54, -2835.36, 0.000, 0.000, 0.000, 16:58:31.750
252, -55491.69, -42445.43, 136220.06, 109669.50, 21977.58, -72406.84, -63793.24, 137470.91, 71851.16, 13722.41, 159715.28, -11026.70, 23091.07, -4728.91, 117691.03, -2866.86, 0.000, 0.000, 0.000, 16:58:31.750
253, -55529.82, -42483.45, 136220.52, 109675.20, 21941.81, -72399.60, -63843.46, 137488.44, 71851.16, 13722.41, 159715.28, -11026.70, 23091.07, -4728.91, 117691.03, -2866.86, 0.000, 0.000, 0.000, 16:58:31.750
254, -55529.82, -42483.45, 136220.52, 109675.20, 21941.81, -72399.60, -63843.46, 137488.44, 71905.91, 13787.52, 159746.44, -10962.97, 23158.42, -4667.40, 117805.09, -2812.34, 0.000, 0.000, 0.000, 16:58:31.751
255, -55534.61, -42489.21, 136229.52, 109673.57, 21949.79, -72404.18, -63806.90, 137466.48, 71905.91, 13787.52, 159746.44, -10962.97, 23158.42, -4667.40, 117805.09, -2812.34, -0.042, 0.874, 0.354, 16:58:31.751
0, -55534.61, -42489.21, 136229.52, 109673.57, 21949.79, -72404.18, -63806.90, 137466.48, 71913.12, 13786.53, 159764.86, -10963.66, 23159.16, -4671.87, 117924.05, -2809.59, 0.000, 0.000, 0.000, 16:58:31.751
1, -55526.36, -42482.84, 136227.48, 109671.42, 22073.22, -72400.74, -63808.84, 137474.72, 71913.12, 13786.53, 159764.86, -10963.66, 23159.16, -4671.87, 117924.05, -2809.59, 0.000, 0.000, 0.000, 16:58:31.751
2, -55526.36, -42482.84, 136227.48, 109671.42, 22073.22, -72400.74, -63808.84, 137474.72, 71890.34, 13770.19, 159769.22, -10988.01, 23127.42, -4694.29, 118046.09, -2821.80, 0.000, 0.000, 0.000, 16:58:31.751
3, -55505.17, -42461.23, 136230.53, 109670.30, 22235.18, -72400.29, -63815.77, 137469.64, 71890.34, 13770.19, 159769.22, -10988.01, 23127.42, -4694.29, 118046.09, -2821.80, 0.000, 0.000, 0.000, 16:58:31.751
4, -55505.17, -42461.23, 136230.53, 109670.30, 22235.18, -72400.29, -63815.77, 137469.64, 71877.69, 13753.61, 159758.95, -11005.24, 23106.23, -4711.03, 118163.14, -2847.66, 0.000, 0.000, 0.000, 16:58:31.752
5, -55512.43, -42465.52, 136227.95, 109666.04, 22307.85, -72401.97, -63833.27, 137464.55, 71877.69, 13753.61, 159758.95, -11005.24, 23106.23, -4711.03, 118163.14, -2847.66, 0.000, 0.000, 0.000, 16:58:31.752
6, -55512.43, -42465.52, 136227.95, 109666.04, 22307.85, -72401.97, -63833.27, 137464.55, 71878.09, 13749.61, 159758.80, -11007.76, 23099.12, -4712.66, 118277.54, -2860.96, 0.000, 0.000, 0.000, 16:58:31.752
7, -55508.86, -42457.63, 136235.05, 109671.20, 22352.62, -72395.73, -63822.50, 137475.27, 71878.09, 13749.61, 159758.80, -11007.76, 23099.12, -4712.66, 118277.54, -2860.96, 0.000, 0.000, 0.000, 16:58:31.752
8, -55508.86, -42457.63, 136235.05, 109671.20, 22352.62, -72395.73, -63822.50, 137475.27, 71853.14, 13732.62, 159758.00, -11027.05, 23075.92, -4734.39, 118393.79, -2861.74, 0.000, 0.000, 0.000, 16:58:31.753
9, -55498.51, -42440.24, 136236.27, 109669.52, 22392.20, -72398.73, -63809.98, 137467.34, 71853.14, 13732.62, 159758.00, -11027.05, 23075.92, -4734.39, 118393.79, -2861.74, -0.046, 0.876, 0.356, 16:58:31.753
10, -55498.51, -42440.24, 136236.27, 109669.52, 22392.20, -72398.73, -63809.98, 137467.34, 71848.98, 13720.98, 159746.09, -11029.18, 23062.60, -4735.40, 118510.66, -2878.55, 0.000, 0.000, 0.000, 16:58:31.753
11, -55518.49, -42455.71, 136231.86, 109671.91, 22382.70, -72396.94, -63866.31, 137465.30, 71848.98, 13720.98, 159746.09, -11029.18, 23062.60, -4735.40, 118510.66, -2878.55, 0.000, 0.000, 0.000, 16:58:31.753
12, -55518.49, -42455.71, 136231.86, 109671.91, 22382.70, -72396.94, -63866.31, 137465.30, 71861.23, 13746.43, 159754.44, -11011.34, 23072.59, -4720.00, 118625.98, -2862.50, 0.000, 0.000, 0.000, 16:58:31.753
13, -55499.87, -42435.10, 136242.48, 109677.80, 22414.48, -72390.23, -63789.11, 137470.84, 71861.23, 13746.43, 159754.44, -11011.34, 23072.59, -4720.00, 118625.98, -2862.50, 0.000, 0.000, 0.000, 16:58:31.753
14, -55499.87, -42435.10, 136242.48, 109677.80, 22414.48, -72390.23, -63789.11, 137470.84, 71815.44, 13690.67, 159737.56, -11062.95, 23019.59, -4767.85, 118738.61, -2898.48, 0.000, 0.000, 0.000, 16:58:31.754
15, -55519.38, -42450.05, 136237.56, 109674.82, 22408.09, -72387.59, -63804.35, 137477.81, 71815.44, 13690.67, 159737.56, -11062.95, 23019.59, -4767.85, 118738.61, -2898.48, 0.000, 0.000, 0.000, 16:58:31.754
16, -55519.38, -42450.05, 136237.56, 109674.82, 22408.09, -72387.59, -63804.35, 137477.81, 71859.58, 13712.19, 159748.47, -11026.76, 23062.42, -4728.15, 118855.17, -2874.08, 0.000, 0.000, 0.000, 16:58:31.754
17, -55539.01, -42462.68, 136232.02, 109660.74, 22404.81, -72393.84, -63826.12, 137461.23, 71859.58, 13712.19, 159748.47, -11026.76, 23062.42, -4728.15, 118855.17, -2874.08, 0.000, 0.000, 0.000, 16:58:31.754
18, -55539.01, -42462.68, 136232.02, 109660.74, 22404.81, -72393.84, -63826.12, 137461.23, 71852.97, 13700.57, 159756.11, -11042.07, 23047.93, -4733.12, 118973.03, -2889.37, 0.000, 0.000, 0.000, 16:58:31.754
19, -55541.33, -42461.74, 136232.94, 109653.50, 22414.75, -72391.55, -63834.88, 137466.44, 71852.97, 13700.57, 159756.11, -11042.07, 23047.93, -4733.12, 118973.03, -2889.37, -0.046, 0.878, 0.360, 16:58:31.754
20, -55541.33, -42461.74, 136232.94, 109653.50, 22414.75, -72391.55, -63834.88, 137466.44, 71865.88, 13704.06, 159755.83, -11036.80, 23060.00, -4726.63, 119086.70, -2879.31, 0.000, 0.000, 0.000, 16:58:31.755
21, -55555.21, -42470.05, 136229.81, 109643.10, 22413.95, -72397.59, -63855.78, 137457.66, 71865.88, 13704.06, 159755.83, -11036.80, 23060.00, -4726.63, 119086.70, -2879.31, 0.000, 0.000, 0.000, 16:58:31.755
22, -55555.21, -42470.05, 136229.81, 109643.10, 22413.95, -72397.59, -63855.78, 137457.66, 71864.66, 13700.05, 159756.06, -11038.07, 23051.22, -4727.35, 119198.74, -2886.95, 0.000, 0.000, 0.000, 16:58:31.755
23, -55556.22, -42466.79, 136240.31, 109644.24, 22424.65, -72388.67, -63823.50, 137461.39, 71864.66, 13700.05, 159756.06, -11038.07, 23051.22, -4727.35, 119198.74, -2886.95, 0.000, 0.000, 0.000, 16:58:31.755
24, -55556.22, -42466.79, 136240.31, 109644.24, 22424.65, -72388.67, -63823.50, 137461.39, 71846.64, 13684.70, 159752.78, -11056.76, 23032.35, -4742.21, 119315.30, -2894.57, 0.000, 0.000, 0.000, 16:58:31.755
25, -55567.73, -42471.75, 136237.36, 109635.03, 22426.67, -72395.27, -63831.84, 137451.47, 71846.64, 13684.70, 159752.78, -11056.76, 23032.35, -4742.21, 119315.30, -2894.57, 0.000, 0.000, 0.000, 16:58:31.756
26, -55567.73, -42471.75, 136237.36, 109635.03, 22426.67, -72395.27, -63831.84, 137451.47, 71872.75, 13705.62, 159754.03, -11039.33, 23048.20, -4722.28, 119431.18, -2881.27, 0.000, 0.000, 0.000, 16:58:31.756
27, -55580.38, -42477.84, 136239.27, 109628.82, 22419.76, -72398.64, -63845.23, 137454.11, 71872.75, 13705.62, 159754.03, -11039.33, 23048.20, -4722.28, 119431.18, -2881.27, 0.000, 0.000, 0.000, 16:58:31.756
28, -55580.38, -42477.84, 136239.27, 109628.82, 22419.76, -72398.64, -63845.23, 137454.11, 71852.43, 13679.89, 159757.72, -11065.07, 23018.41, -4745.72, 119547.30, -2887.42, 0.000, 0.000, 0.000, 16:58:31.756
29, -55557.41, -42451.97, 136241.95, 109622.52, 22448.44, -72396.36, -63835.30, 137454.44, 71852.43, 13679.89, 159757.72, -11065.07, 23018.41, -4745.72, 119547.30, -2887.42, -0.040, 0.880, 0.362, 16:58:31.757
30, -55557.41, -42451.97, 136241.95, 109622.52, 22448.44, -72396.36, -63835.30, 137454.44, 71817.60, 13636.93, 159730.13, -11106.09, 22977.12, -4779.27, 119656.51, -2926.87, 0.000, 0.000, 0.000, 16:58:31.757
31, -55576.11, -42464.13, 136240.05, 109622.02, 22439.27, -72393.81, -63829.63, 137451.53, 71817.60, 13636.93, 159730.13, -11106.09, 22977.12, -4779.27, 119656.51, -2926.87, 0.000, 0.000, 0.000, 16:58:31.757
32, -55576.11, -42464.13, 136240.05, 109622.02, 22439.27, -72393.81, -63829.63, 137451.53, 71826.70, 13642.95, 159721.11, -11094.69, 22988.61, -4770.29, 119766.30, -2915.61, 0.000, 0.000, 0.000, 16:58:31.758
33, -55597.14, -42475.60, 136238.28, 109621.18, 22435.59, -72388.60, -63845.86, 137456.89, 71826.70, 13642.95, 159721.11, -11094.69, 22988.61, -4770.29, 119766.30, -2915.61, 0.000, 0.000, 0.000, 16:58:31.758
34, -55597.14, -42475.60, 136238.28, 109621.18, 22435.59, -72388.60, -63845.86, 137456.89, 71840.34, 13657.94, 159724.88, -11081.35, 22998.89, -4755.36, 119875.59, -2903.33, 0.000, 0.000, 0.000, 16:58:31.758
35, -55598.31, -42473.45, 136235.64, 109614.20, 22445.71, -72394.48, -63825.38, 137447.08, 71840.34, 13657.94, 159724.88, -11081.35, 22998.89, -4755.36, 119875.59, -2903.33, 0.000, 0.000, 0.000, 16:58:31.759
36, -55598.31, -42473.45, 136235.64, 109614.20, 22445.71, -72394.48, -63825.38, 137447.08, 71843.71, 13657.63, 159723.91, -11081.48, 22997.96, -4752.58, 119981.41, -2904.34, 0.000, 0.000, 0.000, 16:58:31.759
37, -55614.43, -42489.88, 136235.69, 109617.82, 22432.37, -72387.62, -63843.40, 137461.66, 71843.71, 13657.63, 159723.91, -11081.48, 22997.96, -4752.58, 119981.41, -2904.34, 0.000, 0.000, 0.000, 16:58:31.759
38, -55614.43, -42489.88, 136235.69, 109617.82, 22432.37, -72387.62, -63843.40, 137461.66, 71854.20, 13676.81, 159737.55, -11071.76, 23003.32, -4744.27, 120087.41, -2893.25, 0.000, 0.000, 0.000, 16:58:31.760
39, -55619.48, -42495.96, 136238.38, 109607.59, 22427.14, -72389.81, -63851.78, 137461.91, 71854.20, 13676.81, 159737.55, -11071.76, 23003.32, -4744.27, 120087.41, -2893.25, -0.042, 0.876, 0.372, 16:58:31.763
40, -55619.48, -42495.96, 136238.38, 109607.59, 22427.14, -72389.81, -63851.78, 137461.91, 71890.45, 13710.65, 159765.39, -11036.93, 23037.76, -4704.71, 120194.27, -2867.95, 0.000, 0.000, 0.000, 16:58:31.763
41, -55634.61, -42511.43, 136246.81, 109610.80, 22412.47, -72384.63, -63844.36, 137444.98, 71890.45, 13710.65, 159765.39, -11036.93, 23037.76, -4704.71, 120194.27, -2867.95, 0.000, 0.000, 0.000, 16:58:31.763
42, -55634.61, -42511.43, 136246.81, 109610.80, 22412.47, -72384.63, -63844.36, 137444.98, 71916.13, 13743.71, 159796.77, -11014.07, 23061.23, -4680.01, 120299.97, -2850.54, 0.000, 0.000, 0.000, 16:58:31.763
43, -55636.04, -42513.66, 136250.22, 109606.76, 22411.13, -72387.04, -63845.63, 137444.41, 71916.13, 13743.71, 159796.77, -11014.07, 23061.23, -4680.01, 120299.97, -2850.54, 0.000, 0.000, 0.000, 16:58:31.764
44, -55636.04, -42513.66, 136250.22, 109606.76, 22411.13, -72387.04, -63845.63, 137444.41, 71905.91, 13731.84, 159815.55, -11029.07, 23042.41, -4696.44, 120403.70, -2850.79, 0.000, 0.000, 0.000, 16:58:31.764
45, -55610.45, -42485.64, 136256.92, 109596.52, 22439.81, -72391.98, -63831.71, 137450.66, 71905.91, 13731.84, 159815.55, -11029.07, 23042.41, -4696.44, 120403.70, -2850.79, 0.000, 0.000, 0.000, 16:58:31.764
46, -55610.45, -42485.64, 136256.92, 109596.52, 22439.81, -72391.98, -63831.71, 137450.66, 71872.73, 13691.23, 159800.44, -11069.68, 23001.69, -4729.20, 120507.86, -2888.02, 0.000, 0.000, 0.000, 16:58:31.764
47, -55619.54, -42491.04, 136251.98, 109592.97, 22438.13, -72391.02, -63865.68, 137452.25, 71872.73, 13691.23, 159800.44, -11069.68, 23001.69, -4729.20, 120507.86, -2888.02, 0.000, 0.000, 0.000, 16:58:31.764
48, -55619.54, -42491.04, 136251.98, 109592.97, 22438.13, -72391.02, -63865.68, 137452.25, 71875.32, 13701.78, 159802.03, -11065.77, 23006.29, -4721.45, 120612.22, -2877.16, -0.044, 0.882, 0.368, 16:58:31.764
49, -55608.23, -42481.55, 136263.06, 109593.35, 22457.40, -72389.67, -63824.89, 137434.64, 71875.32, 13701.78, 159802.03, -11065.77, 23006.29, -4721.45, 120612.22, -2877.16, 0.000, 0.000, 0.000, 16:58:31.765
50, -55608.23, -42481.55, 136263.06, 109593.35, 22457.40, -72389.67, -63824.89, 137434.64, 71865.73, 13688.61, 159797.20, -11077.28, 22995.09, -4729.76, 120714.23, -2889.37, 0.000, 0.000, 0.000, 16:58:31.765
51, -55615.59, -42488.30, 136266.69, 109590.48, 22459.01, -72390.95, -63821.22, 137440.47, 71865.73, 13688.61, 159797.20, -11077.28, 22995.09, -4729.76, 120714.23, -2889.37, 0.000, 0.000, 0.000, 16:58:31.765
52, -55615.59, -42488.30, 136266.69, 109590.48, 22459.01, -72390.95, -63821.22, 137440.47, 71863.02, 13692.92, 159804.31, -11078.57, 22993.93, -4731.06, 120817.01, -2851.39, 0.000, 0.000, 0.000, 16:58:31.765
53, -55601.44, -42473.92, 136272.66, 109583.67, 22478.08, -72383.10, -63833.38, 137452.50, 71863.02, 13692.92, 159804.31, -11078.57, 22993.93, -4731.06, 120817.01, -2851.39, 0.000, 0.000, 0.000, 16:58:31.765
54, -55601.44, -42473.92, 136272.66, 109583.67, 22478.08, -72383.10, -63833.38, 137452.50, 71854.82, 13680.05, 159790.56, -11089.24, 22978.58, -4733.32, 120919.67, -2845.22, 0.000, 0.000, 0.000, 16:58:31.765
55, -55633.98, -42499.88, 136273.48, 109581.73, 22448.48, -72377.07, -63839.38, 137456.78, 71854.82, 13680.05, 159790.56, -11089.24, 22978.58, -4733.32, 120919.67, -2845.22, 0.000, 0.000, 0.000, 16:58:31.766
56, -55633.98, -42499.88, 136273.48, 109581.73, 22448.48, -72377.07, -63839.38, 137456.78, 71912.38, 13739.75, 159819.64, -11033.47, 23028.49, -4679.83, 121022.47, -2792.25, 0.000, 0.000, 0.000, 16:58:31.766
57, -55627.41, -42491.43, 136276.95, 109577.41, 22465.85, -72380.84, -63814.52, 137445.50, 71912.38, 13739.75, 159819.64, -11033.47, 23028.49, -4679.83, 121022.47, -2792.25, 0.000, 0.000, 0.000, 16:58:31.766
58, -55627.41, -42491.43, 136276.95, 109577.41, 22465.85, -72380.84, -63814.52, 137445.50, 71875.18, 13705.06, 159820.67, -11074.57, 22987.05, -4715.17, 121125.98, -2809.88, -0.040, 0.882, 0.366, 16:58:31.766
59, -55602.09, -42461.12, 136279.47, 109576.25, 22496.09, -72378.84, -63801.29, 137443.89, 71875.18, 13705.06, 159820.67, -11074.57, 22987.05, -4715.17, 121125.98, -2809.88, 0.000, 0.000, 0.000, 16:58:31.766
60, -55602.09, -42461.12, 136279.47, 109576.25, 22496.09, -72378.84, -63801.29, 137443.89, 71833.77, 13658.44, 159795.81, -11121.62, 22936.62, -4759.29, 121224.10, -2845.22, 0.000, 0.000, 0.000, 16:58:31.766
61, -55613.62, -42465.81, 136274.95, 109573.52, 22490.95, -72376.11, -63824.82, 137448.72, 71833.77, 13658.44, 159795.81, -11121.62, 22936.62, -4759.29, 121224.10, -2845.22, 0.000, 0.000, 0.000, 16:58:31.767
62, -55613.62, -42465.81, 136274.95, 109573.52, 22490.95, -72376.11, -63824.82, 137448.72, 71857.16, 13686.13, 159792.02, -11098.87, 22959.62, -4733.74, 121323.03, -2831.50, 0.000, 0.000, 0.000, 16:58:31.767
63, -55614.43, -42465.54, 136275.16, 109570.88, 22491.46, -72377.02, -63834.05, 137445.72, 71857.16, 13686.13, 159792.02, -11098.87, 22959.62, -4733.74, 121323.03, -2831.50, 0.000, 0.000, 0.000, 16:58:31.767
64, -55614.43, -42465.54, 136275.16, 109570.88, 22491.46, -72377.02, -63834.05, 137445.72, 71827.17, 13657.21, 159780.33, -11136.96, 22922.38, -4768.27, 121421.55, -2862.23, 0.000, 0.000, 0.000, 16:58:31.767
65, -55620.62, -42468.96, 136269.34, 109561.12, 22490.68, -72378.52, -63851.00, 137445.13, 71827.17, 13657.21, 159780.33, -11136.96, 22922.38, -4768.27, 121421.55, -2862.23, 0.000, 0.000, 0.000, 16:58:31.767
66, -55620.62, -42468.96, 136269.34, 109561.12, 22490.68, -72378.52, -63851.00, 137445.13, 71854.04, 13689.62, 159789.17, -11108.82, 22954.35, -4737.79, 121520.98, -2812.41, 0.000, 0.000, 0.000, 16:58:31.767
67, -55625.98, -42469.90, 136274.84, 109556.38, 22490.17, -72378.95, -63859.98, 137436.84, 71854.04, 13689.62, 159789.17, -11108.82, 22954.35, -4737.79, 121520.98, -2812.41, 0.000, 0.000, 0.000, 16:58:31.768
68, -55625.98, -42469.90, 136274.84, 109556.38, 22490.17, -72378.95, -63859.98, 137436.84, 71849.41, 13674.24, 159791.31, -11120.10, 22937.47, -4750.77, 121619.41, -2780.29, -0.046, 0.882, 0.364, 16:58:31.768
69, -55627.81, -42468.98, 136274.92, 109560.40, 22494.75, -72379.13, -63840.43, 137441.63, 71849.41, 13674.24, 159791.31, -11120.10, 22937.47, -4750.77, 121619.41, -2780.29, 0.000, 0.000, 0.000, 16:58:31.768
70, -55627.81, -42468.98, 136274.92, 109560.40, 22494.75, -72379.13, -63840.43, 137441.63, 71831.30, 13653.79, 159783.83, -11140.27, 22918.90, -4764.94, 121714.12, -2777.05, 0.000, 0.000, 0.000, 16:58:31.768
71, -55631.77, -42471.38, 136273.69, 109558.16, 22491.55, -72373.60, -63851.73, 137448.42, 71831.30, 13653.79, 159783.83, -11140.27, 22918.90, -4764.94, 121714.12, -2777.05, 0.000, 0.000, 0.000, 16:58:31.768
72, -55631.77, -42471.38, 136273.69, 109558.16, 22491.55, -72373.60, -63851.73, 137448.42, 71847.40, 13668.49, 159787.16, -11127.97, 22931.30, -4746.82, 121809.11, -2764.96, 0.000, 0.000, 0.000, 16:58:31.769
73, -55631.99, -42469.50, 136272.39, 109547.57, 22498.86, -72375.80, -63861.05, 137444.97, 71847.40, 13668.49, 159787.16, -11127.97, 22931.30, -4746.82, 121809.11, -2764.96, 0.000, 0.000, 0.000, 16:58:31.769
74, -55631.99, -42469.50, 136272.39, 109547.57, 22498.86, -72375.80, -63861.05, 137444.97, 71843.11, 13656.33, 159783.58, -11141.85, 22911.37, -4756.63, 121905.25, -2777.20, 0.000, 0.000, 0.000, 16:58:31.769
75, -55644.96, -42477.30, 136269.34, 109548.29, 22494.39, -72373.88, -63860.18, 137435.73, 71843.11, 13656.33, 159783.58, -11141.85, 22911.37, -4756.63, 121905.25, -2777.20, 0.000, 0.000, 0.000, 16:58:31.769
76, -55644.96, -42477.30, 136269.34, 109548.29, 22494.39, -72373.88, -63860.18, 137435.73, 71848.32, 13670.46, 159795.56, -11130.72, 22916.28, -4746.97, 122000.22, -2775.19, 0.000, 0.000, 0.000, 16:58:31.770
77, -55636.24, -42463.20, 136283.14, 109553.36, 22506.33, -72367.13, -63847.67, 137449.00, 71848.32, 13670.46, 159795.56, -11130.72, 22916.28, -4746.97, 122000.22, -2775.19, 0.000, 0.000, 0.000, 16:58:31.770
78, -55636.24, -42463.20, 136283.14, 109553.36, 22506.33, -72367.13, -63847.67, 137449.00, 71832.31, 13666.91, 159794.00, -11140.13, 22900.08, -4751.69, 122093.27, -2772.80, -0.044, 0.880, 0.362, 16:58:31.770
79, -55630.05, -42448.04, 136281.91, 109547.95, 22512.41, -72372.98, -63868.10, 137449.08, 71832.31, 13666.91, 159794.00, -11140.13, 22900.08, -4751.69, 122093.27, -2772.80, 0.000, 0.000, 0.000, 16:58:31.770
80, -55630.05, -42448.04, 136281.91, 109547.95, 22512.41, -72372.98, -63868.10, 137449.08, 71829.67, 13658.48, 159783.83, -11148.63, 22892.05, -4766.29, 122186.34, -2791.13, 0.000, 0.000, 0.000, 16:58:31.770
81, -55652.11, -42465.16, 136276.38, 109532.10, 22485.65, -72371.26, -63871.40, 137436.42, 71829.67, 13658.48, 159783.83, -11148.63, 22892.05, -4766.29, 122186.34, -2791.13, 0.000, 0.000, 0.000, 16:58:31.770
82, -55652.11, -42465.16, 136276.38, 109532.10, 22485.65, -72371.26, -63871.40, 137436.42, 71847.31, 13677.48, 159794.30, -11135.57, 22912.04, -4749.86, 122281.90, -2756.28, 0.000, 0.000, 0.000, 16:58:31.771
83, -55653.70, -42465.34, 136276.17, 109514.72, 22488.38, -72376.02, -63850.84, 137421.16, 71847.31, 13677.48, 159794.30, -11135.57, 22912.04, -4749.86, 122281.90, -2756.28, 0.000, 0.000, 0.000, 16:58:31.771
84, -55653.70, -42465.34, 136276.17, 109514.72, 22488.38, -72376.02, -63850.84, 137421.16, 71854.15, 13680.00, 159802.34, -11134.32, 22914.09, -4749.25, 122375.93, -2746.11, 0.000, 0.000, 0.000, 16:58:31.771
85, -55642.54, -42458.93, 136279.97, 109512.28, 22497.10, -72377.54, -63858.89, 137428.06, 71854.15, 13680.00, 159802.34, -11134.32, 22914.09, -4749.25, 122375.93, -2746.11, 0.000, 0.000, 0.000, 16:58:31.771
86, -55642.54, -42458.93, 136279.97, 109512.28, 22497.10, -72377.54, -63858.89, 137428.06, 71855.85, 13680.14, 159803.48, -11130.25, 22914.67, -4744.47, 122464.24, -2739.07, 0.000, 0.000, 0.000, 16:58:31.771
87, -55665.25, -42478.46, 136286.36, 109519.16, 22481.12, -72369.09, -63848.40, 137437.08, 71855.85, 13680.14, 159803.48, -11130.25, 22914.67, -4744.47, 122464.24, -2739.07, 0.000, 0.000, 0.000, 16:58:31.772
88, -55665.25, -42478.46, 136286.36, 109519.16, 22481.12, -72369.09, -63848.40, 137437.08, 71863.59, 13692.86, 159823.13, -11123.50, 22919.16, -4736.31, 122555.75, -2710.28, -0.040, 0.874, 0.366, 16:58:31.772
89, -55647.59, -42460.02, 136295.20, 109514.27, 22511.04, -72371.15, -63830.93, 137438.69, 71863.59, 13692.86, 159823.13, -11123.50, 22919.16, -4736.31, 122555.75, -2710.28, 0.000, 0.000, 0.000, 16:58:31.772
90, -55647.59, -42460.02, 136295.20, 109514.27, 22511.04, -72371.15, -63830.93, 137438.69, 71848.59, 13678.51, 159820.63, -11144.31, 22899.09, -4751.76, 122649.56, -2714.42, 0.000, 0.000, 0.000, 16:58:31.773
91, -55636.26, -42452.02, 136294.70, 109505.53, 22523.45, -72375.02, -63837.90, 137430.33, 71848.59, 13678.51, 159820.63, -11144.31, 22899.09, -4751.76, 122649.56, -2714.42, 0.000, 0.000, 0.000, 16:58:31.773
92, -55636.26, -42452.02, 136294.70, 109505.53, 22523.45, -72375.02, -63837.90, 137430.33, 71843.11, 13664.09, 159810.67, -11157.45, 22889.66, -4765.19, 122741.74, -2729.73, 0.000, 0.000, 0.000, 16:58:31.773
93, -55657.12, -42467.73, 136290.66, 109506.73, 22509.08, -72371.26, -63869.66, 137426.36, 71843.11, 13664.09, 159810.67, -11157.45, 22889.66, -4765.19, 122741.74, -2729.73, 0.000, 0.000, 0.000, 16:58:31.774
94, -55657.12, -42467.73, 136290.66, 109506.73, 22509.08, -72371.26, -63869.66, 137426.36, 71865.46, 13686.02, 159816.17, -11133.60, 22906.96, -4742.26, 122830.12, -2710.62, 0.000, 0.000, 0.000, 16:58:31.774
95, -55664.69, -42475.96, 136297.02, 109507.67, 22510.17, -72367.84, -63847.11, 137436.83, 71865.46, 13686.02, 159816.17, -11133.60, 22906.96, -4742.26, 122830.12, -2710.62, 0.000, 0.000, 0.000, 16:58:31.774
96, -55664.69, -42475.96, 136297.02, 109507.67, 22510.17, -72367.84, -63847.11, 137436.83, 71878.29, 13703.65, 159832.72, -11115.28, 22919.16, -4730.34, 122918.54, -2694.99, 0.000, 0.000, 0.000, 16:58:31.774
97, -55662.35, -42472.85, 136301.80, 109504.01, 22516.83, -72367.48, -63846.21, 137429.11, 71878.29, 13703.65, 159832.72, -11115.28, 22919.16, -4730.34, 122918.54, -2694.99, 0.000, 0.000, 0.000, 16:58:31.775
98, -55662.35, -42472.85, 136301.80, 109504.01, 22516.83, -72367.48, -63846.21, 137429.11, 71878.72, 13711.66, 159842.77, -11113.89, 22908.73, -4728.15, 123010.30, -2704.72, -0.040, 0.874, 0.364, 16:58:31.775
99, -55655.44, -42466.43, 136300.42, 109497.19, 22525.75, -72369.41, -63865.04, 137430.41, 71878.72, 13711.66, 159842.77, -11113.89, 22908.73, -4728.15, 123010.30, -2704.72, 0.000, 0.000, 0.000, 16:58:31.775
100, -55655.44, -42466.43, 136300.42, 109497.19, 22525.75, -72369.41, -63865.04, 137430.41, 71887.72, 13716.35, 159849.48, -11110.47, 22909.62, -4715.66, 123100.04, -2696.60, 0.000, 0.000, 0.000, 16:58:31.775
101, -55661.79, -42474.93, 136302.03, 109502.38, 22515.98, -72358.38, -63878.47, 137438.17, 71887.72, 13716.35, 159849.48, -11110.47, 22909.62, -4715.66, 123100.04, -2696.60, 0.000, 0.000, 0.000, 16:58:31.776
102, -55661.79, -42474.93, 136302.03, 109502.38, 22515.98, -72358.38, -63878.47, 137438.17, 71880.57, 13704.03, 159853.75, -11128.87, 22893.19, -4726.30, 123188.95, -2687.86, 0.000, 0.000, 0.000, 16:58:31.776
103, -55647.19, -42462.32, 136299.30, 109492.01, 22534.54, -72363.57, -63867.54, 137431.64, 71880.57, 13704.03, 159853.75, -11128.87, 22893.19, -4726.30, 123188.95, -2687.86, 0.000, 0.000, 0.000, 16:58:31.776
104, -55647.19, -42462.32, 136299.30, 109492.01, 22534.54, -72363.57, -63867.54, 137431.64, 71873.66, 13697.71, 159845.03, -11135.08, 22883.11, -4734.70, 123279.88, -2706.84, 0.000, 0.000, 0.000, 16:58:31.776
105, -55655.51, -42464.76, 136305.61, 109493.30, 22529.42, -72362.02, -63828.71, 137431.28, 71873.66, 13697.71, 159845.03, -11135.08, 22883.11, -4734.70, 123279.88, -2706.84, 0.000, 0.000, 0.000, 16:58:32.231
106, -55655.51, -42464.76, 136305.61, 109493.30, 22529.42, -72362.02, -63828.71, 137431.28, 71877.28, 13711.23, 159851.13, -11127.19, 22882.29, -4730.55, 123373.65, -2691.22, 0.000, 0.000, 0.000, 16:58:32.231
107, -55658.57, -42464.80, 136303.86, 109488.34, 22530.07, -72366.12, -63857.12, 137427.11, 71877.28, 13711.23, 159851.13, -11127.19, 22882.29, -4730.55, 123373.65, -2691.22, 0.000, 0.000, 0.000, 16:58:32.232
108, -55658.57, -42464.80, 136303.86, 109488.34, 22530.07, -72366.12, -63857.12, 137427.11, 71891.95, 13719.19, 159856.47, -11120.51, 22893.28, -4719.44, 123463.08, -2683.93, -0.036, 0.878, 0.360, 16:58:32.232
109, -55658.17, -42465.25, 136306.86, 109487.87, 22528.88, -72361.85, -63842.82, 137432.58, 71891.95, 13719.19, 159856.47, -11120.51, 22893.28, -4719.44, 123463.08, -2683.93, 0.000, 0.000, 0.000, 16:58:32.232
110, -55658.17, -42465.25, 136306.86, 109487.87, 22528.88, -72361.85, -63842.82, 137432.58, 71894.67, 13730.12, 159862.27, -11117.47, 22901.37, -4706.34, 123548.28, -2663.30, 0.000, 0.000, 0.000, 16:58:32.232
111, -55655.75, -42465.27, 136312.36, 109488.41, 22526.22, -72356.30, -63847.38, 137436.09, 71894.67, 13730.12, 159862.27, -11117.47, 22901.37, -4706.34, 123548.28, -2663.30, 0.000, 0.000, 0.000, 16:58:32.232
112, -55655.75, -42465.27, 136312.36, 109488.41, 22526.22, -72356.30, -63847.38, 137436.09, 71901.67, 13742.25, 159872.70, -11111.01, 22898.76, -4696.12, 123636.55, -2660.39, 0.000, 0.000, 0.000, 16:58:32.232
113, -55653.81, -42458.32, 136314.52, 109486.17, 22532.08, -72356.98, -63865.68, 137430.20, 71901.67, 13742.25, 159872.70, -11111.01, 22898.76, -4696.12, 123636.55, -2660.39, 0.000, 0.000, 0.000, 16:58:32.233
114, -55653.81, -42458.32, 136314.52, 109486.17, 22532.08, -72356.98, -63865.68, 137430.20, 71896.66, 13748.80, 159880.61, -11110.72, 22889.55, -4695.50, 123725.95, -2662.85, 0.000, 0.000, 0.000, 16:58:32.233
115, -55640.62, -42443.75, 136316.06, 109483.40, 22544.59, -72363.08, -63888.75, 137417.16, 71896.66, 13748.80, 159880.61, -11110.72, 22889.55, -4695.50, 123725.95, -2662.85, 0.000, 0.000, 0.000, 16:58:32.233
116, -55640.62, -42443.75, 136316.06, 109483.40, 22544.59, -72363.08, -63888.75, 137417.16, 71871.14, 13721.53, 159863.84, -11139.59, 22846.83, -4724.09, 123811.31, -2688.13, 0.000, 0.000, 0.000, 16:58:32.233
117, -55635.79, -42435.48, 136313.72, 109483.13, 22549.31, -72361.09, -63882.47, 137415.41, 71871.14, 13721.53, 159863.84, -11139.59, 22846.83, -4724.09, 123811.31, -2688.13, 0.000, 0.000, 0.000, 16:58:32.233
118, -55635.79, -42435.48, 136313.72, 109483.13, 22549.31, -72361.09, -63882.47, 137415.41, 71876.05, 13721.15, 159849.52, -11133.81, 22847.91, -4720.20, 123894.93, -2681.02, -0.038, 0.884, 0.362, 16:58:32.234
119, -55649.32, -42445.61, 136315.11, 109475.38, 22544.62, -72356.98, -63892.32, 137422.77, 71876.05, 13721.15, 159849.52, -11133.81, 22847.91, -4720.20, 123894.93, -2681.02, 0.000, 0.000, 0.000, 16:58:32.234
120, -55649.32, -42445.61, 136315.11, 109475.38, 22544.62, -72356.98, -63892.32, 137422.77, 71889.60, 13732.84, 159852.52, -11123.17, 22857.41, -4706.72, 123979.94, -2664.13, 0.000, 0.000, 0.000, 16:58:32.234
121, -55656.47, -42453.72, 136322.44, 109472.41, 22540.50, -72359.68, -63877.86, 137421.89, 71889.60, 13732.84, 159852.52, -11123.17, 22857.41, -4706.72, 123979.94, -2664.13, 0.000, 0.000, 0.000, 16:58:32.234
122, -55656.47, -42453.72, 136322.44, 109472.41, 22540.50, -72359.68, -63877.86, 137421.89, 71888.04, 13734.43, 159861.69, -11129.74, 22852.22, -4711.95, 124066.62, -2670.72, 0.000, 0.000, 0.000, 16:58:32.234
123, -55640.20, -42436.11, 136328.30, 109472.11, 22561.58, -72355.95, -63835.20, 137419.41, 71888.04, 13734.43, 159861.69, -11129.74, 22852.22, -4711.95, 124066.62, -2670.72, 0.000, 0.000, 0.000, 16:58:32.235
124, -55640.20, -42436.11, 136328.30, 109472.11, 22561.58, -72355.95, -63835.20, 137419.41, 71855.34, 13707.72, 159853.41, -11156.98, 22817.84, -4742.93, 124150.62, -2707.20, 0.000, 0.000, 0.000, 16:58:32.235
125, -55631.21, -42424.70, 136329.98, 109473.03, 22580.25, -72351.99, -63839.62, 137411.53, 71855.34, 13707.72, 159853.41, -11156.98, 22817.84, -4742.93, 124150.62, -2707.20, 0.000, 0.000, 0.000, 16:58:32.235
126, -55631.21, -42424.70, 136329.98, 109473.03, 22580.25, -72351.99, -63839.62, 137411.53, 71832.07, 13680.97, 159837.14, -11180.28, 22794.64, -4770.35, 124232.63, -2735.16, 0.000, 0.000, 0.000, 16:58:32.235
127, -55627.48, -42421.48, 136332.45, 109473.97, 22586.91, -72357.09, -63843.93, 137415.45, 71832.07, 13680.97, 159837.14, -11180.28, 22794.64, -4770.35, 124232.63, -2735.16, 0.000, 0.000, 0.000, 16:58:32.235
128, -55627.48, -42421.48, 136332.45, 109473.97, 22586.91, -72357.09, -63843.93, 137415.45, 71833.20, 13677.68, 159829.31, -11169.97, 22794.08, -4763.25, 124313.91, -2737.71, -0.036, 0.878, 0.362, 16:58:32.235
129, -55659.29, -42447.37, 136336.36, 109480.07, 22555.97, -72347.12, -63872.41, 137428.17, 71833.20, 13677.68, 159829.31, -11169.97, 22794.08, -4763.25, 124313.91, -2737.71, 0.000, 0.000, 0.000, 16:58:32.235
130, -55659.29, -42447.37, 136336.36, 109480.07, 22555.97, -72347.12, -63872.41, 137428.17, 71888.23, 13741.49, 159859.05, -11108.62, 22855.24, -4700.91, 124399.73, -2680.51, 0.000, 0.000, 0.000, 16:58:32.236
131, -55658.21, -42445.18, 136343.72, 109471.73, 22565.27, -72353.71, -63845.34, 137424.88, 71888.23, 13741.49, 159859.05, -11108.62, 22855.24, -4700.91, 124399.73, -2680.51, 0.000, 0.000, 0.000, 16:58:32.236
132, -55658.21, -42445.18, 136343.72, 109471.73, 22565.27, -72353.71, -63845.34, 137424.88, 71878.24, 13726.50, 159869.91, -11129.51, 22836.78, -4724.60, 124483.09, -2688.11, 0.000, 0.000, 0.000, 16:58:32.236
133, -55663.66, -42451.75, 136341.48, 109464.05, 22565.38, -72354.20, -63864.14, 137420.13, 71878.24, 13726.50, 159869.91, -11129.51, 22836.78, -4724.60, 124483.09, -2688.11, 0.000, 0.000, 0.000, 16:58:32.236
134, -55663.66, -42451.75, 136341.48, 109464.05, 22565.38, -72354.20, -63864.14, 137420.13, 71894.92, 13738.25, 159879.16, -11122.61, 22848.24, -4713.22, 124562.69, -2676.91, 0.000, 0.000, 0.000, 16:58:32.236
135, -55660.07, -42447.55, 136343.64, 109460.55, 22583.82, -72355.12, -63854.30, 137422.08, 71894.92, 13738.25, 159879.16, -11122.61, 22848.24, -4713.22, 124562.69, -2676.91, 0.000, 0.000, 0.000, 16:58:32.236
136, -55660.07, -42447.55, 136343.64, 109460.55, 22583.82, -72355.12, -63854.30, 137422.08, 71872.57, 13714.11, 159878.48, -11146.57, 22824.53, -4738.55, 124644.37, -2684.51, 0.000, 0.000, 0.000, 16:58:32.237
137, -55663.13, -42449.67, 136347.31, 109466.93, 22593.39, -72345.17, -63824.15, 137424.91, 71872.57, 13714.11, 159878.48, -11146.57, 22824.53, -4738.55, 124644.37, -2684.51, -0.038, 0.882, 0.364, 16:58:32.237
138, -55663.13, -42449.67, 136347.31, 109466.93, 22593.39, -72345.17, -63824.15, 137424.91, 71906.61, 13757.99, 159892.42, -11107.41, 22857.79, -4696.71, 124732.74, -2658.09, 0.000, 0.000, 0.000, 16:58:32.237
139, -55673.39, -42455.75, 136346.23, 109458.81, 22594.57, -72347.43, -63847.60, 137432.13, 71906.61, 13757.99, 159892.42, -11107.41, 22857.79, -4696.71, 124732.74, -2658.09, 0.000, 0.000, 0.000, 16:58:32.237
140, -55673.39, -42455.75, 136346.23, 109458.81, 22594.57, -72347.43, -63847.60, 137432.13, 71889.24, 13736.53, 159899.17, -11134.86, 22832.08, -4724.80, 124817.01, -2669.45, 0.000, 0.000, 0.000, 16:58:32.237
141, -55651.86, -42432.64, 136351.14, 109452.89, 22628.41, -72355.34, -63813.18, 137409.22, 71889.24, 13736.53, 159899.17, -11134.86, 22832.08, -4724.80, 124817.01, -2669.45, 0.000, 0.000, 0.000, 16:58:32.238
142, -55651.86, -42432.64, 136351.14, 109452.89, 22628.41, -72355.34, -63813.18, 137409.22, 71855.73, 13701.53, 159879.09, -11172.61, 22796.05, -4758.15, 124895.71, -2708.63, 0.000, 0.000, 0.000, 16:58:32.238
143, -55637.69, -42414.36, 136346.31, 109444.64, 22645.04, -72361.53, -63819.97, 137412.06, 71855.73, 13701.53, 159879.09, -11172.61, 22796.05, -4758.15, 124895.71, -2708.63, 0.000, 0.000, 0.000, 16:58:32.238
144, -55637.69, -42414.36, 136346.31, 109444.64, 22645.04, -72361.53, -63819.97, 137412.06, 71837.59, 13672.11, 159858.27, -11196.26, 22770.12, -4778.33, 124976.16, -2733.95, 0.000, 0.000, 0.000, 16:58:32.238
145, -55667.31, -42436.39, 136340.39, 109450.14, 22610.71, -72347.32, -63869.28, 137417.22, 71837.59, 13672.11, 159858.27, -11196.26, 22770.12, -4778.33, 124976.16, -2733.95, 0.000, 0.000, 0.000, 16:58:32.238
146, -55667.31, -42436.39, 136340.39, 109450.14, 22610.71, -72347.32, -63869.28, 137417.22, 71864.30, 13705.40, 159867.41, -11163.51, 22797.62, -4750.66, 125058.74, -2717.77, 0.000, 0.000, 0.000, 16:58:32.239
147, -55673.07, -42437.16, 136351.63, 109456.80, 22608.28, -72338.49, -63840.02, 137425.72, 71864.30, 13705.40, 159867.41, -11163.51, 22797.62, -4750.66, 125058.74, -2717.77, -0.038, 0.876, 0.362, 16:58:32.239
148, -55673.07, -42437.16, 136351.63, 109456.80, 22608.28, -72338.49, -63840.02, 137425.72, 71898.85, 13748.20, 159886.00, -11121.31, 22837.96, -4705.53, 125141.89, -2739.30, 0.000, 0.000, 0.000, 16:58:32.239
149, -55683.07, -42446.43, 136360.39, 109453.98, 22599.15, -72332.63, -63846.55, 137432.53, 71898.85, 13748.20, 159886.00, -11121.31, 22837.96, -4705.53, 125141.89, -2739.30, 0.000, 0.000, 0.000, 16:58:32.240
150, -55683.07, -42446.43, 136360.39, 109453.98, 22599.15, -72332.63, -63846.55, 137432.53, 71905.02, 13754.37, 159907.55, -11119.46, 22838.39, -4701.62, 125223.68, -2741.44, 0.000, 0.000, 0.000, 16:58:32.240
151, -55681.30, -42440.53, 136356.48, 109447.93, 22607.60, -72335.92, -63870.22, 137430.19, 71905.02, 13754.37, 159907.55, -11119.46, 22838.39, -4701.62, 125223.68, -2741.44, 0.000, 0.000, 0.000, 16:58:32.240
152, -55681.30, -42440.53, 136356.48, 109447.93, 22607.60, -72335.92, -63870.22, 137430.19, 71919.87, 13768.83, 159923.81, -11102.98, 22850.46, -4687.67, 125304.61, -2727.38, 0.000, 0.000, 0.000, 16:58:32.240
153, -55685.35, -42439.99, 136357.27, 109440.53, 22619.23, -72342.11, -63833.65, 137414.61, 71919.87, 13768.83, 159923.81, -11102.98, 22850.46, -4687.67, 125304.61, -2727.38, 0.000, 0.000, 0.000, 16:58:32.241
154, -55685.35, -42439.99, 136357.27, 109440.53, 22619.23, -72342.11, -63833.65, 137414.61, 71917.09, 13759.60, 159933.45, -11114.72, 22841.25, -4698.07, 125391.67, -2729.51, 0.000, 0.000, 0.000, 16:58:32.241
155, -55670.32, -42425.58, 136357.13, 109432.13, 22641.56, -72344.28, -63847.27, 137426.67, 71917.09, 13759.60, 159933.45, -11114.72, 22841.25, -4698.07, 125391.67, -2729.51, 0.000, 0.000, 0.000, 16:58:32.241
156, -55670.32, -42425.58, 136357.13, 109432.13, 22641.56, -72344.28, -63847.27, 137426.67, 71904.24, 13749.18, 159927.27, -11123.68, 22835.03, -4700.10, 125474.27, -2738.71, 0.000, 0.000, 0.000, 16:58:32.241
157, -55673.30, -42427.75, 136368.23, 109440.10, 22644.75, -72332.27, -63810.94, 137429.34, 71904.24, 13749.18, 159927.27, -11123.68, 22835.03, -4700.10, 125474.27, -2738.71, -0.038, 0.880, 0.360, 16:58:32.241
158, -55673.30, -42427.75, 136368.23, 109440.10, 22644.75, -72332.27, -63810.94, 137429.34, 71918.77, 13771.45, 159936.84, -11109.24, 22853.61, -4687.59, 125553.19, -2715.67, 0.000, 0.000, 0.000, 16:58:32.241
159, -55658.73, -42421.35, 136360.56, 109428.44, 22649.89, -72346.80, -63826.10, 137417.14, 71918.77, 13771.45, 159936.84, -11109.24, 22853.61, -4687.59, 125553.19, -2715.67, 0.000, 0.000, 0.000, 16:58:32.241
160, -55658.73, -42421.35, 136360.56, 109428.44, 22649.89, -72346.80, -63826.10, 137417.14, 71911.23, 13760.63, 159937.70, -11123.50, 22841.76, -4699.14, 125634.88, -2739.23, 0.000, 0.000, 0.000, 16:58:32.242
161, -55643.82, -42412.59, 136363.63, 109419.81, 22649.09, -72347.59, -63837.00, 137421.84, 71911.23, 13760.63, 159937.70, -11123.50, 22841.76, -4699.14, 125634.88, -2739.23, 0.000, 0.000, 0.000, 16:58:32.242
162, -55643.82, -42412.59, 136363.63, 109419.81, 22649.09, -72347.59, -63837.00, 137421.84, 71905.58, 13761.70, 159941.86, -11127.03, 22837.63, -4697.11, 125721.05, -2749.26, 0.000, 0.000, 0.000, 16:58:32.242
163, -55615.72, -42399.40, 136364.66, 109412.19, 22654.90, -72351.41, -63843.15, 137421.77, 71905.58, 13761.70, 159941.86, -11127.03, 22837.63, -4697.11, 125721.05, -2749.26, 0.000, 0.000, 0.000, 16:58:32.242
164, -55615.72, -42399.40, 136364.66, 109412.19, 22654.90, -72351.41, -63843.15, 137421.77, 71907.33, 13764.81, 159934.86, -11121.69, 22837.49, -4689.19, 125805.05, -2763.84, 0.000, 0.000, 0.000, 16:58:32.242
165, -55596.36, -42396.16, 136372.41, 109416.30, 22647.23, -72349.51, -63797.87, 137426.09, 71907.33, 13764.81, 159934.86, -11121.69, 22837.49, -4689.19, 125805.05, -2763.84, 0.000, 0.000, 0.000, 16:58:32.242
166, -55596.36, -42396.16, 136372.41, 109416.30, 22647.23, -72349.51, -63797.87, 137426.09, 71876.19, 13741.92, 159926.13, -11153.12, 22805.28, -4720.67, 125885.91, -2784.31, 0.000, 0.000, 0.000, 16:58:32.243
167, -55561.05, -42381.41, 136376.61, 109406.13, 22653.29, -72351.23, -63821.02, 137421.66, 71876.19, 13741.92, 159926.13, -11153.12, 22805.28, -4720.67, 125885.91, -2784.31, -0.038, 0.870, 0.372, 16:58:32.243
168, -55561.05, -42381.41, 136376.61, 109406.13, 22653.29, -72351.23, -63821.02, 137421.66, 71864.99, 13732.62, 159915.23, -11163.24, 22797.06, -4728.06, 125968.19, -2794.15, 0.000, 0.000, 0.000, 16:58:32.243
169, -55545.22, -42383.49, 136379.08, 109404.70, 22646.54, -72341.42, -63800.35, 137430.86, 71864.99, 13732.62, 159915.23, -11163.24, 22797.06, -4728.06, 125968.19, -2794.15, 0.000, 0.000, 0.000, 16:58:32.243
170, -55545.22, -42383.49, 136379.08, 109404.70, 22646.54, -72341.42, -63800.35, 137430.86, 71875.72, 13746.52, 159916.73, -11141.12, 22810.04, -4718.16, 126052.50, -2792.22, 0.000, 0.000, 0.000, 16:58:32.243
171, -55534.02, -42382.80, 136375.00, 109395.16, 22638.43, -72346.02, -63821.18, 137426.25, 71875.72, 13746.52, 159916.73, -11141.12, 22810.04, -4718.16, 126052.50, -2792.22, 0.000, 0.000, 0.000, 16:58:32.243
172, -55534.02, -42382.80, 136375.00, 109395.16, 22638.43, -72346.02, -63821.18, 137426.25, 71869.15, 13742.70, 159910.20, -11139.51, 22794.55, -4725.07, 126136.77, -2803.78, 0.000, 0.000, 0.000, 16:58:32.244
173, -55538.05, -42392.77, 136373.52, 109394.82, 22625.98, -72338.49, -63819.86, 137423.17, 71869.15, 13742.70, 159910.20, -11139.51, 22794.55, -4725.07, 126136.77, -2803.78, 0.000, 0.000, 0.000, 16:58:32.244
174, -55538.05, -42392.77, 136373.52, 109394.82, 22625.98, -72338.49, -63819.86, 137423.17, 71888.62, 13759.33, 159916.38, -11123.57, 22811.34, -4711.55, 126215.89, -2786.48, 0.000, 0.000, 0.000, 16:58:32.244
175, -55541.07, -42403.54, 136371.61, 109390.75, 22616.77, -72340.88, -63850.17, 137416.53, 71888.62, 13759.33, 159916.38, -11123.57, 22811.34, -4711.55, 126215.89, -2786.48, 0.000, 0.000, 0.000, 16:58:32.245
176, -55541.07, -42403.54, 136371.61, 109390.75, 22616.77, -72340.88, -63850.17, 137416.53, 71895.75, 13760.96, 159928.16, -11119.68, 22813.91, -4707.68, 126297.08, -2772.02, 0.000, 0.000, 0.000, 16:58:32.245
177, -55521.04, -42389.57, 136376.44, 109385.43, 22632.44, -72346.89, -63820.62, 137402.52, 71895.75, 13760.96, 159928.16, -11119.68, 22813.91, -4707.68, 126297.08, -2772.02, -0.038, 0.872, 0.370, 16:58:32.246
178, -55521.04, -42389.57, 136376.44, 109385.43, 22632.44, -72346.89, -63820.62, 137402.52, 71883.66, 13744.29, 159921.41, -11131.12, 22790.42, -4719.55, 126378.59, -2798.35, 0.000, 0.000, 0.000, 16:58:32.246
179, -55525.53, -42398.08, 136381.67, 109391.34, 22625.40, -72332.08, -63814.88, 137400.61, 71883.66, 13744.29, 159921.41, -11131.12, 22790.42, -4719.55, 126378.59, -2798.35, 0.000, 0.000, 0.000, 16:58:32.246
180, -55525.53, -42398.08, 136381.67, 109391.34, 22625.40, -72332.08, -63814.88, 137400.61, 71892.51, 13760.87, 159929.86, -11113.20, 22801.17, -4708.80, 126458.50, -2784.89, 0.000, 0.000, 0.000, 16:58:32.246
181, -55515.00, -42390.82, 136384.08, 109384.85, 22632.15, -72335.02, -63813.65, 137406.92, 71892.51, 13760.87, 159929.86, -11113.20, 22801.17, -4708.80, 126458.50, -2784.89, 0.000, 0.000, 0.000, 16:58:32.247
182, -55515.00, -42390.82, 136384.08, 109384.85, 22632.15, -72335.02, -63813.65, 137406.92, 71885.13, 13742.54, 159925.34, -11127.75, 22780.36, -4725.81, 126536.77, -2807.40, 0.000, 0.000, 0.000, 16:58:32.247
183, -55513.75, -42390.82, 136378.42, 109375.17, 22637.44, -72338.53, -63807.61, 137393.86, 71885.13, 13742.54, 159925.34, -11127.75, 22780.36, -4725.81, 126536.77, -2807.40, 0.000, 0.000, 0.000, 16:58:32.247
184, -55513.75, -42390.82, 136378.42, 109375.17, 22637.44, -72338.53, -63807.61, 137393.86, 71879.99, 13733.36, 159920.13, -11136.67, 22770.68, -4730.34, 126618.59, -2829.82, 0.000, 0.000, 0.000, 16:58:32.247
185, -55520.32, -42396.90, 136382.47, 109383.87, 22632.32, -72328.70, -63807.86, 137409.44, 71879.99, 13733.36, 159920.13, -11136.67, 22770.68, -4730.34, 126618.59, -2829.82, 0.000, 0.000, 0.000, 16:58:32.247
186, -55520.32, -42396.90, 136382.47, 109383.87, 22632.32, -72328.70, -63807.86, 137409.44, 71881.58, 13742.84, 159926.69, -11126.65, 22779.33, -4722.03, 126701.10, -2823.49, 0.000, 0.000, 0.000, 16:58:32.248
187, -55512.43, -42391.40, 136392.94, 109384.88, 22636.28, -72328.99, -63788.59, 137395.30, 71881.58, 13742.84, 159926.69, -11126.65, 22779.33, -4722.03, 126701.10, -2823.49, -0.032, 0.880, 0.372, 16:58:32.248
188, -55512.43, -42391.40, 136392.94, 109384.88, 22636.28, -72328.99, -63788.59, 137395.30, 71892.62, 13746.21, 159925.78, -11115.92, 22781.34, -4711.70, 126777.86, -2834.56, 0.000, 0.000, 0.000, 16:58:32.248
189, -55526.36, -42402.33, 136395.30, 109384.70, 22619.67, -72327.98, -63797.00, 137391.77, 71892.62, 13746.21, 159925.78, -11115.92, 22781.34, -4711.70, 126777.86, -2834.56, 0.000, 0.000, 0.000, 16:58:32.248
190, -55526.36, -42402.33, 136395.30, 109384.70, 22619.67, -72327.98, -63797.00, 137391.77, 71894.59, 13751.60, 159936.36, -11111.01, 22777.79, -4710.34, 126852.27, -2825.48, 0.000, 0.000, 0.000, 16:58:32.248
191, -55530.54, -42403.83, 136397.31, 109374.03, 22610.87, -72331.18, -63800.55, 137393.98, 71894.59, 13751.60, 159936.36, -11111.01, 22777.79, -4710.34, 126852.27, -2825.48, 0.000, 0.000, 0.000, 16:58:32.249
192, -55530.54, -42403.83, 136397.31, 109374.03, 22610.87, -72331.18, -63800.55, 137393.98, 71916.71, 13779.92, 159955.97, -11082.40, 22800.16, -4688.28, 126929.83, -2801.25, 0.000, 0.000, 0.000, 16:58:32.249
193, -55522.60, -42397.41, 136404.28, 109371.10, 22621.17, -72326.63, -63772.95, 137390.69, 71916.71, 13779.92, 159955.97, -11082.40, 22800.16, -4688.28, 126929.83, -2801.25, 0.000, 0.000, 0.000, 16:58:32.249
194, -55522.60, -42397.41, 136404.28, 109371.10, 22621.17, -72326.63, -63772.95, 137390.69, 71914.91, 13784.45, 159971.42, -11083.65, 22794.64, -4688.86, 127014.05, -2802.69, 0.000, 0.000, 0.000, 16:58:32.249
195, -55502.78, -42380.07, 136404.52, 109360.24, 22644.60, -72328.59, -63769.77, 137389.27, 71914.91, 13784.45, 159971.42, -11083.65, 22794.64, -4688.86, 127014.05, -2802.69, 0.000, 0.000, 0.000, 16:58:32.249
196, -55502.78, -42380.07, 136404.52, 109360.24, 22644.60, -72328.59, -63769.77, 137389.27, 71889.47, 13748.42, 159959.47, -11118.88, 22757.41, -4725.83, 127095.68, -2838.09, 0.000, 0.000, 0.000, 16:58:32.249
197, -55517.64, -42396.09, 136395.55, 109349.78, 22620.93, -72329.93, -63792.68, 137388.17, 71889.47, 13748.42, 159959.47, -11118.88, 22757.41, -4725.83, 127095.68, -2838.09, -0.046, 0.878, 0.362, 16:58:32.250
198, -55517.64, -42396.09, 136395.55, 109349.78, 22620.93, -72329.93, -63792.68, 137388.17, 71908.35, 13770.19, 159966.33, -11098.18, 22783.36, -4702.65, 127172.19, -2824.66, 0.000, 0.000, 0.000, 16:58:32.250
199, -55492.20, -42378.05, 136406.08, 109343.57, 22642.47, -72332.88, -63750.48, 137382.44, 71908.35, 13770.19, 159966.33, -11098.18, 22783.36, -4702.65, 127172.19, -2824.66, 0.000, 0.000, 0.000, 16:58:32.250
200, -55492.20, -42378.05, 136406.08, 109343.57, 22642.47, -72332.88, -63750.48, 137382.44, 71890.80, 13745.96, 159961.94, -11120.71, 22759.55, -4727.17, 127251.12, -2852.15, 0.000, 0.000, 0.000, 16:58:32.250
201, -55501.64, -42395.00, 136400.95, 109338.12, 22630.07, -72332.63, -63781.95, 137378.58, 71890.80, 13745.96, 159961.94, -11120.71, 22759.55, -4727.17, 127251.12, -2852.15, 0.000, 0.000, 0.000, 16:58:32.251
202, -55501.64, -42395.00, 136400.95, 109338.12, 22630.07, -72332.63, -63781.95, 137378.58, 71902.77, 13758.33, 159969.06, -11111.45, 22768.29, -4712.08, 127335.02, -2845.49, 0.000, 0.000, 0.000, 16:58:32.251
203, -55509.04, -42400.52, 136400.31, 109334.25, 22627.36, -72333.95, -63783.76, 137388.69, 71902.77, 13758.33, 159969.06, -11111.45, 22768.29, -4712.08, 127335.02, -2845.49, 0.000, 0.000, 0.000, 16:58:32.251
204, -55509.04, -42400.52, 136400.31, 109334.25, 22627.36, -72333.95, -63783.76, 137388.69, 71913.67, 13766.55, 159974.94, -11103.74, 22770.84, -4702.65, 127413.77, -2839.61, 0.000, 0.000, 0.000, 16:58:32.252
205, -55514.91, -42406.44, 136403.73, 109334.41, 22622.29, -72326.15, -63762.42, 137377.75, 71913.67, 13766.55, 159974.94, -11103.74, 22770.84, -4702.65, 127413.77, -2839.61, 0.000, 0.000, 0.000, 16:58:32.252
206, -55514.91, -42406.44, 136403.73, 109334.41, 22622.29, -72326.15, -63762.42, 137377.75, 71920.58, 13772.16, 159978.02, -11100.41, 22774.53, -4693.82, 127492.49, -2825.13, 0.000, 0.000, 0.000, 16:58:32.252
207, -55515.32, -42411.63, 136400.91, 109327.14, 22625.75, -72328.19, -63767.98, 137381.97, 71920.58, 13772.16, 159978.02, -11100.41, 22774.53, -4693.82, 127492.49, -2825.13, -0.036, 0.890, 0.360, 16:58:32.252
208, -55515.32, -42411.63, 136400.91, 109327.14, 22625.75, -72328.19, -63767.98, 137381.97, 71940.80, 13796.95, 159991.39, -11078.44, 22783.49, -4674.13, 127571.30, -2812.63, 0.000, 0.000, 0.000, 16:58:32.253
209, -55522.56, -42421.69, 136401.98, 109323.23, 22619.25, -72331.38, -63768.25, 137384.92, 71940.80, 13796.95, 159991.39, -11078.44, 22783.49, -4674.13, 127571.30, -2812.63, 0.000, 0.000, 0.000, 16:58:32.253
210, -55522.56, -42421.69, 136401.98, 109323.23, 22619.25, -72331.38, -63768.25, 137384.92, 71942.55, 13802.83, 160006.33, -11074.15, 22786.62, -4675.58, 127649.38, -2803.24, 0.000, 0.000, 0.000, 16:58:32.253
211, -55494.62, -42395.87, 136412.78, 109321.26, 22649.92, -72332.99, -63768.68, 137380.80, 71942.55, 13802.83, 160006.33, -11074.15, 22786.62, -4675.58, 127649.38, -2803.24, 0.000, 0.000, 0.000, 16:58:32.253
212, -55494.62, -42395.87, 136412.78, 109321.26, 22649.92, -72332.99, -63768.68, 137380.80, 71909.98, 13765.95, 159993.64, -11109.40, 22753.72, -4709.15, 127725.06, -2842.94, 0.000, 0.000, 0.000, 16:58:32.254
213, -55501.77, -42403.70, 136415.83, 109317.95, 22637.00, -72336.39, -63789.60, 137381.69, 71909.98, 13765.95, 159993.64, -11109.40, 22753.72, -4709.15, 127725.06, -2842.94, 0.000, 0.000, 0.000, 16:58:32.254
214, -55501.77, -42403.70, 136415.83, 109317.95, 22637.00, -72336.39, -63789.60, 137381.69, 71921.79, 13770.24, 159994.63, -11095.38, 22760.15, -4703.75, 127796.48, -2839.54, 0.000, 0.000, 0.000, 16:58:32.254
215, -55497.19, -42398.04, 136418.72, 109311.05, 22641.80, -72345.98, -63776.27, 137372.72, 71921.79, 13770.24, 159994.63, -11095.38, 22760.15, -4703.75, 127796.48, -2839.54, 0.000, 0.000, 0.000, 16:58:32.254
216, -55497.19, -42398.04, 136418.72, 109311.05, 22641.80, -72345.98, -63776.27, 137372.72, 71911.52, 13762.39, 159995.19, -11102.31, 22739.12, -4717.22, 127869.34, -2839.25, 0.000, 0.000, 0.000, 16:58:32.255
217, -55485.01, -42385.41, 136417.78, 109302.33, 22650.99, -72350.74, -63784.68, 137366.34, 71911.52, 13762.39, 159995.19, -11102.31, 22739.12, -4717.22, 127869.34, -2839.25, -0.034, 0.884, 0.356, 16:58:32.255
218, -55485.01, -42385.41, 136417.78, 109302.33, 22650.99, -72350.74, -63784.68, 137366.34, 71902.45, 13744.13, 159987.34, -11111.75, 22720.55, -4722.21, 127943.73, -2856.80, 0.000, 0.000, 0.000, 16:58:32.255
219, -55495.54, -42396.30, 136419.33, 109305.50, 22635.70, -72339.48, -63800.17, 137376.19, 71902.45, 13744.13, 159987.34, -11111.75, 22720.55, -4722.21, 127943.73, -2856.80, 0.000, 0.000, 0.000, 16:58:32.255
220, -55495.54, -42396.30, 136419.33, 109305.50, 22635.70, -72339.48, -63800.17, 137376.19, 71898.16, 13744.11, 159983.19, -11116.97, 22718.74, -4729.49, 128016.05, -2858.16, 0.000, 0.000, 0.000, 16:58:32.255
221, -55504.01, -42405.28, 136421.20, 109301.55, 22628.39, -72336.59, -63798.92, 137377.28, 71898.16, 13744.11, 159983.19, -11116.97, 22718.74, -4729.49, 128016.05, -2858.16, 0.000, 0.000, 0.000, 16:58:32.255
222, -55504.01, -42405.28, 136421.20, 109301.55, 22628.39, -72336.59, -63798.92, 137377.28, 71938.98, 13822.72, 159991.25, -11080.79, 22755.17, -4688.01, 128086.73, -2835.86, 0.000, 0.000, 0.000, 16:58:32.256
223, -55518.67, -42422.40, 136422.75, 109298.51, 22621.87, -72335.96, -63799.61, 137373.80, 71938.98, 13822.72, 159991.25, -11080.79, 22755.17, -4688.01, 128086.73, -2835.86, 0.000, 0.000, 0.000, 16:58:32.256
224, -55518.67, -42422.40, 136422.75, 109298.51, 22621.87, -72335.96, -63799.61, 137373.80, 71929.19, 13862.53, 160005.09, -11095.96, 22735.90, -4705.15, 128159.94, -2827.67, 0.000, 0.000, 0.000, 16:58:32.256
225, -55490.48, -42392.12, 136426.38, 109293.30, 22666.93, -72341.77, -63773.44, 137376.66, 71929.19, 13862.53, 160005.09, -11095.96, 22735.90, -4705.15, 128159.94, -2827.67, 0.000, 0.000, 0.000, 16:58:32.711
226, -55490.48, -42392.12, 136426.38, 109293.30, 22666.93, -72341.77, -63773.44, 137376.66, 71906.81, 13858.17, 159986.88, -11119.28, 22704.77, -4722.23, 128231.08, -2851.26, 0.000, 0.000, 0.000, 16:58:32.711
227, -55494.91, -42393.97, 136431.53, 109303.09, 22673.29, -72331.27, -63784.46, 137384.86, 71906.81, 13858.17, 159986.88, -11119.28, 22704.77, -4722.23, 128231.08, -2851.26, -0.034, 0.884, 0.356, 16:58:32.711
228, -55494.91, -42393.97, 136431.53, 109303.09, 22673.29, -72331.27, -63784.46, 137384.86, 71904.82, 13870.13, 159980.73, -11113.22, 22702.24, -4713.51, 128300.84, -2839.50, 0.000, 0.000, 0.000, 16:58:32.711
229, -55508.10, -42403.92, 136435.38, 109303.06, 22662.10, -72326.71, -63776.05, 137385.11, 71904.82, 13870.13, 159980.73, -11113.22, 22702.24, -4713.51, 128300.84, -2839.50, 0.000, 0.000, 0.000, 16:58:32.713
230, -55508.10, -42403.92, 136435.38, 109303.06, 22662.10, -72326.71, -63776.05, 137385.11, 71926.37, 13896.64, 159997.58, -11090.17, 22726.20, -4690.67, 128365.62, -2814.53, 0.000, 0.000, 0.000, 16:58:32.713
231, -55496.21, -42390.91, 136442.70, 109301.03, 22666.61, -72327.72, -63781.84, 137388.95, 71926.37, 13896.64, 159997.58, -11090.17, 22726.20, -4690.67, 128365.62, -2814.53, 0.000, 0.000, 0.000, 16:58:32.714
232, -55496.21, -42390.91, 136442.70, 109301.03, 22666.61, -72327.72, -63781.84, 137388.95, 71908.38, 13883.61, 159998.36, -11107.95, 22705.26, -4708.10, 128428.78, -2830.78, 0.000, 0.000, 0.000, 16:58:32.714
233, -55477.81, -42375.48, 136447.89, 109298.41, 22676.11, -72331.20, -63771.71, 137387.16, 71908.38, 13883.61, 159998.36, -11107.95, 22705.26, -4708.10, 128428.78, -2830.78, 0.000, 0.000, 0.000, 16:58:32.714
234, -55477.81, -42375.48, 136447.89, 109298.41, 22676.11, -72331.20, -63771.71, 137387.16, 71887.27, 13865.75, 159990.50, -11136.02, 22674.88, -4737.05, 128493.96, -2857.38, 0.000, 0.000, 0.000, 16:58:32.714
235, -55478.10, -42376.05, 136443.94, 109295.31, 22667.44, -72330.69, -63792.43, 137378.80, 71887.27, 13865.75, 159990.50, -11136.02, 22674.88, -4737.05, 128493.96, -2857.38, 0.000, 0.000, 0.000, 16:58:32.714
236, -55478.10, -42376.05, 136443.94, 109295.31, 22667.44, -72330.69, -63792.43, 137378.80, 71892.75, 13871.00, 159987.02, -11129.92, 22679.02, -4725.34, 128558.98, -2853.85, -0.034, 0.886, 0.354, 16:58:32.714
237, -55485.97, -42386.19, 136446.13, 109295.45, 22657.92, -72327.98, -63769.84, 137391.05, 71892.75, 13871.00, 159987.02, -11129.92, 22679.02, -4725.34, 128558.98, -2853.85, 0.000, 0.000, 0.000, 16:58:32.715
238, -55485.97, -42386.19, 136446.13, 109295.45, 22657.92, -72327.98, -63769.84, 137391.05, 71904.45, 13883.96, 159996.28, -11117.00, 22690.17, -4710.32, 128621.90, -2834.25, 0.000, 0.000, 0.000, 16:58:32.715
239, -55486.35, -42387.82, 136453.59, 109287.78, 22661.99, -72326.15, -63774.98, 137386.83, 71904.45, 13883.96, 159996.28, -11117.00, 22690.17, -4710.32, 128621.90, -2834.25, 0.000, 0.000, 0.000, 16:58:32.715
240, -55486.35, -42387.82, 136453.59, 109287.78, 22661.99, -72326.15, -63774.98, 137386.83, 71897.02, 13872.70, 159996.11, -11130.94, 22677.86, -4722.77, 128686.32, -2849.02, 0.000, 0.000, 0.000, 16:58:32.715
241, -55496.72, -42394.29, 136441.39, 109277.25, 22659.24, -72329.77, -63798.70, 137379.67, 71897.02, 13872.70, 159996.11, -11130.94, 22677.86, -4722.77, 128686.32, -2849.02, 0.000, 0.000, 0.000, 16:58:32.715
242, -55496.72, -42394.29, 136441.39, 109277.25, 22659.24, -72329.77, -63798.70, 137379.67, 71942.75, 13910.81, 160009.88, -11087.67, 22712.32, -4678.87, 128752.80, -2823.00, 0.000, 0.000, 0.000, 16:58:32.715
243, -55514.64, -42410.11, 136447.45, 109273.92, 22647.84, -72330.11, -63794.22, 137383.30, 71942.75, 13910.81, 160009.88, -11087.67, 22712.32, -4678.87, 128752.80, -2823.00, 0.000, 0.000, 0.000, 16:58:32.716
244, -55514.64, -42410.11, 136447.45, 109273.92, 22647.84, -72330.11, -63794.22, 137383.30, 71954.13, 13926.61, 160034.19, -11078.08, 22726.61, -4666.17, 128818.98, -2799.94, 0.000, 0.000, 0.000, 16:58:32.716
245, -55498.51, -42395.00, 136461.33, 109281.38, 22669.68, -72323.83, -63785.17, 137389.17, 71954.13, 13926.61, 160034.19, -11078.08, 22726.61, -4666.17, 128818.98, -2799.94, 0.000, 0.000, 0.000, 16:58:32.716
246, -55498.51, -42395.00, 136461.33, 109281.38, 22669.68, -72323.83, -63785.17, 137389.17, 71908.38, 13877.35, 160028.27, -11130.86, 22676.02, -4716.35, 128883.80, -2828.99, -0.034, 0.888, 0.364, 16:58:32.716
247, -55472.85, -42366.90, 136456.13, 109269.96, 22700.52, -72330.00, -63786.82, 137375.06, 71908.38, 13877.35, 160028.27, -11130.86, 22676.02, -4716.35, 128883.80, -2828.99, 0.000, 0.000, 0.000, 16:58:32.716
248, -55472.85, -42366.90, 136456.13, 109269.96, 22700.52, -72330.00, -63786.82, 137375.06, 71892.87, 13855.82, 160004.89, -11150.86, 22655.50, -4738.28, 128949.38, -2862.83, 0.000, 0.000, 0.000, 16:58:32.716
249, -55475.75, -42368.22, 136455.47, 109263.70, 22704.05, -72334.83, -63760.05, 137370.39, 71892.87, 13855.82, 160004.89, -11150.86, 22655.50, -4738.28, 128949.38, -2862.83, 0.000, 0.000, 0.000, 16:58:32.717
250, -55475.75, -42368.22, 136455.47, 109263.70, 22704.05, -72334.83, -63760.05, 137370.39, 71880.39, 13832.06, 159989.06, -11171.98, 22634.65, -4755.71, 129016.52, -2880.60, 0.000, 0.000, 0.000, 16:58:32.717
251, -55495.96, -42387.78, 136448.05, 109259.46, 22686.01, -72332.59, -63766.75, 137374.23, 71880.39, 13832.06, 159989.06, -11171.98, 22634.65, -4755.71, 129016.52, -2880.60, 0.000, 0.000, 0.000, 16:58:32.717
252, -55495.96, -42387.78, 136448.05, 109259.46, 22686.01, -72332.59, -63766.75, 137374.23, 71900.66, 13854.19, 159994.56, -11153.74, 22653.58, -4735.10, 129080.96, -2859.15, 0.000, 0.000, 0.000, 16:58:32.717
253, -55504.48, -42389.55, 136449.22, 109255.16, 22690.06, -72326.63, -63766.46, 137378.47, 71900.66, 13854.19, 159994.56, -11153.74, 22653.58, -4735.10, 129080.96, -2859.15, 0.000, 0.000, 0.000, 16:58:32.717
254, -55504.48, -42389.55, 136449.22, 109255.16, 22690.06, -72326.63, -63766.46, 137378.47, 71909.78, 13863.98, 159996.73, -11143.91, 22661.16, -4721.83, 129143.68, -2835.21, 0.000, 0.000, 0.000, 16:58:32.718
255, -55511.54, -42388.96, 136457.39, 109252.33, 22694.71, -72321.10, -63763.58, 137373.95, 71909.78, 13863.98, 159996.73, -11143.91, 22661.16, -4721.83, 129143.68, -2835.21, 0.000, 0.000, 0.000, 16:58:32.718
0, -55511.54, -42388.96, 136457.39, 109252.33, 22694.71, -72321.10, -63763.58, 137373.95, 71910.05, 13861.05, 160000.16, -11144.47, 22655.08, -4726.63, 129209.75, -2838.34, -0.036, 0.888, 0.366, 16:58:32.718
1, -55510.46, -42383.29, 136456.41, 109247.68, 22707.63, -72324.70, -63756.65, 137374.13, 71910.05, 13861.05, 160000.16, -11144.47, 22655.08, -4726.63, 129209.75, -2838.34, 0.000, 0.000, 0.000, 16:58:32.718
2, -55510.46, -42383.29, 136456.41, 109247.68, 22707.63, -72324.70, -63756.65, 137374.13, 71871.52, 13822.90, 159986.11, -11188.19, 22610.80, -4766.98, 129279.11, -2859.26, 0.000, 0.000, 0.000, 16:58:32.719
3, -55496.54, -42370.90, 136455.20, 109243.81, 22726.36, -72321.73, -63773.55, 137380.98, 71871.52, 13822.90, 159986.11, -11188.19, 22610.80, -4766.98, 129279.11, -2859.26, 0.000, 0.000, 0.000, 16:58:32.719
4, -55496.54, -42370.90, 136455.20, 109243.81, 22726.36, -72321.73, -63773.55, 137380.98, 71890.23, 13823.77, 159976.02, -11173.82, 22618.24, -4744.34, 129345.77, -2861.16, 0.000, 0.000, 0.000, 16:58:32.719
5, -55529.27, -42399.02, 136453.94, 109245.00, 22695.71, -72318.80, -63801.69, 137383.55, 71890.23, 13823.77, 159976.02, -11173.82, 22618.24, -4744.34, 129345.77, -2861.16, 0.000, 0.000, 0.000, 16:58:32.719
6, -55529.27, -42399.02, 136453.94, 109245.00, 22695.71, -72318.80, -63801.69, 137383.55, 71923.55, 13861.50, 159996.31, -11138.88, 22648.91, -4709.69, 129407.81, -2828.41, 0.000, 0.000, 0.000, 16:58:32.720
7, -55540.60, -42403.20, 136461.89, 109250.43, 22692.67, -72314.09, -63765.17, 137385.78, 71923.55, 13861.50, 159996.31, -11138.88, 22648.91, -4709.69, 129407.81, -2828.41, 0.000, 0.000, 0.000, 16:58:32.720
8, -55540.60, -42403.20, 136461.89, 109250.43, 22692.67, -72314.09, -63765.17, 137385.78, 71928.20, 13866.31, 160016.64, -11136.64, 22644.91, -4707.59, 129472.25, -2818.96, 0.000, 0.000, 0.000, 16:58:32.721
9, -55540.64, -42398.44, 136463.91, 109242.54, 22703.69, -72320.70, -63753.34, 137379.16, 71928.20, 13866.31, 160016.64, -11136.64, 22644.91, -4707.59, 129472.25, -2818.96, 0.000, 0.000, 0.000, 16:58:32.721
10, -55540.64, -42398.44, 136463.91, 109242.54, 22703.69, -72320.70, -63753.34, 137379.16, 71948.09, 13886.11, 160032.36, -11118.72, 22657.16, -4687.07, 129539.13, -2802.31, -0.038, 0.884, 0.370, 16:58:32.721
11, -55529.15, -42382.15, 136472.61, 109239.56, 22726.52, -72323.27, -63750.79, 137376.16, 71948.09, 13886.11, 160032.36, -11118.72, 22657.16, -4687.07, 129539.13, -2802.31, 0.000, 0.000, 0.000, 16:58:32.721
12, -55529.15, -42382.15, 136472.61, 109239.56, 22726.52, -72323.27, -63750.79, 137376.16, 71910.45, 13842.75, 160028.31, -11162.17, 22605.68, -4734.73, 129605.78, -2832.03, 0.000, 0.000, 0.000, 16:58:32.721
13, -55522.78, -42368.25, 136472.28, 109235.05, 22737.51, -72326.95, -63764.36, 137377.14, 71910.45, 13842.75, 160028.31, -11162.17, 22605.68, -4734.73, 129605.78, -2832.03, 0.000, 0.000, 0.000, 16:58:32.722
14, -55522.78, -42368.25, 136472.28, 109235.05, 22737.51, -72326.95, -63764.36, 137377.14, 71894.61, 13834.83, 160012.02, -11171.38, 22583.13, -4748.49, 129670.27, -2853.24, 0.000, 0.000, 0.000, 16:58:32.722
15, -55517.02, -42356.98, 136475.66, 109231.05, 22744.33, -72326.71, -63775.87, 137376.70, 71894.61, 13834.83, 160012.02, -11171.38, 22583.13, -4748.49, 129670.27, -2853.24, 0.000, 0.000, 0.000, 16:58:32.722
16, -55517.02, -42356.98, 136475.66, 109231.05, 22744.33, -72326.71, -63775.87, 137376.70, 71878.27, 13817.85, 159997.77, -11189.66, 22562.83, -4760.07, 129733.72, -2866.63, 0.000, 0.000, 0.000, 16:58:32.722
17, -55515.88, -42353.76, 136488.20, 109241.13, 22751.24, -72311.06, -63760.47, 137390.92, 71878.27, 13817.85, 159997.77, -11189.66, 22562.83, -4760.07, 129733.72, -2866.63, 0.000, 0.000, 0.000, 16:58:32.722
18, -55515.88, -42353.76, 136488.20, 109241.13, 22751.24, -72311.06, -63760.47, 137390.92, 71880.91, 13826.97, 160002.20, -11177.75, 22574.39, -4743.98, 129799.66, -2843.50, 0.000, 0.000, 0.000, 16:58:32.723
19, -55536.19, -42366.05, 136495.44, 109247.66, 22747.10, -72302.34, -63746.26, 137384.25, 71880.91, 13826.97, 160002.20, -11177.75, 22574.39, -4743.98, 129799.66, -2843.50, 0.000, 0.000, 0.000, 16:58:32.723
20, -55536.19, -42366.05, 136495.44, 109247.66, 22747.10, -72302.34, -63746.26, 137384.25, 71893.13, 13833.96, 160018.48, -11177.12, 22578.39, -4731.53, 129861.04, -2823.61, -0.040, 0.880, 0.374, 16:58:32.723
21, -55524.05, -42351.82, 136490.50, 109226.42, 22772.65, -72317.84, -63783.90, 137378.16, 71893.13, 13833.96, 160018.48, -11177.12, 22578.39, -4731.53, 129861.04, -2823.61, 0.000, 0.000, 0.000, 16:58:32.723
22, -55524.05, -42351.82, 136490.50, 109226.42, 22772.65, -72317.84, -63783.90, 137378.16, 71889.24, 13815.86, 160010.45, -11182.33, 22576.56, -4729.20, 129927.06, -2851.10, 0.000, 0.000, 0.000, 16:58:32.723
23, -55543.66, -42367.75, 136499.53, 109232.62, 22762.03, -72310.26, -63751.75, 137382.11, 71889.24, 13815.86, 160010.45, -11182.33, 22576.56, -4729.20, 129927.06, -2851.10, 0.000, 0.000, 0.000, 16:58:32.724
24, -55543.66, -42367.75, 136499.53, 109232.62, 22762.03, -72310.26, -63751.75, 137382.11, 71900.38, 13835.55, 160024.05, -11170.33, 22585.59, -4719.12, 129998.41, -2834.80, 0.000, 0.000, 0.000, 16:58:32.724
25, -55531.01, -42353.78, 136501.03, 109225.51, 22787.36, -72315.76, -63760.23, 137376.64, 71900.38, 13835.55, 160024.05, -11170.33, 22585.59, -4719.12, 129998.41, -2834.80, 0.000, 0.000, 0.000, 16:58:32.724
26, -55531.01, -42353.78, 136501.03, 109225.51, 22787.36, -72315.76, -63760.23, 137376.64, 71887.81, 13817.22, 160019.11, -11191.56, 22561.78, -4738.66, 130071.01, -2853.00, 0.000, 0.000, 0.000, 16:58:32.724
27, -55534.96, -42358.77, 136491.86, 109219.00, 22790.62, -72317.37, -63762.91, 137375.78, 71887.81, 13817.22, 160019.11, -11191.56, 22561.78, -4738.66, 130071.01, -2853.00, 0.000, 0.000, 0.000, 16:58:32.724
28, -55534.96, -42358.77, 136491.86, 109219.00, 22790.62, -72317.37, -63762.91, 137375.78, 71885.17, 13816.98, 160016.64, -11200.62, 22556.55, -4745.83, 130142.67, -2857.85, 0.000, 0.000, 0.000, 16:58:32.724
29, -55537.60, -42360.67, 136488.39, 109210.82, 22799.67, -72322.53, -63741.34, 137369.88, 71885.17, 13816.98, 160016.64, -11200.62, 22556.55, -4745.83, 130142.67, -2857.85, 0.000, 0.000, 0.000, 16:58:32.725
30, -55537.60, -42360.67, 136488.39, 109210.82, 22799.67, -72322.53, -63741.34, 137369.88, 71896.24, 13815.28, 160009.50, -11202.63, 22556.96, -4742.08, 130210.35, -2869.03, -0.040, 0.878, 0.374, 16:58:32.725
31, -55567.44, -42384.74, 136482.20, 109209.66, 22782.75, -72323.96, -63764.77, 137372.41, 71896.24, 13815.28, 160009.50, -11202.63, 22556.96, -4742.08, 130210.35, -2869.03, 0.000, 0.000, 0.000, 16:58:32.725
32, -55567.44, -42384.74, 136482.20, 109209.66, 22782.75, -72323.96, -63764.77, 137372.41, 71905.63, 13838.23, 160025.52, -11190.18, 22565.40, -4725.20, 130279.46, -2864.38, 0.000, 0.000, 0.000, 16:58:32.725
33, -55553.56, -42368.58, 136486.16, 109204.63, 22818.07, -72321.81, -63764.65, 137374.94, 71905.63, 13838.23, 160025.52, -11190.18, 22565.40, -4725.20, 130279.46, -2864.38, 0.000, 0.000, 0.000, 16:58:32.726
34, -55553.56, -42368.58, 136486.16, 109204.63, 22818.07, -72321.81, -63764.65, 137374.94, 71896.71, 13820.02, 160020.69, -11203.50, 22551.70, -4738.10, 130348.69, -2883.38, 0.000, 0.000, 0.000, 16:58:32.726
35, -55568.25, -42372.89, 136484.17, 109202.30, 22820.28, -72313.84, -63762.64, 137371.11, 71896.71, 13820.02, 160020.69, -11203.50, 22551.70, -4738.10, 130348.69, -2883.38, 0.000, 0.000, 0.000, 16:58:32.726
36, -55568.25, -42372.89, 136484.17, 109202.30, 22820.28, -72313.84, -63762.64, 137371.11, 71910.84, 13832.80, 160027.27, -11192.39, 22555.61, -4725.40, 130414.73, -2874.84, 0.000, 0.000, 0.000, 16:58:32.726
37, -55584.38, -42376.52, 136479.30, 109196.41, 22818.89, -72316.61, -63776.83, 137364.81, 71910.84, 13832.80, 160027.27, -11192.39, 22555.61, -4725.40, 130414.73, -2874.84, 0.000, 0.000, 0.000, 16:58:32.727
38, -55584.38, -42376.52, 136479.30, 109196.41, 22818.89, -72316.61, -63776.83, 137364.81, 71922.50, 13839.24, 160034.48, -11186.60, 22561.80, -4713.36, 130477.72, -2890.93, 0.000, 0.000, 0.000, 16:58:32.727
39, -55595.94, -42379.69, 136485.22, 109197.88, 22827.63, -72307.13, -63800.19, 137377.58, 71922.50, 13839.24, 160034.48, -11186.60, 22561.80, -4713.36, 130477.72, -2890.93, 0.000, 0.000, 0.000, 16:58:32.727
40, -55595.94, -42379.69, 136485.22, 109197.88, 22827.63, -72307.13, -63800.19, 137377.58, 71916.51, 13836.62, 160044.75, -11187.09, 22556.53, -4712.98, 130546.27, -2905.12, -0.030, 0.880, 0.380, 16:58:32.727
41, -55580.58, -42357.58, 136494.13, 109193.01, 22860.02, -72311.16, -63753.72, 137372.61, 71916.51, 13836.62, 160044.75, -11187.09, 22556.53, -4712.98, 130546.27, -2905.12, 0.000, 0.000, 0.000, 16:58:32.727
42, -55580.58, -42357.58, 136494.13, 109193.01, 22860.02, -72311.16, -63753.72, 137372.61, 71888.10, 13805.13, 160034.50, -11215.05, 22528.72, -4743.00, 130617.48, -2945.78, 0.000, 0.000, 0.000, 16:58:32.728
43, -55596.83, -42364.49, 136490.20, 109193.16, 22854.63, -72309.21, -63754.32, 137376.92, 71888.10, 13805.13, 160034.50, -11215.05, 22528.72, -4743.00, 130617.48, -2945.78, 0.000, 0.000, 0.000, 16:58:32.728
44, -55596.83, -42364.49, 136490.20, 109193.16, 22854.63, -72309.21, -63754.32, 137376.92, 71907.75, 13831.86, 160039.16, -11191.92, 22550.99, -4717.09, 130682.76, -2930.09, 0.000, 0.000, 0.000, 16:58:32.728
45, -55603.29, -42364.42, 136499.11, 109198.35, 22858.05, -72301.66, -63778.93, 137372.00, 71907.75, 13831.86, 160039.16, -11191.92, 22550.99, -4717.09, 130682.76, -2930.09, 0.000, 0.000, 0.000, 16:58:32.729
46, -55603.29, -42364.42, 136499.11, 109198.35, 22858.05, -72301.66, -63778.93, 137372.00, 71883.61, 13813.94, 160044.77, -11217.36, 22524.12, -4746.44, 130746.26, -2918.11, 0.000, 0.000, 0.000, 16:58:32.731
47, -55586.68, -42350.47, 136502.50, 109189.20, 22882.53, -72309.10, -63775.27, 137364.67, 71883.61, 13813.94, 160044.77, -11217.36, 22524.12, -4746.44, 130746.26, -2918.11, 0.000, 0.000, 0.000, 16:58:32.731
48, -55586.68, -42350.47, 136502.50, 109189.20, 22882.53, -72309.10, -63775.27, 137364.67, 71880.30, 13802.76, 160040.97, -11220.78, 22516.16, -4752.90, 130812.84, -2929.78, 0.000, 0.000, 0.000, 16:58:32.731
49, -55593.32, -42353.11, 136506.02, 109181.52, 22883.42, -72318.22, -63785.46, 137358.42, 71880.30, 13802.76, 160040.97, -11220.78, 22516.16, -4752.90, 130812.84, -2929.78, 0.000, 0.000, 0.000, 16:58:32.731
50, -55593.32, -42353.11, 136506.02, 109181.52, 22883.42, -72318.22, -63785.46, 137358.42, 71872.84, 13786.82, 160040.05, -11235.08, 22501.52, -4769.21, 130877.08, -2936.97, -0.030, 0.878, 0.378, 16:58:32.732
51, -55593.46, -42349.00, 136508.78, 109179.64, 22894.78, -72315.38, -63764.59, 137352.98, 71872.84, 13786.82, 160040.05, -11235.08, 22501.52, -4769.21, 130877.08, -2936.97, 0.000, 0.000, 0.000, 16:58:32.732
52, -55593.46, -42349.00, 136508.78, 109179.64, 22894.78, -72315.38, -63764.59, 137352.98, 71867.31, 13781.35, 160032.41, -11236.60, 22495.60, -4763.42, 130938.26, -2943.97, 0.000, 0.000, 0.000, 16:58:32.732
53, -55624.88, -42369.54, 136512.52, 109187.66, 22870.77, -72297.63, -63769.10, 137372.31, 71867.31, 13781.35, 160032.41, -11236.60, 22495.60, -4763.42, 130938.26, -2943.97, 0.000, 0.000, 0.000, 16:58:32.732
54, -55624.88, -42369.54, 136512.52, 109187.66, 22870.77, -72297.63, -63769.10, 137372.31, 71915.02, 13836.20, 160050.78, -11182.69, 22541.42, -4709.69, 131001.22, -2880.09, 0.000, 0.000, 0.000, 16:58:32.733
55, -55626.38, -42368.87, 136518.92, 109188.47, 22878.24, -72294.46, -63759.51, 137374.11, 71915.02, 13836.20, 160050.78, -11182.69, 22541.42, -4709.69, 131001.22, -2880.09, 0.000, 0.000, 0.000, 16:58:32.733
56, -55626.38, -42368.87, 136518.92, 109188.47, 22878.24, -72294.46, -63759.51, 137374.11, 71904.40, 13828.64, 160064.66, -11200.79, 22523.14, -4722.63, 131065.15, -2876.31, 0.000, 0.000, 0.000, 16:58:32.733
57, -55634.72, -42372.04, 136518.34, 109185.70, 22872.32, -72289.48, -63767.85, 137371.63, 71904.40, 13828.64, 160064.66, -11200.79, 22523.14, -4722.63, 131065.15, -2876.31, 0.000, 0.000, 0.000, 16:58:32.733
58, -55634.72, -42372.04, 136518.34, 109185.70, 22872.32, -72289.48, -63767.85, 137371.63, 71935.20, 13860.99, 160082.70, -11170.33, 22551.84, -4690.71, 131128.98, -2846.36, 0.000, 0.000, 0.000, 16:58:32.734
59, -55619.83, -42356.15, 136524.45, 109182.01, 22893.73, -72293.79, -63758.48, 137362.19, 71935.20, 13860.99, 160082.70, -11170.33, 22551.84, -4690.71, 131128.98, -2846.36, 0.000, 0.000, 0.000, 16:58:32.734
60, -55619.83, -42356.15, 136524.45, 109182.01, 22893.73, -72293.79, -63758.48, 137362.19, 71895.91, 13812.89, 160073.48, -11215.05, 22503.65, -4736.74, 131193.30, -2881.32, -0.032, 0.874, 0.380, 16:58:32.734
61, -55620.59, -42350.79, 136521.48, 109184.89, 22904.61, -72289.83, -63770.13, 137373.53, 71895.91, 13812.89, 160073.48, -11215.05, 22503.65, -4736.74, 131193.30, -2881.32, 0.000, 0.000, 0.000, 16:58:32.734
