%OpenBCI Raw EEG Data
%
%Sample Rate = 250.0 Hz
%First Column = SampleIndex
%Last Column = Timestamp 
%Other Columns = EEG data in microvolts followed by Accel Data (in G) interleaved with Aux Data
0, 0.00, 0.00, 0.00, 0.00, 0.00, 0.00, 0.00, 0.00, 30225.66, 3078.71, 75148.10, 2940.77, 86316.47, -36644.03, 76346.56, -18554.29, 0.000, 0.000, 0.000, 17:18:13.438
1, -23875.84, -26543.61, 73916.63, 82966.21, 2716.09, 4115.11, -20541.23, 985.49, 30225.66, 3078.71, 75148.10, 2940.77, 86316.47, -36644.03, 76346.56, -18554.29, 0.058, 0.918, 0.096, 17:18:13.916
2, -23875.84, -26543.61, 73916.63, 82966.21, 2716.09, 4115.11, -20541.23, 985.49, 61082.02, 4285.52, 152975.56, 4521.40, 162526.61, -64131.73, 158435.16, -21336.97, 0.000, 0.000, 0.000, 17:18:13.917
3, -47722.74, -53064.96, 147838.72, 165940.64, 5433.35, 8241.40, -41089.77, 1995.03, 61082.02, 4285.52, 152975.56, 4521.40, 162526.61, -64131.73, 158435.16, -21336.97, 0.000, 0.000, 0.000, 17:18:13.917
4, -47722.74, -53064.96, 147838.72, 165940.64, 5433.35, 8241.40, -41089.77, 1995.03, 61081.19, 4309.98, 152971.28, 4512.37, 162513.36, -64094.70, 158487.88, -21302.78, 0.000, 0.000, 0.000, 17:18:13.917
5, -47714.22, -53076.11, 147835.06, 165932.75, 5431.50, 8227.50, -41108.68, 2012.86, 61081.19, 4309.98, 152971.28, 4512.37, 162513.36, -64094.70, 158487.88, -21302.78, 0.000, 0.000, 0.000, 17:18:13.917
6, -47714.22, -53076.11, 147835.06, 165932.75, 5431.50, 8227.50, -41108.68, 2012.86, 61084.45, 4280.67, 152972.70, 4506.56, 162538.38, -64114.08, 158506.05, -21304.05, 0.000, 0.000, 0.000, 17:18:13.917
7, -47705.24, -53089.93, 147809.23, 165921.98, 5416.90, 8208.48, -41106.80, 2059.13, 61084.45, 4280.67, 152972.70, 4506.56, 162538.38, -64114.08, 158506.05, -21304.05, 0.000, 0.000, 0.000, 17:18:13.917
8, -47705.24, -53089.93, 147809.23, 165921.98, 5416.90, 8208.48, -41106.80, 2059.13, 61091.09, 4280.18, 152957.45, 4488.90, 162535.36, -64067.83, 158553.23, -21256.80, -0.008, 0.916, 0.276, 17:18:13.918
9, -47664.73, -53079.63, 147812.50, 165900.13, 5427.23, 8184.02, -41118.69, 2090.65, 61091.09, 4280.18, 152957.45, 4488.90, 162535.36, -64067.83, 158553.23, -21256.80, 0.000, 0.000, 0.000, 17:18:13.918
10, -47664.73, -53079.63, 147812.50, 165900.13, 5427.23, 8184.02, -41118.69, 2090.65, 61106.76, 4270.59, 152983.67, 4508.30, 162553.33, -64042.93, 158579.61, -21236.17, 0.000, 0.000, 0.000, 17:18:13.918
11, -47694.91, -53108.28, 147827.80, 165893.13, 5435.59, 8178.57, -41134.34, 2095.59, 61106.76, 4270.59, 152983.67, 4508.30, 162553.33, -64042.93, 158579.61, -21236.17, 0.000, 0.000, 0.000, 17:18:13.918
12, -47694.91, -53108.28, 147827.80, 165893.13, 5435.59, 8178.57, -41134.34, 2095.59, 61104.77, 4262.72, 152989.06, 4512.93, 162540.61, -64063.94, 158578.52, -21243.70, 0.000, 0.000, 0.000, 17:18:13.918
13, -47687.11, -53102.71, 147837.83, 165904.70, 5445.44, 8193.68, -41154.99, 2104.35, 61104.77, 4262.72, 152989.06, 4512.93, 162540.61, -64063.94, 158578.52, -21243.70, 0.000, 0.000, 0.000, 17:18:13.918
14, -47687.11, -53102.71, 147837.83, 165904.70, 5445.44, 8193.68, -41154.99, 2104.35, 61111.34, 4288.83, 153007.78, 4522.12, 162573.69, -64049.50, 158589.47, -21237.49, 0.000, 0.000, 0.000, 17:18:13.919
15, -47676.67, -53106.80, 147840.92, 165921.33, 5442.54, 8233.11, -41078.77, 2127.62, 61111.34, 4288.83, 153007.78, 4522.12, 162573.69, -64049.50, 158589.47, -21237.49, 0.000, 0.000, 0.000, 17:18:13.919
16, -47676.67, -53106.80, 147840.92, 165921.33, 5442.54, 8233.11, -41078.77, 2127.62, 61092.37, 4251.53, 152962.61, 4473.68, 162545.36, -64054.18, 158597.72, -21220.92, 0.000, 0.000, 0.000, 17:18:13.919
17, -47660.78, -53115.81, 147812.19, 165906.16, 5412.65, 8233.15, -41085.23, 2187.41, 61092.37, 4251.53, 152962.61, 4473.68, 162545.36, -64054.18, 158597.72, -21220.92, 0.000, 0.000, 0.000, 17:18:13.919
18, -47660.78, -53115.81, 147812.19, 165906.16, 5412.65, 8233.15, -41085.23, 2187.41, 61101.44, 4268.49, 152977.80, 4494.33, 162556.31, -64021.50, 158620.63, -21184.56, 0.010, 0.918, 0.280, 17:18:13.919
19, -47623.25, -53100.28, 147807.55, 165906.67, 5428.30, 8233.40, -41095.16, 2218.14, 61101.44, 4268.49, 152977.80, 4494.33, 162556.31, -64021.50, 158620.63, -21184.56, 0.000, 0.000, 0.000, 17:18:13.919
20, -47623.25, -53100.28, 147807.55, 165906.67, 5428.30, 8233.40, -41095.16, 2218.14, 61118.16, 4275.42, 152995.58, 4520.51, 162562.91, -64014.59, 158623.06, -21170.12, 0.000, 0.000, 0.000, 17:18:13.920
21, -47685.10, -53143.33, 147814.97, 165899.78, 5448.89, 8217.19, -41121.82, 2193.62, 61118.16, 4275.42, 152995.58, 4520.51, 162562.91, -64014.59, 158623.06, -21170.12, 0.000, 0.000, 0.000, 17:18:13.920
22, -47685.10, -53143.33, 147814.97, 165899.78, 5448.89, 8217.19, -41121.82, 2193.62, 61118.77, 4280.72, 153019.95, 4544.62, 162559.20, -64082.45, 158574.36, -21219.43, 0.000, 0.000, 0.000, 17:18:13.920
23, -47671.11, -53126.21, 147808.22, 165917.34, 5428.08, 8230.45, -41089.30, 2211.55, 61118.77, 4280.72, 153019.95, 4544.62, 162559.20, -64082.45, 158574.36, -21219.43, 0.000, 0.000, 0.000, 17:18:13.920
24, -47671.11, -53126.21, 147808.22, 165917.34, 5428.08, 8230.45, -41089.30, 2211.55, 61101.87, 4282.01, 152977.53, 4510.58, 162558.55, -64054.53, 158583.72, -21198.30, 0.000, 0.000, 0.000, 17:18:13.920
25, -47652.96, -53124.82, 147799.27, 165910.98, 5413.12, 8212.14, -41085.79, 2242.39, 61101.87, 4282.01, 152977.53, 4510.58, 162558.55, -64054.53, 158583.72, -21198.30, 0.000, 0.000, 0.000, 17:18:13.921
26, -47652.96, -53124.82, 147799.27, 165910.98, 5413.12, 8212.14, -41085.79, 2242.39, 61106.85, 4273.41, 152979.25, 4513.93, 162516.78, -64053.39, 158574.78, -21187.22, 0.000, 0.000, 0.000, 17:18:13.921
27, -47648.53, -53123.66, 147783.77, 165905.34, 5387.06, 8196.43, -41121.71, 2275.21, 61106.85, 4273.41, 152979.25, 4513.93, 162516.78, -64053.39, 158574.78, -21187.22, 0.046, 0.920, 0.270, 17:18:13.921
28, -47648.53, -53123.66, 147783.77, 165905.34, 5387.06, 8196.43, -41121.71, 2275.21, 61126.05, 4302.73, 153011.13, 4552.71, 162534.34, -64023.39, 158560.28, -21172.73, 0.000, 0.000, 0.000, 17:18:13.921
29, -47626.49, -53106.20, 147787.92, 165906.16, 5400.76, 8169.72, -41193.14, 2263.09, 61126.05, 4302.73, 153011.13, 4552.71, 162534.34, -64023.39, 158560.28, -21172.73, 0.000, 0.000, 0.000, 17:18:13.922
30, -47626.49, -53106.20, 147787.92, 165906.16, 5400.76, 8169.72, -41193.14, 2263.09, 61123.75, 4294.17, 152989.69, 4531.35, 162563.25, -64008.11, 158526.66, -21175.57, 0.000, 0.000, 0.000, 17:18:13.922
31, -47620.77, -53117.31, 147761.81, 165886.58, 5383.71, 8158.61, -41193.73, 2290.32, 61123.75, 4294.17, 152989.69, 4531.35, 162563.25, -64008.11, 158526.66, -21175.57, 0.000, 0.000, 0.000, 17:18:13.922
32, -47620.77, -53117.31, 147761.81, 165886.58, 5383.71, 8158.61, -41193.73, 2290.32, 61126.63, 4292.67, 152993.44, 4537.63, 162552.19, -63994.88, 158506.30, -21163.30, 0.000, 0.000, 0.000, 17:18:13.923
33, -47594.04, -53097.46, 147794.11, 165912.34, 5432.46, 8213.68, -41054.54, 2310.79, 61126.63, 4292.67, 152993.44, 4537.63, 162552.19, -63994.88, 158506.30, -21163.30, 0.000, 0.000, 0.000, 17:18:13.923
34, -47594.04, -53097.46, 147794.11, 165912.34, 5432.46, 8213.68, -41054.54, 2310.79, 61120.17, 4316.26, 153013.59, 4542.75, 162549.77, -63961.48, 158507.97, -21145.71, 0.000, 0.000, 0.000, 17:18:13.923
35, -47566.77, -53087.96, 147796.84, 165918.38, 5430.83, 8237.36, -40997.95, 2333.88, 61120.17, 4316.26, 153013.59, 4542.75, 162549.77, -63961.48, 158507.97, -21145.71, 0.000, 0.000, 0.000, 17:18:13.924
36, -47566.77, -53087.96, 147796.84, 165918.38, 5430.83, 8237.36, -40997.95, 2333.88, 61114.07, 4286.44, 153011.63, 4533.16, 162556.59, -63979.86, 158481.75, -21151.54, 0.000, 0.000, 0.000, 17:18:13.924
37, -47569.27, -53094.13, 147790.69, 165916.09, 5416.54, 8244.98, -41033.98, 2352.10, 61114.07, 4286.44, 153011.63, 4533.16, 162556.59, -63979.86, 158481.75, -21151.54, 0.046, 0.906, 0.258, 17:18:13.924
38, -47569.27, -53094.13, 147790.69, 165916.09, 5416.54, 8244.98, -41033.98, 2352.10, 61111.79, 4302.24, 153001.58, 4524.75, 162560.91, -63956.81, 158481.06, -21131.25, 0.000, 0.000, 0.000, 17:18:13.924
39, -47520.34, -53065.43, 147792.03, 165921.13, 5432.84, 8250.14, -41072.69, 2375.66, 61111.79, 4302.24, 153001.58, 4524.75, 162560.91, -63956.81, 158481.06, -21131.25, 0.000, 0.000, 0.000, 17:18:13.924
40, -47520.34, -53065.43, 147792.03, 165921.13, 5432.84, 8250.14, -41072.69, 2375.66, 61123.61, 4308.83, 153033.20, 4550.97, 162583.91, -63938.77, 158481.44, -21114.31, 0.000, 0.000, 0.000, 17:18:13.924
41, -47523.59, -53077.10, 147787.97, 165916.19, 5415.51, 8235.61, -41091.31, 2391.41, 61123.61, 4308.83, 153033.20, 4550.97, 162583.91, -63938.77, 158481.44, -21114.31, 0.000, 0.000, 0.000, 17:18:13.925
42, -47523.59, -53077.10, 147787.97, 165916.19, 5415.51, 8235.61, -41091.31, 2391.41, 61118.99, 4297.79, 153013.80, 4526.99, 162623.20, -63932.78, 158480.33, -21096.36, 0.000, 0.000, 0.000, 17:18:13.925
43, -47484.36, -53064.13, 147780.00, 165909.02, 5413.35, 8229.22, -41109.91, 2417.92, 61118.99, 4297.79, 153013.80, 4526.99, 162623.20, -63932.78, 158480.33, -21096.36, 0.000, 0.000, 0.000, 17:18:13.925
44, -47484.36, -53064.13, 147780.00, 165909.02, 5413.35, 8229.22, -41109.91, 2417.92, 61120.51, 4313.95, 152999.14, 4506.76, 162590.78, -63875.85, 158490.97, -21055.52, 0.000, 0.000, 0.000, 17:18:13.925
45, -47442.83, -53063.84, 147762.97, 165882.89, 5408.85, 8215.79, -41125.35, 2457.17, 61120.51, 4313.95, 152999.14, 4506.76, 162590.78, -63875.85, 158490.97, -21055.52, 0.000, 0.000, 0.000, 17:18:13.925
46, -47442.83, -53063.84, 147762.97, 165882.89, 5408.85, 8215.79, -41125.35, 2457.17, 61141.88, 4297.26, 153034.00, 4538.16, 162624.53, -63872.05, 158479.27, -21045.53, 0.000, 0.000, 0.000, 17:18:13.926
47, -47460.39, -53081.01, 147772.25, 165877.92, 5404.90, 8212.19, -41137.82, 2462.13, 61141.88, 4297.26, 153034.00, 4538.16, 162624.53, -63872.05, 158479.27, -21045.53, 0.062, 0.924, 0.248, 17:18:13.926
48, -47460.39, -53081.01, 147772.25, 165877.92, 5404.90, 8212.19, -41137.82, 2462.13, 61125.74, 4307.20, 152998.92, 4491.47, 162566.83, -63847.11, 158473.06, -21027.49, 0.000, 0.000, 0.000, 17:18:13.926
49, -47391.93, -53057.81, 147749.78, 165873.61, 5375.48, 8207.29, -41180.56, 2514.91, 61125.74, 4307.20, 152998.92, 4491.47, 162566.83, -63847.11, 158473.06, -21027.49, 0.000, 0.000, 0.000, 17:18:13.926
50, -47391.93, -53057.81, 147749.78, 165873.61, 5375.48, 8207.29, -41180.56, 2514.91, 61134.30, 4306.71, 153008.44, 4499.65, 162549.03, -63813.09, 158480.55, -20995.89, 0.000, 0.000, 0.000, 17:18:13.927
51, -47413.10, -53093.01, 147761.77, 165854.47, 5391.89, 8177.01, -41164.43, 2542.22, 61134.30, 4306.71, 153008.44, 4499.65, 162549.03, -63813.09, 158480.55, -20995.89, 0.000, 0.000, 0.000, 17:18:13.927
52, -47413.10, -53093.01, 147761.77, 165854.47, 5391.89, 8177.01, -41164.43, 2542.22, 61146.26, 4312.01, 153021.05, 4519.75, 162573.13, -63820.11, 158481.16, -20988.80, 0.000, 0.000, 0.000, 17:18:13.927
53, -47389.90, -53084.70, 147774.33, 165866.44, 5393.19, 8189.08, -41087.49, 2580.53, 61146.26, 4312.01, 153021.05, 4519.75, 162573.13, -63820.11, 158481.16, -20988.80, 0.000, 0.000, 0.000, 17:18:13.927
54, -47389.90, -53084.70, 147774.33, 165866.44, 5393.19, 8189.08, -41087.49, 2580.53, 61147.40, 4322.65, 153018.66, 4530.72, 162593.61, -63776.03, 158500.69, -20954.38, 0.000, 0.000, 0.000, 17:18:13.927
55, -47381.23, -53085.19, 147779.61, 165873.30, 5390.19, 8237.44, -41139.97, 2592.29, 61147.40, 4322.65, 153018.66, 4530.72, 162593.61, -63776.03, 158500.69, -20954.38, 0.000, 0.000, 0.000, 17:18:13.928
56, -47381.23, -53085.19, 147779.61, 165873.30, 5390.19, 8237.44, -41139.97, 2592.29, 61152.18, 4310.94, 153030.86, 4553.03, 162651.31, -63784.28, 158486.27, -20957.20, 0.000, 0.000, 0.000, 17:18:13.928
57, -47374.27, -53080.23, 147788.91, 165902.42, 5401.48, 8278.62, -41081.28, 2622.17, 61152.18, 4310.94, 153030.86, 4553.03, 162651.31, -63784.28, 158486.27, -20957.20, 0.068, 0.914, 0.262, 17:18:13.929
58, -47374.27, -53080.23, 147788.91, 165902.42, 5401.48, 8278.62, -41081.28, 2622.17, 61142.79, 4324.46, 153023.59, 4545.27, 162639.53, -63749.63, 158504.28, -20926.91, 0.000, 0.000, 0.000, 17:18:13.929
59, -47330.58, -53056.78, 147797.34, 165919.55, 5403.78, 8300.57, -41039.25, 2651.03, 61142.79, 4324.46, 153023.59, 4545.27, 162639.53, -63749.63, 158504.28, -20926.91, 0.000, 0.000, 0.000, 17:18:13.929
60, -47330.58, -53056.78, 147797.34, 165919.55, 5403.78, 8300.57, -41039.25, 2651.03, 61134.46, 4313.10, 153034.83, 4558.33, 162649.89, -63751.51, 158495.59, -20917.66, 0.000, 0.000, 0.000, 17:18:13.929
61, -47366.14, -53072.67, 147806.05, 165927.66, 5412.90, 8307.76, -41052.89, 2665.27, 61134.46, 4313.10, 153034.83, 4558.33, 162649.89, -63751.51, 158495.59, -20917.66, 0.000, 0.000, 0.000, 17:18:13.929
62, -47366.14, -53072.67, 147806.05, 165927.66, 5412.90, 8307.76, -41052.89, 2665.27, 61125.43, 4298.93, 153028.16, 4546.77, 162676.48, -63782.20, 158473.58, -20926.28, 0.000, 0.000, 0.000, 17:18:13.929
63, -47340.39, -53056.18, 147778.83, 165930.11, 5398.48, 8299.56, -41057.94, 2706.22, 61125.43, 4298.93, 153028.16, 4546.77, 162676.48, -63782.20, 158473.58, -20926.28, 0.000, 0.000, 0.000, 17:18:13.930
64, -47340.39, -53056.18, 147778.83, 165930.11, 5398.48, 8299.56, -41057.94, 2706.22, 61130.99, 4308.30, 153013.23, 4530.41, 162683.23, -63733.56, 158492.55, -20882.00, 0.000, 0.000, 0.000, 17:18:13.930
65, -47328.21, -53061.25, 147760.98, 165917.02, 5396.72, 8283.27, -41079.93, 2743.72, 61130.99, 4308.30, 153013.23, 4530.41, 162683.23, -63733.56, 158492.55, -20882.00, 0.000, 0.000, 0.000, 17:18:13.930
66, -47328.21, -53061.25, 147760.98, 165917.02, 5396.72, 8283.27, -41079.93, 2743.72, 61137.99, 4278.30, 153006.47, 4525.49, 162651.58, -63738.72, 158482.09, -20866.69, 0.000, 0.000, 0.000, 17:18:13.930
67, -47346.29, -53082.87, 147755.05, 165909.39, 5396.34, 8269.09, -41087.80, 2785.21, 61137.99, 4278.30, 153006.47, 4525.49, 162651.58, -63738.72, 158482.09, -20866.69, 0.070, 0.910, 0.266, 17:18:13.931
68, -47346.29, -53082.87, 147755.05, 165909.39, 5396.34, 8269.09, -41087.80, 2785.21, 61150.13, 4304.10, 153019.61, 4545.34, 162681.69, -63712.37, 158473.23, -20839.27, 0.000, 0.000, 0.000, 17:18:13.931
69, -47330.87, -53077.52, 147761.16, 165911.78, 5401.16, 8272.36, -41090.37, 2818.44, 61150.13, 4304.10, 153019.61, 4545.34, 162681.69, -63712.37, 158473.23, -20839.27, 0.000, 0.000, 0.000, 17:18:13.931
70, -47330.87, -53077.52, 147761.16, 165911.78, 5401.16, 8272.36, -41090.37, 2818.44, 61152.83, 4303.67, 153009.23, 4537.54, 162696.91, -63688.21, 158473.33, -20814.35, 0.000, 0.000, 0.000, 17:18:13.931
71, -47377.74, -53113.20, 147765.64, 165892.72, 5408.25, 8251.68, -41097.68, 2840.88, 61152.83, 4303.67, 153009.23, 4537.54, 162696.91, -63688.21, 158473.33, -20814.35, 0.000, 0.000, 0.000, 17:18:13.931
72, -47377.74, -53113.20, 147765.64, 165892.72, 5408.25, 8251.68, -41097.68, 2840.88, 61169.08, 4296.07, 153051.38, 4571.00, 162763.83, -63706.34, 158465.89, -20816.22, 0.000, 0.000, 0.000, 17:18:13.932
73, -47388.20, -53110.40, 147782.02, 165901.53, 5416.86, 8250.21, -41094.08, 2866.39, 61169.08, 4296.07, 153051.38, 4571.00, 162763.83, -63706.34, 158465.89, -20816.22, 0.000, 0.000, 0.000, 17:18:13.932
74, -47388.20, -53110.40, 147782.02, 165901.53, 5416.86, 8250.21, -41094.08, 2866.39, 61161.03, 4312.86, 153024.78, 4531.30, 162718.34, -63666.55, 158498.98, -20779.16, 0.000, 0.000, 0.000, 17:18:13.932
75, -47376.55, -53114.05, 147767.06, 165882.53, 5390.82, 8246.12, -41113.64, 2918.29, 61161.03, 4312.86, 153024.78, 4531.30, 162718.34, -63666.55, 158498.98, -20779.16, 0.000, 0.000, 0.000, 17:18:13.932
76, -47376.55, -53114.05, 147767.06, 165882.53, 5390.82, 8246.12, -41113.64, 2918.29, 61173.08, 4298.96, 153055.69, 4559.20, 162717.28, -63682.09, 158509.95, -20770.74, 0.000, 0.000, 0.000, 17:18:13.932
77, -47414.93, -53129.51, 147785.28, 165908.28, 5395.91, 8284.45, -41099.11, 2942.61, 61173.08, 4298.96, 153055.69, 4559.20, 162717.28, -63682.09, 158509.95, -20770.74, 0.058, 0.922, 0.272, 17:18:13.932
78, -47414.93, -53129.51, 147785.28, 165908.28, 5395.91, 8284.45, -41099.11, 2942.61, 61159.55, 4313.48, 153039.34, 4548.02, 162744.86, -63677.03, 158537.67, -20754.13, 0.000, 0.000, 0.000, 17:18:13.933
79, -47378.66, -53104.30, 147788.91, 165923.44, 5401.32, 8297.77, -41077.70, 2992.54, 61159.55, 4313.48, 153039.34, 4548.02, 162744.86, -63677.03, 158537.67, -20754.13, 0.000, 0.000, 0.000, 17:18:13.933
80, -47378.66, -53104.30, 147788.91, 165923.44, 5401.32, 8297.77, -41077.70, 2992.54, 61170.46, 4321.82, 153051.67, 4556.34, 162766.25, -63657.32, 158588.22, -20724.54, 0.000, 0.000, 0.000, 17:18:13.933
81, -47412.18, -53125.82, 147792.91, 165924.61, 5404.36, 8302.56, -41114.18, 3019.50, 61170.46, 4321.82, 153051.67, 4556.34, 162766.25, -63657.32, 158588.22, -20724.54, 0.000, 0.000, 0.000, 17:18:13.933
82, -47412.18, -53125.82, 147792.91, 165924.61, 5404.36, 8302.56, -41114.18, 3019.50, 61168.61, 4311.65, 153061.09, 4574.22, 162792.88, -63679.96, 158608.84, -20719.37, 0.000, 0.000, 0.000, 17:18:13.933
83, -47406.15, -53110.78, 147793.58, 165945.53, 5398.04, 8317.13, -41161.52, 3046.52, 61168.61, 4311.65, 153061.09, 4574.22, 162792.88, -63679.96, 158608.84, -20719.37, 0.000, 0.000, 0.000, 17:18:13.934
84, -47406.15, -53110.78, 147793.58, 165945.53, 5398.04, 8317.13, -41161.52, 3046.52, 61165.32, 4318.49, 153054.44, 4562.77, 162768.30, -63666.77, 158621.11, -20703.53, 0.000, 0.000, 0.000, 17:18:13.934
85, -47396.34, -53116.89, 147764.34, 165925.84, 5380.02, 8301.37, -41212.59, 3076.56, 61165.32, 4318.49, 153054.44, 4562.77, 162768.30, -63666.77, 158621.11, -20703.53, 0.000, 0.000, 0.000, 17:18:13.934
86, -47396.34, -53116.89, 147764.34, 165925.84, 5380.02, 8301.37, -41212.59, 3076.56, 61173.10, 4300.50, 153046.48, 4555.75, 162753.13, -63677.95, 158633.97, -20694.96, 0.000, 0.000, 0.000, 17:18:13.934
87, -47411.49, -53127.01, 147784.77, 165923.63, 5425.64, 8296.95, -41090.62, 3108.37, 61173.10, 4300.50, 153046.48, 4555.75, 162753.13, -63677.95, 158633.97, -20694.96, 0.064, 0.920, 0.268, 17:18:13.935
88, -47411.49, -53127.01, 147784.77, 165923.63, 5425.64, 8296.95, -41090.62, 3108.37, 61158.84, 4328.73, 153031.92, 4536.15, 162769.36, -63650.68, 158671.75, -20663.74, 0.000, 0.000, 0.000, 17:18:13.935
89, -47341.17, -53088.72, 147780.70, 165934.73, 5400.52, 8312.01, -41058.66, 3175.69, 61158.84, 4328.73, 153031.92, 4536.15, 162769.36, -63650.68, 158671.75, -20663.74, 0.000, 0.000, 0.000, 17:18:13.935
90, -47341.17, -53088.72, 147780.70, 165934.73, 5400.52, 8312.01, -41058.66, 3175.69, 61172.41, 4329.96, 153041.97, 4542.01, 162785.80, -63590.35, 158718.39, -20609.60, 0.000, 0.000, 0.000, 17:18:13.935
91, -47354.54, -53108.08, 147782.17, 165912.28, 5412.14, 8301.30, -41104.43, 3202.40, 61172.41, 4329.96, 153041.97, 4542.01, 162785.80, -63590.35, 158718.39, -20609.60, 0.000, 0.000, 0.000, 17:18:13.936
92, -47354.54, -53108.08, 147782.17, 165912.28, 5412.14, 8301.30, -41104.43, 3202.40, 61195.88, 4345.18, 153089.08, 4583.63, 162838.02, -63599.36, 158708.84, -20612.40, 0.000, 0.000, 0.000, 17:18:13.936
93, -47361.04, -53106.54, 147792.34, 165910.09, 5421.77, 8289.01, -41138.07, 3191.83, 61195.88, 4345.18, 153089.08, 4583.63, 162838.02, -63599.36, 158708.84, -20612.40, 0.000, 0.000, 0.000, 17:18:13.936
94, -47361.04, -53106.54, 147792.34, 165910.09, 5421.77, 8289.01, -41138.07, 3191.83, 61181.50, 4362.77, 153060.20, 4553.32, 162813.98, -63581.99, 158698.25, -20607.37, 0.000, 0.000, 0.000, 17:18:13.936
95, -47338.87, -53099.07, 147777.25, 165914.47, 5402.93, 8277.66, -41140.17, 3212.12, 61181.50, 4362.77, 153060.20, 4553.32, 162813.98, -63581.99, 158698.25, -20607.37, 0.000, 0.000, 0.000, 17:18:13.937
96, -47338.87, -53099.07, 147777.25, 165914.47, 5402.93, 8277.66, -41140.17, 3212.12, 61187.25, 4350.77, 153079.88, 4571.40, 162769.48, -63594.11, 158682.06, -20608.75, 0.000, 0.000, 0.000, 17:18:13.937
97, -47356.41, -53100.48, 147795.98, 165951.28, 5396.34, 8325.11, -41156.20, 3213.78, 61187.25, 4350.77, 153079.88, 4571.40, 162769.48, -63594.11, 158682.06, -20608.75, 0.090, 0.904, 0.278, 17:18:13.937
98, -47356.41, -53100.48, 147795.98, 165951.28, 5396.34, 8325.11, -41156.20, 3213.78, 61175.58, 4368.85, 153082.47, 4577.12, 162783.59, -63588.52, 158660.09, -20616.76, 0.000, 0.000, 0.000, 17:18:13.937
99, -47301.83, -53066.68, 147789.13, 165966.56, 5387.73, 8345.00, -41146.50, 3245.90, 61175.58, 4368.85, 153082.47, 4577.12, 162783.59, -63588.52, 158660.09, -20616.76, 0.000, 0.000, 0.000, 17:18:13.937
100, -47301.83, -53066.68, 147789.13, 165966.56, 5387.73, 8345.00, -41146.50, 3245.90, 61172.36, 4353.96, 153073.69, 4570.48, 162763.31, -63569.19, 158650.39, -20608.58, 0.000, 0.000, 0.000, 17:18:13.938
101, -47322.15, -53083.96, 147780.00, 165951.69, 5389.47, 8321.15, -41152.29, 3257.50, 61172.36, 4353.96, 153073.69, 4570.48, 162763.31, -63569.19, 158650.39, -20608.58, 0.000, 0.000, 0.000, 17:18:13.938
102, -47322.15, -53083.96, 147780.00, 165951.69, 5389.47, 8321.15, -41152.29, 3257.50, 61178.53, 4346.03, 153079.92, 4568.00, 162768.39, -63577.16, 158631.70, -20613.49, 0.000, 0.000, 0.000, 17:18:13.938
103, -47301.27, -53069.41, 147770.64, 165951.42, 5390.46, 8309.26, -41157.54, 3266.37, 61178.53, 4346.03, 153079.92, 4568.00, 162768.39, -63577.16, 158631.70, -20613.49, 0.000, 0.000, 0.000, 17:18:13.938
104, -47301.27, -53069.41, 147770.64, 165951.42, 5390.46, 8309.26, -41157.54, 3266.37, 61180.07, 4368.13, 153075.94, 4566.64, 162791.42, -63530.70, 158632.73, -20580.88, 0.000, 0.000, 0.000, 17:18:13.938
105, -47288.02, -53067.96, 147761.45, 165941.38, 5392.87, 8303.94, -41191.69, 3268.23, 61180.07, 4368.13, 153075.94, 4566.64, 162791.42, -63530.70, 158632.73, -20580.88, 0.000, 0.000, 0.000, 17:18:13.939
106, -47288.02, -53067.96, 147761.45, 165941.38, 5392.87, 8303.94, -41191.69, 3268.23, 61205.11, 4354.68, 153124.11, 4609.67, 162869.72, -63550.68, 158603.84, -20589.91, 0.000, 0.000, 0.000, 17:18:13.939
107, -47337.35, -53091.23, 147770.28, 165945.69, 5410.13, 8299.34, -41242.03, 3236.26, 61205.11, 4354.68, 153124.11, 4609.67, 162869.72, -63550.68, 158603.84, -20589.91, 0.088, 0.902, 0.280, 17:18:13.939
108, -47337.35, -53091.23, 147770.28, 165945.69, 5410.13, 8299.34, -41242.03, 3236.26, 61215.86, 4396.34, 153115.30, 4596.35, 162837.08, -63533.67, 158607.50, -20574.89, 0.000, 0.000, 0.000, 17:18:13.939
109, -47318.86, -53081.70, 147775.14, 165950.59, 5429.93, 8292.03, -41209.46, 3234.61, 61215.86, 4396.34, 153115.30, 4596.35, 162837.08, -63533.67, 158607.50, -20574.89, 0.000, 0.000, 0.000, 17:18:13.939
110, -47318.86, -53081.70, 147775.14, 165950.59, 5429.93, 8292.03, -41209.46, 3234.61, 61233.07, 4397.73, 153140.80, 4626.05, 162847.36, -63523.90, 158626.88, -20559.47, 0.000, 0.000, 0.000, 17:18:13.939
111, -47365.04, -53110.94, 147793.13, 165948.08, 5439.10, 8289.93, -41151.06, 3231.79, 61233.07, 4397.73, 153140.80, 4626.05, 162847.36, -63523.90, 158626.88, -20559.47, 0.000, 0.000, 0.000, 17:18:13.940
112, -47365.04, -53110.94, 147793.13, 165948.08, 5439.10, 8289.93, -41151.06, 3231.79, 61239.13, 4400.99, 153158.16, 4645.59, 162857.53, -63548.76, 158645.95, -20555.18, 0.000, 0.000, 0.000, 17:18:13.940
113, -47362.41, -53096.28, 147804.22, 165952.22, 5435.05, 8308.08, -41124.64, 3236.47, 61239.13, 4400.99, 153158.16, 4645.59, 162857.53, -63548.76, 158645.95, -20555.18, 0.000, 0.000, 0.000, 17:18:13.940
114, -47362.41, -53096.28, 147804.22, 165952.22, 5435.05, 8308.08, -41124.64, 3236.47, 61253.70, 4438.68, 153171.16, 4656.05, 162891.50, -63520.14, 158679.14, -20524.64, 0.000, 0.000, 0.000, 17:18:13.941
115, -47374.50, -53104.03, 147793.27, 165946.92, 5436.66, 8312.73, -41145.25, 3239.80, 61253.70, 4438.68, 153171.16, 4656.05, 162891.50, -63520.14, 158679.14, -20524.64, 0.000, 0.000, 0.000, 17:18:13.941
116, -47374.50, -53104.03, 147793.27, 165946.92, 5436.66, 8312.73, -41145.25, 3239.80, 61266.89, 4423.59, 153176.08, 4661.34, 162877.98, -63546.72, 158685.25, -20522.39, 0.078, 0.896, 0.274, 17:18:13.942
117, -47411.89, -53126.50, 147775.48, 165946.23, 5426.02, 8357.50, -41173.34, 3259.20, 61266.89, 4423.59, 153176.08, 4661.34, 162877.98, -63546.72, 158685.25, -20522.39, 0.000, 0.000, 0.000, 17:18:13.942
118, -47411.89, -53126.50, 147775.48, 165946.23, 5426.02, 8357.50, -41173.34, 3259.20, 61256.68, 4438.72, 153158.86, 4645.79, 162908.66, -63540.15, 158693.22, -20503.21, 0.000, 0.000, 0.000, 17:18:13.942
119, -47370.32, -53098.20, 147755.67, 165944.73, 5409.48, 8374.95, -41193.41, 3310.76, 61256.68, 4438.72, 153158.86, 4645.79, 162908.66, -63540.15, 158693.22, -20503.21, 0.000, 0.000, 0.000, 17:18:13.942
120, -47370.32, -53098.20, 147755.67, 165944.73, 5409.48, 8374.95, -41193.41, 3310.76, 61283.96, 4439.93, 153199.33, 4677.12, 162892.41, -63522.83, 158710.98, -20476.59, 0.000, 0.000, 0.000, 17:18:13.943
121, -47440.08, -53130.63, 147778.78, 165931.00, 5444.24, 8346.66, -41211.36, 3287.43, 61283.96, 4439.93, 153199.33, 4677.12, 162892.41, -63522.83, 158710.98, -20476.59, 0.000, 0.000, 0.000, 17:18:14.397
122, -47440.08, -53130.63, 147778.78, 165931.00, 5444.24, 8346.66, -41211.36, 3287.43, 61286.85, 4444.62, 153208.78, 4686.56, 162897.97, -63566.66, 158694.45, -20503.25, 0.000, 0.000, 0.000, 17:18:14.398
123, -47425.30, -53109.24, 147767.91, 165936.47, 5429.33, 8342.94, -41201.30, 3314.54, 61286.85, 4444.62, 153208.78, 4686.56, 162897.97, -63566.66, 158694.45, -20503.25, 0.000, 0.000, 0.000, 17:18:14.398
124, -47425.30, -53109.24, 147767.91, 165936.47, 5429.33, 8342.94, -41201.30, 3314.54, 61290.09, 4470.06, 153207.17, 4677.91, 162909.91, -63532.29, 158716.94, -20479.05, 0.000, 0.000, 0.000, 17:18:14.398
125, -47415.31, -53098.27, 147783.61, 165926.56, 5428.81, 8339.75, -41221.89, 3330.97, 61290.09, 4470.06, 153207.17, 4677.91, 162909.91, -63532.29, 158716.94, -20479.05, 0.000, 0.000, 0.000, 17:18:14.398
126, -47415.31, -53098.27, 147783.61, 165926.56, 5428.81, 8339.75, -41221.89, 3330.97, 61298.14, 4471.58, 153232.38, 4698.27, 162919.16, -63547.04, 158709.56, -20488.17, 0.072, 0.894, 0.274, 17:18:14.399
127, -47442.71, -53103.99, 147791.67, 165922.33, 5456.31, 8326.83, -41215.81, 3335.39, 61298.14, 4471.58, 153232.38, 4698.27, 162919.16, -63547.04, 158709.56, -20488.17, 0.000, 0.000, 0.000, 17:18:14.399
128, -47442.71, -53103.99, 147791.67, 165922.33, 5456.31, 8326.83, -41215.81, 3335.39, 61297.13, 4479.92, 153216.02, 4674.82, 162950.63, -63520.19, 158728.45, -20474.13, 0.000, 0.000, 0.000, 17:18:14.399
129, -47383.04, -53079.22, 147764.03, 165905.28, 5436.41, 8277.07, -41212.01, 3386.16, 61297.13, 4479.92, 153216.02, 4674.82, 162950.63, -63520.19, 158728.45, -20474.13, 0.000, 0.000, 0.000, 17:18:14.399
130, -47383.04, -53079.22, 147764.03, 165905.28, 5436.41, 8277.07, -41212.01, 3386.16, 61321.16, 4471.00, 153197.13, 4668.97, 162966.92, -63453.92, 158769.94, -20418.59, 0.000, 0.000, 0.000, 17:18:14.399
131, -47397.74, -53103.32, 147757.77, 165891.06, 5406.33, 8325.58, -41273.88, 3423.91, 61321.16, 4471.00, 153197.13, 4668.97, 162966.92, -63453.92, 158769.94, -20418.59, 0.000, 0.000, 0.000, 17:18:14.399
132, -47397.74, -53103.32, 147757.77, 165891.06, 5406.33, 8325.58, -41273.88, 3423.91, 61330.91, 4473.92, 153228.00, 4706.47, 162946.94, -63451.55, 158773.67, -20405.33, 0.000, 0.000, 0.000, 17:18:14.400
133, -47395.55, -53093.53, 147787.63, 165920.28, 5446.96, 8381.17, -41243.91, 3444.72, 61330.91, 4473.92, 153228.00, 4706.47, 162946.94, -63451.55, 158773.67, -20405.33, 0.000, 0.000, 0.000, 17:18:14.400
134, -47395.55, -53093.53, 147787.63, 165920.28, 5446.96, 8381.17, -41243.91, 3444.72, 61323.06, 4496.61, 153234.19, 4709.13, 162979.19, -63432.46, 158792.16, -20394.60, 0.000, 0.000, 0.000, 17:18:14.400
135, -47379.71, -53086.20, 147793.78, 165931.09, 5452.13, 8374.77, -41165.63, 3482.22, 61323.06, 4496.61, 153234.19, 4709.13, 162979.19, -63432.46, 158792.16, -20394.60, 0.000, 0.000, 0.000, 17:18:14.400
136, -47379.71, -53086.20, 147793.78, 165931.09, 5452.13, 8374.77, -41165.63, 3482.22, 61325.99, 4463.02, 153249.95, 4718.94, 162971.14, -63457.29, 158799.64, -20399.88, 0.078, 0.898, 0.276, 17:18:14.400
137, -47417.55, -53105.98, 147803.36, 165928.64, 5462.92, 8375.78, -41159.02, 3500.26, 61325.99, 4463.02, 153249.95, 4718.94, 162971.14, -63457.29, 158799.64, -20399.88, 0.000, 0.000, 0.000, 17:18:14.400
138, -47417.55, -53105.98, 147803.36, 165928.64, 5462.92, 8375.78, -41159.02, 3500.26, 61315.71, 4483.27, 153236.41, 4700.91, 162957.38, -63457.29, 158814.30, -20390.82, 0.000, 0.000, 0.000, 17:18:14.401
139, -47367.70, -53081.50, 147781.80, 165931.61, 5432.77, 8401.89, -41161.86, 3561.77, 61315.71, 4483.27, 153236.41, 4700.91, 162957.38, -63457.29, 158814.30, -20390.82, 0.000, 0.000, 0.000, 17:18:14.401
140, -47367.70, -53081.50, 147781.80, 165931.61, 5432.77, 8401.89, -41161.86, 3561.77, 61321.07, 4472.45, 153230.14, 4696.71, 162978.44, -63430.32, 158832.98, -20359.09, 0.000, 0.000, 0.000, 17:18:14.401
141, -47395.80, -53108.23, 147776.39, 165914.72, 5434.56, 8378.48, -41181.43, 3582.87, 61321.07, 4472.45, 153230.14, 4696.71, 162978.44, -63430.32, 158832.98, -20359.09, 0.000, 0.000, 0.000, 17:18:14.401
142, -47395.80, -53108.23, 147776.39, 165914.72, 5434.56, 8378.48, -41181.43, 3582.87, 61327.21, 4462.79, 153228.83, 4697.13, 162964.48, -63438.41, 158820.53, -20364.18, 0.000, 0.000, 0.000, 17:18:14.401
143, -47380.82, -53097.04, 147780.00, 165918.17, 5425.60, 8376.38, -41181.79, 3610.03, 61327.21, 4462.79, 153228.83, 4697.13, 162964.48, -63438.41, 158820.53, -20364.18, 0.000, 0.000, 0.000, 17:18:14.401
144, -47380.82, -53097.04, 147780.00, 165918.17, 5425.60, 8376.38, -41181.79, 3610.03, 61321.70, 4482.78, 153216.06, 4683.20, 162983.34, -63393.59, 158826.19, -20343.24, 0.000, 0.000, 0.000, 17:18:14.402
145, -47354.25, -53093.04, 147765.95, 165907.84, 5416.43, 8367.49, -41186.86, 3654.91, 61321.70, 4482.78, 153216.06, 4683.20, 162983.34, -63393.59, 158826.19, -20343.24, 0.000, 0.000, 0.000, 17:18:14.402
146, -47354.25, -53093.04, 147765.95, 165907.84, 5416.43, 8367.49, -41186.86, 3654.91, 61343.31, 4476.52, 153257.55, 4718.16, 163000.67, -63387.64, 158816.16, -20335.88, 0.106, 0.902, 0.284, 17:18:14.402
147, -47390.48, -53108.66, 147783.69, 165912.92, 5444.59, 8365.50, -41195.09, 3648.85, 61343.31, 4476.52, 153257.55, 4718.16, 163000.67, -63387.64, 158816.16, -20335.88, 0.000, 0.000, 0.000, 17:18:14.402
148, -47390.48, -53108.66, 147783.69, 165912.92, 5444.59, 8365.50, -41195.09, 3648.85, 61335.35, 4502.58, 153226.28, 4696.77, 163052.64, -63364.46, 158803.02, -20336.80, 0.000, 0.000, 0.000, 17:18:14.403
149, -47302.19, -53072.11, 147732.67, 165908.45, 5380.04, 8348.64, -41193.08, 3719.62, 61335.35, 4502.58, 153226.28, 4696.77, 163052.64, -63364.46, 158803.02, -20336.80, 0.000, 0.000, 0.000, 17:18:14.403
150, -47302.19, -53072.11, 147732.67, 165908.45, 5380.04, 8348.64, -41193.08, 3719.62, 61351.34, 4487.49, 153198.92, 4674.53, 163019.31, -63274.37, 158839.83, -20263.80, 0.000, 0.000, 0.000, 17:18:14.403
151, -47320.83, -53106.13, 147742.88, 165874.28, 5380.13, 8305.57, -41309.18, 3731.04, 61351.34, 4487.49, 153198.92, 4674.53, 163019.31, -63274.37, 158839.83, -20263.80, 0.000, 0.000, 0.000, 17:18:14.404
152, -47320.83, -53106.13, 147742.88, 165874.28, 5380.13, 8305.57, -41309.18, 3731.04, 61367.07, 4501.40, 153257.88, 4736.25, 163079.70, -63278.55, 158829.72, -20256.58, 0.000, 0.000, 0.000, 17:18:14.404
153, -47300.38, -53088.61, 147772.56, 165907.09, 5403.00, 8353.32, -41245.58, 3748.23, 61367.07, 4501.40, 153257.88, 4736.25, 163079.70, -63278.55, 158829.72, -20256.58, 0.000, 0.000, 0.000, 17:18:14.404
154, -47300.38, -53088.61, 147772.56, 165907.09, 5403.00, 8353.32, -41245.58, 3748.23, 61363.61, 4523.14, 153266.00, 4739.11, 163034.36, -63251.46, 158839.02, -20234.34, 0.000, 0.000, 0.000, 17:18:14.404
155, -47305.92, -53094.13, 147801.67, 165919.70, 5444.21, 8358.05, -41174.86, 3738.64, 61363.61, 4523.14, 153266.00, 4739.11, 163034.36, -63251.46, 158839.02, -20234.34, 0.000, 0.000, 0.000, 17:18:14.404
156, -47305.92, -53094.13, 147801.67, 165919.70, 5444.21, 8358.05, -41174.86, 3738.64, 61352.81, 4490.96, 153269.58, 4729.65, 163051.91, -63282.05, 158825.95, -20250.57, 0.112, 0.910, 0.286, 17:18:14.405
157, -47325.59, -53103.45, 147797.83, 165920.84, 5426.09, 8359.28, -41174.28, 3739.16, 61352.81, 4490.96, 153269.58, 4729.65, 163051.91, -63282.05, 158825.95, -20250.57, 0.000, 0.000, 0.000, 17:18:14.405
158, -47325.59, -53103.45, 147797.83, 165920.84, 5426.09, 8359.28, -41174.28, 3739.16, 61351.40, 4515.59, 153276.19, 4738.35, 163044.75, -63280.27, 158810.23, -20255.29, 0.000, 0.000, 0.000, 17:18:14.405
159, -47267.23, -53064.34, 147791.67, 165938.47, 5406.89, 8380.90, -41183.29, 3766.98, 61351.40, 4515.59, 153276.19, 4738.35, 163044.75, -63280.27, 158810.23, -20255.29, 0.000, 0.000, 0.000, 17:18:14.405
160, -47267.23, -53064.34, 147791.67, 165938.47, 5406.89, 8380.90, -41183.29, 3766.98, 61343.54, 4508.30, 153253.86, 4720.22, 163037.17, -63239.48, 158823.67, -20220.48, 0.000, 0.000, 0.000, 17:18:14.405
161, -47270.56, -53079.87, 147788.08, 165918.83, 5420.66, 8373.61, -41202.87, 3788.78, 61343.54, 4508.30, 153253.86, 4720.22, 163037.17, -63239.48, 158823.67, -20220.48, 0.000, 0.000, 0.000, 17:18:14.405
162, -47270.56, -53079.87, 147788.08, 165918.83, 5420.66, 8373.61, -41202.87, 3788.78, 61353.39, 4499.67, 153260.19, 4710.65, 163091.33, -63234.65, 158816.97, -20206.56, 0.000, 0.000, 0.000, 17:18:14.406
163, -47230.26, -53063.26, 147769.66, 165916.19, 5416.83, 8366.71, -41215.54, 3821.88, 61353.39, 4499.67, 153260.19, 4710.65, 163091.33, -63234.65, 158816.97, -20206.56, 0.000, 0.000, 0.000, 17:18:14.406
164, -47230.26, -53063.26, 147769.66, 165916.19, 5416.83, 8366.71, -41215.54, 3821.88, 61366.18, 4515.34, 153269.84, 4720.42, 163070.63, -63178.52, 158832.41, -20167.08, 0.000, 0.000, 0.000, 17:18:14.406
165, -47207.46, -53058.86, 147770.39, 165917.47, 5407.27, 8360.69, -41235.14, 3840.25, 61366.18, 4515.34, 153269.84, 4720.42, 163070.63, -63178.52, 158832.41, -20167.08, 0.000, 0.000, 0.000, 17:18:14.406
166, -47207.46, -53058.86, 147770.39, 165917.47, 5407.27, 8360.69, -41235.14, 3840.25, 61372.14, 4502.85, 153289.22, 4739.46, 163040.45, -63189.27, 158815.08, -20169.86, 0.122, 0.902, 0.286, 17:18:14.406
167, -47228.90, -53074.53, 147778.06, 165920.48, 5414.67, 8365.05, -41234.83, 3835.98, 61372.14, 4502.85, 153289.22, 4739.46, 163040.45, -63189.27, 158815.08, -20169.86, 0.000, 0.000, 0.000, 17:18:14.407
168, -47228.90, -53074.53, 147778.06, 165920.48, 5414.67, 8365.05, -41234.83, 3835.98, 61366.69, 4533.72, 153276.91, 4722.77, 163066.16, -63166.39, 158815.89, -20158.39, 0.000, 0.000, 0.000, 17:18:14.407
169, -47169.36, -53052.96, 147764.83, 165920.38, 5394.77, 8355.48, -41220.75, 3865.15, 61366.69, 4533.72, 153276.91, 4722.77, 163066.16, -63166.39, 158815.89, -20158.39, 0.000, 0.000, 0.000, 17:18:14.407
170, -47169.36, -53052.96, 147764.83, 165920.38, 5394.77, 8355.48, -41220.75, 3865.15, 61391.88, 4539.19, 153298.30, 4739.80, 163086.61, -63129.68, 158828.42, -20131.77, 0.000, 0.000, 0.000, 17:18:14.407
171, -47214.64, -53090.33, 147775.22, 165902.91, 5409.57, 8322.36, -41243.95, 3836.54, 61391.88, 4539.19, 153298.30, 4739.80, 163086.61, -63129.68, 158828.42, -20131.77, 0.000, 0.000, 0.000, 17:18:14.408
172, -47214.64, -53090.33, 147775.22, 165902.91, 5409.57, 8322.36, -41243.95, 3836.54, 61389.64, 4540.22, 153297.89, 4745.01, 163090.28, -63147.41, 158804.56, -20144.46, 0.000, 0.000, 0.000, 17:18:14.408
173, -47180.20, -53066.30, 147770.70, 165923.70, 5394.55, 8349.29, -41237.56, 3865.51, 61389.64, 4540.22, 153297.89, 4745.01, 163090.28, -63147.41, 158804.56, -20144.46, 0.000, 0.000, 0.000, 17:18:14.408
174, -47180.20, -53066.30, 147770.70, 165923.70, 5394.55, 8349.29, -41237.56, 3865.51, 61384.84, 4555.04, 153279.94, 4729.18, 163105.64, -63088.69, 158826.03, -20099.98, 0.000, 0.000, 0.000, 17:18:14.408
175, -47136.39, -53050.52, 147765.44, 165920.09, 5378.84, 8380.50, -41236.40, 3907.31, 61384.84, 4555.04, 153279.94, 4729.18, 163105.64, -63088.69, 158826.03, -20099.98, 0.000, 0.000, 0.000, 17:18:14.408
176, -47136.39, -53050.52, 147765.44, 165920.09, 5378.84, 8380.50, -41236.40, 3907.31, 61406.21, 4554.66, 153314.00, 4768.61, 163131.92, -63070.14, 158831.72, -20075.82, 0.124, 0.898, 0.288, 17:18:14.409
177, -47156.95, -53061.34, 147784.25, 165932.02, 5406.08, 8396.01, -41216.95, 3909.30, 61406.21, 4554.66, 153314.00, 4768.61, 163131.92, -63070.14, 158831.72, -20075.82, 0.000, 0.000, 0.000, 17:18:14.409
178, -47156.95, -53061.34, 147784.25, 165932.02, 5406.08, 8396.01, -41216.95, 3909.30, 61408.58, 4588.88, 153323.89, 4771.81, 163157.06, -63046.49, 158823.31, -20065.03, 0.000, 0.000, 0.000, 17:18:14.409
179, -47097.05, -53027.10, 147775.88, 165944.89, 5397.83, 8415.07, -41212.95, 3935.65, 61408.58, 4588.88, 153323.89, 4771.81, 163157.06, -63046.49, 158823.31, -20065.03, 0.000, 0.000, 0.000, 17:18:14.409
180, -47097.05, -53027.10, 147775.88, 165944.89, 5397.83, 8415.07, -41212.95, 3935.65, 61416.78, 4578.08, 153335.38, 4781.73, 163154.56, -63010.91, 158816.06, -20048.73, 0.000, 0.000, 0.000, 17:18:14.409
181, -47117.61, -53047.84, 147791.00, 165935.41, 5423.54, 8410.83, -41218.54, 3917.93, 61416.78, 4578.08, 153335.38, 4781.73, 163154.56, -63010.91, 158816.06, -20048.73, 0.000, 0.000, 0.000, 17:18:14.409
182, -47117.61, -53047.84, 147791.00, 165935.41, 5423.54, 8410.83, -41218.54, 3917.93, 61413.05, 4584.48, 153346.47, 4792.17, 163154.27, -63024.81, 158785.67, -20068.71, 0.000, 0.000, 0.000, 17:18:14.410
183, -47052.72, -53012.95, 147772.92, 165946.63, 5405.79, 8419.52, -41197.24, 3951.99, 61413.05, 4584.48, 153346.47, 4792.17, 163154.27, -63024.81, 158785.67, -20068.71, 0.000, 0.000, 0.000, 17:18:14.410
184, -47052.72, -53012.95, 147772.92, 165946.63, 5405.79, 8419.52, -41197.24, 3951.99, 61410.12, 4608.71, 153309.25, 4753.68, 163136.84, -62938.11, 158811.91, -20009.88, 0.000, 0.000, 0.000, 17:18:14.410
185, -47002.32, -53010.36, 147761.30, 165922.36, 5403.44, 8398.47, -41209.39, 3977.78, 61410.12, 4608.71, 153309.25, 4753.68, 163136.84, -62938.11, 158811.91, -20009.88, 0.000, 0.000, 0.000, 17:18:14.410
186, -47002.32, -53010.36, 147761.30, 165922.36, 5403.44, 8398.47, -41209.39, 3977.78, 61434.01, 4599.30, 153340.06, 4787.23, 163175.19, -62920.45, 158805.25, -19993.79, 0.134, 0.902, 0.272, 17:18:14.410
187, -47007.93, -53024.91, 147768.83, 165920.22, 5413.86, 8386.75, -41237.00, 3971.01, 61434.01, 4599.30, 153340.06, 4787.23, 163175.19, -62920.45, 158805.25, -19993.79, 0.000, 0.000, 0.000, 17:18:14.410
188, -47007.93, -53024.91, 147768.83, 165920.22, 5413.86, 8386.75, -41237.00, 3971.01, 61438.26, 4617.31, 153338.66, 4784.15, 163199.17, -62877.00, 158802.14, -19977.88, 0.000, 0.000, 0.000, 17:18:14.411
189, -46933.70, -52995.71, 147742.88, 165911.31, 5395.42, 8382.44, -41257.96, 3997.79, 61438.26, 4617.31, 153338.66, 4784.15, 163199.17, -62877.00, 158802.14, -19977.88, 0.000, 0.000, 0.000, 17:18:14.411
190, -46933.70, -52995.71, 147742.88, 165911.31, 5395.42, 8382.44, -41257.96, 3997.79, 61444.96, 4602.05, 153321.14, 4753.25, 163178.86, -62803.73, 158822.66, -19936.55, 0.000, 0.000, 0.000, 17:18:14.411
191, -46919.73, -53014.07, 147741.36, 165887.75, 5408.27, 8345.16, -41227.81, 4019.07, 61444.96, 4602.05, 153321.14, 4753.25, 163178.86, -62803.73, 158822.66, -19936.55, 0.000, 0.000, 0.000, 17:18:14.411
192, -46919.73, -53014.07, 147741.36, 165887.75, 5408.27, 8345.16, -41227.81, 4019.07, 61456.39, 4608.26, 153337.34, 4769.35, 163221.64, -62756.45, 158838.64, -19907.98, 0.000, 0.000, 0.000, 17:18:14.411
193, -46857.84, -52991.56, 147763.83, 165900.36, 5413.68, 8350.16, -41214.43, 4055.03, 61456.39, 4608.26, 153337.34, 4769.35, 163221.64, -62756.45, 158838.64, -19907.98, 0.000, 0.000, 0.000, 17:18:14.411
194, -46857.84, -52991.56, 147763.83, 165900.36, 5413.68, 8350.16, -41214.43, 4055.03, 61461.35, 4651.13, 153357.91, 4795.88, 163222.02, -62677.46, 158861.05, -19867.71, 0.000, 0.000, 0.000, 17:18:14.411
195, -46790.80, -52964.49, 147773.91, 165916.59, 5396.23, 8384.43, -41199.14, 4100.09, 61461.35, 4651.13, 153357.91, 4795.88, 163222.02, -62677.46, 158861.05, -19867.71, 0.000, 0.000, 0.000, 17:18:14.412
196, -46790.80, -52964.49, 147773.91, 165916.59, 5396.23, 8384.43, -41199.14, 4100.09, 61450.73, 4630.23, 153349.09, 4779.52, 163195.41, -62641.12, 158859.72, -19845.55, 0.132, 0.908, 0.260, 17:18:14.412
197, -46754.21, -52963.13, 147765.72, 165916.69, 5384.89, 8390.98, -41206.04, 4145.82, 61450.73, 4630.23, 153349.09, 4779.52, 163195.41, -62641.12, 158859.72, -19845.55, 0.000, 0.000, 0.000, 17:18:14.412
198, -46754.21, -52963.13, 147765.72, 165916.69, 5384.89, 8390.98, -41206.04, 4145.82, 61447.40, 4641.79, 153334.97, 4764.61, 163188.73, -62569.19, 158873.33, -19803.58, 0.000, 0.000, 0.000, 17:18:14.412
199, -46651.35, -52920.01, 147750.19, 165917.28, 5370.25, 8400.12, -41209.80, 4209.37, 61447.40, 4641.79, 153334.97, 4764.61, 163188.73, -62569.19, 158873.33, -19803.58, 0.000, 0.000, 0.000, 17:18:14.412
200, -46651.35, -52920.01, 147750.19, 165917.28, 5370.25, 8400.12, -41209.80, 4209.37, 61455.58, 4638.17, 153341.41, 4779.25, 163210.78, -62479.49, 158897.20, -19746.40, 0.000, 0.000, 0.000, 17:18:14.412
201, -46631.41, -52939.28, 147756.72, 165909.03, 5388.45, 8384.68, -41222.34, 4237.85, 61455.58, 4638.17, 153341.41, 4779.25, 163210.78, -62479.49, 158897.20, -19746.40, 0.000, 0.000, 0.000, 17:18:14.413
202, -46631.41, -52939.28, 147756.72, 165909.03, 5388.45, 8384.68, -41222.34, 4237.85, 61469.55, 4639.93, 153386.61, 4817.87, 163208.47, -62453.57, 158883.84, -19739.54, 0.000, 0.000, 0.000, 17:18:14.413
203, -46597.08, -52928.17, 147771.78, 165910.48, 5413.06, 8386.91, -41235.05, 4242.52, 61469.55, 4639.93, 153386.61, 4817.87, 163208.47, -62453.57, 158883.84, -19739.54, 0.000, 0.000, 0.000, 17:18:14.413
204, -46597.08, -52928.17, 147771.78, 165910.48, 5413.06, 8386.91, -41235.05, 4242.52, 61463.05, 4655.06, 153386.58, 4814.79, 163209.70, -62403.27, 158865.63, -19729.66, 0.000, 0.000, 0.000, 17:18:14.413
205, -46543.84, -52919.23, 147761.41, 165901.38, 5391.31, 8389.32, -41272.67, 4270.99, 61463.05, 4655.06, 153386.58, 4814.79, 163209.70, -62403.27, 158865.63, -19729.66, 0.000, 0.000, 0.000, 17:18:14.413
206, -46543.84, -52919.23, 147761.41, 165901.38, 5391.31, 8389.32, -41272.67, 4270.99, 61464.66, 4625.76, 153382.38, 4808.73, 163209.33, -62375.38, 158850.22, -19717.57, 0.130, 0.908, 0.254, 17:18:14.413
207, -46530.09, -52931.72, 147748.28, 165886.80, 5356.08, 8388.86, -41418.00, 4284.47, 61464.66, 4625.76, 153382.38, 4808.73, 163209.33, -62375.38, 158850.22, -19717.57, 0.000, 0.000, 0.000, 17:18:14.414
208, -46530.09, -52931.72, 147748.28, 165886.80, 5356.08, 8388.86, -41418.00, 4284.47, 61470.60, 4640.71, 153382.20, 4803.59, 163213.77, -62313.40, 158853.89, -19686.46, 0.000, 0.000, 0.000, 17:18:14.414
209, -46441.43, -52898.00, 147765.41, 165893.28, 5435.94, 8391.81, -41251.89, 4322.63, 61470.60, 4640.71, 153382.20, 4803.59, 163213.77, -62313.40, 158853.89, -19686.46, 0.000, 0.000, 0.000, 17:18:14.414
210, -46441.43, -52898.00, 147765.41, 165893.28, 5435.94, 8391.81, -41251.89, 4322.63, 61459.88, 4633.43, 153364.95, 4773.01, 163207.73, -62244.00, 158886.00, -19644.68, 0.000, 0.000, 0.000, 17:18:14.414
211, -46390.69, -52906.69, 147760.19, 165873.52, 5430.76, 8362.95, -41109.80, 4383.27, 61459.88, 4633.43, 153364.95, 4773.01, 163207.73, -62244.00, 158886.00, -19644.68, 0.000, 0.000, 0.000, 17:18:14.415
212, -46390.69, -52906.69, 147760.19, 165873.52, 5430.76, 8362.95, -41109.80, 4383.27, 61482.74, 4626.41, 153398.92, 4801.20, 163218.84, -62194.15, 158908.66, -19609.52, 0.000, 0.000, 0.000, 17:18:14.415
213, -46338.83, -52890.39, 147779.27, 165880.97, 5418.67, 8365.18, -41127.70, 4399.67, 61482.74, 4626.41, 153398.92, 4801.20, 163218.84, -62194.15, 158908.66, -19609.52, 0.000, 0.000, 0.000, 17:18:14.415
214, -46338.83, -52890.39, 147779.27, 165880.97, 5418.67, 8365.18, -41127.70, 4399.67, 61475.77, 4663.65, 153389.13, 4797.40, 163218.58, -62123.54, 158915.69, -19579.79, 0.000, 0.000, 0.000, 17:18:14.415
215, -46269.16, -52878.37, 147767.98, 165879.44, 5397.61, 8370.15, -41146.61, 4432.98, 61475.77, 4663.65, 153389.13, 4797.40, 163218.58, -62123.54, 158915.69, -19579.79, 0.132, 0.902, 0.248, 17:18:14.416
216, -46269.16, -52878.37, 147767.98, 165879.44, 5397.61, 8370.15, -41146.61, 4432.98, 61480.75, 4635.08, 153396.48, 4802.14, 163218.16, -62095.89, 158903.53, -19567.54, 0.000, 0.000, 0.000, 17:18:14.416
217, -46244.24, -52888.11, 147768.98, 165883.17, 5382.28, 8377.95, -41179.11, 4453.63, 61480.75, 4635.08, 153396.48, 4802.14, 163218.16, -62095.89, 158903.53, -19567.54, 0.000, 0.000, 0.000, 17:18:14.416
218, -46244.24, -52888.11, 147768.98, 165883.17, 5382.28, 8377.95, -41179.11, 4453.63, 61480.95, 4666.19, 153399.70, 4815.50, 163218.67, -62039.16, 158895.47, -19548.01, 0.000, 0.000, 0.000, 17:18:14.416
219, -46176.38, -52867.04, 147771.58, 165895.45, 5375.42, 8406.87, -41210.38, 4472.38, 61480.95, 4666.19, 153399.70, 4815.50, 163218.67, -62039.16, 158895.47, -19548.01, 0.000, 0.000, 0.000, 17:18:14.417
220, -46176.38, -52867.04, 147771.58, 165895.45, 5375.42, 8406.87, -41210.38, 4472.38, 61488.73, 4667.98, 153407.95, 4818.39, 163223.63, -61992.18, 158876.06, -19540.30, 0.000, 0.000, 0.000, 17:18:14.417
221, -46175.57, -52890.62, 147762.61, 165881.25, 5374.03, 8388.83, -41218.94, 4474.28, 61488.73, 4667.98, 153407.95, 4818.39, 163223.63, -61992.18, 158876.06, -19540.30, 0.000, 0.000, 0.000, 17:18:14.417
222, -46175.57, -52890.62, 147762.61, 165881.25, 5374.03, 8388.83, -41218.94, 4474.28, 61485.02, 4661.77, 153390.06, 4798.58, 163235.75, -61963.08, 158859.77, -19535.67, 0.000, 0.000, 0.000, 17:18:14.417
223, -46104.63, -52865.43, 147749.50, 165888.14, 5357.71, 8380.67, -41220.06, 4510.83, 61485.02, 4661.77, 153390.06, 4798.58, 163235.75, -61963.08, 158859.77, -19535.67, 0.000, 0.000, 0.000, 17:18:14.418
224, -46104.63, -52865.43, 147749.50, 165888.14, 5357.71, 8380.67, -41220.06, 4510.83, 61492.64, 4682.04, 153400.59, 4809.13, 163259.06, -61881.72, 158866.42, -19502.72, 0.000, 0.000, 0.000, 17:18:14.418
225, -46053.36, -52867.08, 147751.38, 165876.73, 5352.86, 8373.43, -41223.03, 4530.85, 61492.64, 4682.04, 153400.59, 4809.13, 163259.06, -61881.72, 158866.42, -19502.72, 0.134, 0.912, 0.246, 17:18:14.418
226, -46053.36, -52867.08, 147751.38, 165876.73, 5352.86, 8373.43, -41223.03, 4530.85, 61501.38, 4648.40, 153403.44, 4802.07, 163246.09, -61848.77, 158861.67, -19489.69, 0.000, 0.000, 0.000, 17:18:14.418
227, -46039.70, -52892.12, 147751.70, 165860.36, 5361.09, 8360.87, -41239.28, 4539.15, 61501.38, 4648.40, 153403.44, 4802.07, 163246.09, -61848.77, 158861.67, -19489.69, 0.000, 0.000, 0.000, 17:18:14.418
228, -46039.70, -52892.12, 147751.70, 165860.36, 5361.09, 8360.87, -41239.28, 4539.15, 61504.87, 4662.53, 153404.02, 4810.12, 163270.77, -61805.19, 158851.61, -19475.10, 0.000, 0.000, 0.000, 17:18:14.418
229, -45957.80, -52872.38, 147739.17, 165859.50, 5360.17, 8360.07, -41250.39, 4562.64, 61504.87, 4662.53, 153404.02, 4810.12, 163270.77, -61805.19, 158851.61, -19475.10, 0.000, 0.000, 0.000, 17:18:14.419
230, -45957.80, -52872.38, 147739.17, 165859.50, 5360.17, 8360.07, -41250.39, 4562.64, 61512.78, 4665.43, 153406.03, 4807.88, 163278.38, -61753.46, 158852.92, -19446.31, 0.000, 0.000, 0.000, 17:18:14.419
231, -45940.90, -52901.41, 147734.66, 165840.28, 5360.26, 8339.23, -41264.67, 4573.99, 61512.78, 4665.43, 153406.03, 4807.88, 163278.38, -61753.46, 158852.92, -19446.31, 0.000, 0.000, 0.000, 17:18:14.419
232, -45940.90, -52901.41, 147734.66, 165840.28, 5360.26, 8339.23, -41264.67, 4573.99, 61512.38, 4660.41, 153398.27, 4795.86, 163255.66, -61730.62, 158850.83, -19426.64, 0.000, 0.000, 0.000, 17:18:14.419
233, -45887.41, -52897.10, 147727.59, 165834.05, 5359.19, 8331.72, -41262.97, 4592.23, 61512.38, 4660.41, 153398.27, 4795.86, 163255.66, -61730.62, 158850.83, -19426.64, 0.000, 0.000, 0.000, 17:18:14.419
234, -45887.41, -52897.10, 147727.59, 165834.05, 5359.19, 8331.72, -41262.97, 4592.23, 61524.45, 4671.38, 153422.72, 4812.42, 163281.86, -61677.02, 158854.63, -19398.07, 0.000, 0.000, 0.000, 17:18:14.420
235, -45852.97, -52902.11, 147748.83, 165837.02, 5380.20, 8342.81, -41257.95, 4586.73, 61524.45, 4671.38, 153422.72, 4812.42, 163281.86, -61677.02, 158854.63, -19398.07, 0.132, 0.918, 0.234, 17:18:14.420
236, -45852.97, -52902.11, 147748.83, 165837.02, 5380.20, 8342.81, -41257.95, 4586.73, 61524.40, 4656.20, 153448.39, 4838.95, 163297.39, -61699.48, 158827.80, -19421.27, 0.000, 0.000, 0.000, 17:18:14.420
237, -45849.13, -52918.36, 147747.34, 165849.05, 5380.42, 8366.95, -41214.78, 4582.17, 61524.40, 4656.20, 153448.39, 4838.95, 163297.39, -61699.48, 158827.80, -19421.27, 0.000, 0.000, 0.000, 17:18:14.420
238, -45849.13, -52918.36, 147747.34, 165849.05, 5380.42, 8366.95, -41214.78, 4582.17, 61508.22, 4667.40, 153417.41, 4805.02, 163287.38, -61678.14, 158814.73, -19413.85, 0.000, 0.000, 0.000, 17:18:14.420
239, -45778.47, -52893.68, 147738.45, 165848.83, 5370.61, 8364.96, -41205.02, 4603.16, 61508.22, 4667.40, 153417.41, 4805.02, 163287.38, -61678.14, 158814.73, -19413.85, 0.000, 0.000, 0.000, 17:18:14.420
240, -45778.47, -52893.68, 147738.45, 165848.83, 5370.61, 8364.96, -41205.02, 4603.16, 61512.02, 4660.58, 153431.41, 4817.27, 163327.77, -61653.93, 158806.80, -19403.68, 0.000, 0.000, 0.000, 17:18:14.421
241, -45786.21, -52923.12, 147733.88, 165847.19, 5367.23, 8356.71, -41225.20, 4597.69, 61512.02, 4660.58, 153431.41, 4817.27, 163327.77, -61653.93, 158806.80, -19403.68, 0.000, 0.000, 0.000, 17:18:14.879
242, -45786.21, -52923.12, 147733.88, 165847.19, 5367.23, 8356.71, -41225.20, 4597.69, 61507.02, 4656.99, 153420.88, 4806.92, 163275.58, -61658.09, 158781.33, -19410.14, 0.000, 0.000, 0.000, 17:18:14.879
243, -45740.36, -52918.94, 147715.88, 165851.33, 5333.69, 8351.89, -41236.98, 4617.27, 61507.02, 4656.99, 153420.88, 4806.92, 163275.58, -61658.09, 158781.33, -19410.14, 0.000, 0.000, 0.000, 17:18:14.880
244, -45740.36, -52918.94, 147715.88, 165851.33, 5333.69, 8351.89, -41236.98, 4617.27, 61516.94, 4676.25, 153430.06, 4815.66, 163294.16, -61613.32, 158775.95, -19386.54, 0.000, 0.000, 0.000, 17:18:14.880
245, -45737.68, -52939.57, 147724.03, 165843.55, 5362.23, 8343.15, -41238.25, 4603.41, 61516.94, 4676.25, 153430.06, 4815.66, 163294.16, -61613.32, 158775.95, -19386.54, 0.138, 0.920, 0.228, 17:18:14.880
246, -45737.68, -52939.57, 147724.03, 165843.55, 5362.23, 8343.15, -41238.25, 4603.41, 61523.18, 4657.59, 153447.33, 4834.73, 163303.06, -61637.57, 158745.38, -19405.13, 0.000, 0.000, 0.000, 17:18:14.880
247, -45761.89, -52967.24, 147733.63, 165851.91, 5364.51, 8339.93, -41229.38, 4603.25, 61523.18, 4657.59, 153447.33, 4834.73, 163303.06, -61637.57, 158745.38, -19405.13, 0.000, 0.000, 0.000, 17:18:14.880
248, -45761.89, -52967.24, 147733.63, 165851.91, 5364.51, 8339.93, -41229.38, 4603.25, 61515.69, 4664.29, 153446.59, 4832.38, 163340.98, -61635.20, 158728.25, -19409.29, 0.000, 0.000, 0.000, 17:18:14.880
249, -45740.81, -52964.49, 147740.72, 165855.58, 5373.85, 8346.63, -41264.45, 4603.50, 61515.69, 4664.29, 153446.59, 4832.38, 163340.98, -61635.20, 158728.25, -19409.29, 0.000, 0.000, 0.000, 17:18:14.881
250, -45740.81, -52964.49, 147740.72, 165855.58, 5373.85, 8346.63, -41264.45, 4603.50, 61518.35, 4649.94, 153452.56, 4837.16, 163330.20, -61635.20, 158716.61, -19407.04, 0.000, 0.000, 0.000, 17:18:14.881
251, -45760.12, -52995.43, 147726.11, 165845.72, 5369.56, 8333.60, -41250.48, 4620.40, 61518.35, 4649.94, 153452.56, 4837.16, 163330.20, -61635.20, 158716.61, -19407.04, 0.000, 0.000, 0.000, 17:18:14.881
252, -45760.12, -52995.43, 147726.11, 165845.72, 5369.56, 8333.60, -41250.48, 4620.40, 61521.01, 4635.93, 153451.45, 4830.35, 163307.86, -61645.35, 158709.50, -19399.10, 0.000, 0.000, 0.000, 17:18:14.881
253, -45756.63, -52995.31, 147736.84, 165846.47, 5385.54, 8328.37, -41272.38, 4622.85, 61521.01, 4635.93, 153451.45, 4830.35, 163307.86, -61645.35, 158709.50, -19399.10, 0.000, 0.000, 0.000, 17:18:14.882
254, -45756.63, -52995.31, 147736.84, 165846.47, 5385.54, 8328.37, -41272.38, 4622.85, 61514.97, 4661.59, 153463.86, 4837.57, 163330.58, -61640.05, 158711.75, -19392.60, 0.000, 0.000, 0.000, 17:18:14.882
255, -45742.02, -52998.91, 147750.48, 165856.84, 5389.94, 8349.32, -41210.71, 4643.87, 61514.97, 4661.59, 153463.86, 4837.57, 163330.58, -61640.05, 158711.75, -19392.60, 0.132, 0.912, 0.210, 17:18:14.882
0, -45742.02, -52998.91, 147750.48, 165856.84, 5389.94, 8349.32, -41210.71, 4643.87, 61519.89, 4632.94, 153470.30, 4840.47, 163347.97, -61678.23, 158711.78, -19400.46, 0.000, 0.000, 0.000, 17:18:14.882
1, -45793.83, -53037.71, 147752.31, 165855.02, 5376.33, 8343.50, -41243.44, 4627.37, 61519.89, 4632.94, 153470.30, 4840.47, 163347.97, -61678.23, 158711.78, -19400.46, 0.000, 0.000, 0.000, 17:18:14.883
2, -45793.83, -53037.71, 147752.31, 165855.02, 5376.33, 8343.50, -41243.44, 4627.37, 61512.20, 4635.55, 153463.81, 4836.09, 163329.56, -61711.96, 158693.17, -19415.62, 0.000, 0.000, 0.000, 17:18:14.883
3, -45796.02, -53035.17, 147762.13, 165868.22, 5377.43, 8350.34, -41250.59, 4610.78, 61512.20, 4635.55, 153463.81, 4836.09, 163329.56, -61711.96, 158693.17, -19415.62, 0.000, 0.000, 0.000, 17:18:14.883
4, -45796.02, -53035.17, 147762.13, 165868.22, 5377.43, 8350.34, -41250.59, 4610.78, 61509.72, 4637.83, 153471.59, 4851.87, 163348.02, -61743.27, 158676.25, -19437.81, 0.000, 0.000, 0.000, 17:18:14.884
5, -45840.97, -53062.79, 147762.45, 165873.77, 5373.72, 8363.93, -41233.60, 4600.91, 61509.72, 4637.83, 153471.59, 4851.87, 163348.02, -61743.27, 158676.25, -19437.81, 0.000, 0.000, 0.000, 17:18:14.884
6, -45840.97, -53062.79, 147762.45, 165873.77, 5373.72, 8363.93, -41233.60, 4600.91, 61495.37, 4629.92, 153434.53, 4814.86, 163343.02, -61764.98, 158669.55, -19442.40, 0.000, 0.000, 0.000, 17:18:14.884
7, -45821.32, -53054.68, 147738.91, 165866.61, 5352.08, 8361.68, -41241.85, 4623.93, 61495.37, 4629.92, 153434.53, 4814.86, 163343.02, -61764.98, 158669.55, -19442.40, 0.000, 0.000, 0.000, 17:18:14.884
8, -45821.32, -53054.68, 147738.91, 165866.61, 5352.08, 8361.68, -41241.85, 4623.93, 61513.54, 4649.88, 153463.61, 4848.61, 163366.14, -61731.80, 158677.78, -19419.22, 0.000, 0.000, 0.000, 17:18:14.885
9, -45846.89, -53071.60, 147749.92, 165863.39, 5367.30, 8356.83, -41259.89, 4609.58, 61513.54, 4649.88, 153463.61, 4848.61, 163366.14, -61731.80, 158677.78, -19419.22, 0.140, 0.908, 0.202, 17:18:14.885
10, -45846.89, -53071.60, 147749.92, 165863.39, 5367.30, 8356.83, -41259.89, 4609.58, 61521.27, 4634.79, 153470.80, 4855.58, 163382.00, -61766.74, 158657.53, -19437.03, 0.000, 0.000, 0.000, 17:18:14.885
11, -45888.93, -53093.44, 147736.48, 165867.06, 5355.68, 8357.70, -41270.48, 4607.30, 61521.27, 4634.79, 153470.80, 4855.58, 163382.00, -61766.74, 158657.53, -19437.03, 0.000, 0.000, 0.000, 17:18:14.885
12, -45888.93, -53093.44, 147736.48, 165867.06, 5355.68, 8357.70, -41270.48, 4607.30, 61527.89, 4656.05, 153468.28, 4851.89, 163384.36, -61755.52, 158655.11, -19425.39, 0.000, 0.000, 0.000, 17:18:14.885
13, -45889.79, -53092.79, 147735.69, 165866.17, 5370.50, 8352.04, -41266.08, 4596.37, 61527.89, 4656.05, 153468.28, 4851.89, 163384.36, -61755.52, 158655.11, -19425.39, 0.000, 0.000, 0.000, 17:18:14.886
14, -45889.79, -53092.79, 147735.69, 165866.17, 5370.50, 8352.04, -41266.08, 4596.37, 61552.41, 4661.34, 153500.58, 4883.88, 163400.75, -61762.67, 158645.66, -19429.97, 0.000, 0.000, 0.000, 17:18:14.886
15, -45968.66, -53134.36, 147743.97, 165878.97, 5379.46, 8343.71, -41270.93, 4559.78, 61552.41, 4661.34, 153500.58, 4883.88, 163400.75, -61762.67, 158645.66, -19429.97, 0.000, 0.000, 0.000, 17:18:14.886
16, -45968.66, -53134.36, 147743.97, 165878.97, 5379.46, 8343.71, -41270.93, 4559.78, 61538.57, 4649.30, 153491.92, 4872.32, 163450.67, -61810.53, 158622.02, -19453.13, 0.000, 0.000, 0.000, 17:18:14.886
17, -45981.47, -53127.26, 147759.38, 165909.11, 5385.12, 8351.13, -41272.88, 4557.34, 61538.57, 4649.30, 153491.92, 4872.32, 163450.67, -61810.53, 158622.02, -19453.13, 0.000, 0.000, 0.000, 17:18:14.886
18, -45981.47, -53127.26, 147759.38, 165909.11, 5385.12, 8351.13, -41272.88, 4557.34, 61549.57, 4680.50, 153511.22, 4889.96, 163435.14, -61801.23, 158624.58, -19445.70, 0.000, 0.000, 0.000, 17:18:14.886
19, -46015.11, -53133.13, 147773.19, 165915.19, 5393.59, 8353.25, -41321.13, 4528.11, 61549.57, 4680.50, 153511.22, 4889.96, 163435.14, -61801.23, 158624.58, -19445.70, 0.134, 0.916, 0.188, 17:18:14.887
20, -46015.11, -53133.13, 147773.19, 165915.19, 5393.59, 8353.25, -41321.13, 4528.11, 61555.18, 4676.41, 153533.81, 4910.21, 163420.61, -61864.15, 158588.08, -19485.42, 0.000, 0.000, 0.000, 17:18:14.887
21, -46062.36, -53142.72, 147768.86, 165916.30, 5387.26, 8352.18, -41322.59, 4514.67, 61555.18, 4676.41, 153533.81, 4910.21, 163420.61, -61864.15, 158588.08, -19485.42, 0.000, 0.000, 0.000, 17:18:14.887
22, -46062.36, -53142.72, 147768.86, 165916.30, 5387.26, 8352.18, -41322.59, 4514.67, 61540.41, 4684.90, 153507.03, 4882.34, 163418.61, -61872.73, 158593.89, -19479.48, 0.000, 0.000, 0.000, 17:18:14.887
23, -46035.54, -53117.91, 147762.95, 165920.17, 5393.45, 8352.56, -41237.47, 4525.18, 61540.41, 4684.90, 153507.03, 4882.34, 163418.61, -61872.73, 158593.89, -19479.48, 0.000, 0.000, 0.000, 17:18:14.887
24, -46035.54, -53117.91, 147762.95, 165920.17, 5393.45, 8352.56, -41237.47, 4525.18, 61554.71, 4673.95, 153524.25, 4899.44, 163430.72, -61877.25, 158601.00, -19471.72, 0.000, 0.000, 0.000, 17:18:14.887
25, -46098.91, -53150.12, 147775.98, 165927.98, 5383.98, 8366.06, -41233.13, 4497.10, 61554.71, 4673.95, 153524.25, 4899.44, 163430.72, -61877.25, 158601.00, -19471.72, 0.000, 0.000, 0.000, 17:18:14.888
26, -46098.91, -53150.12, 147775.98, 165927.98, 5383.98, 8366.06, -41233.13, 4497.10, 61543.98, 4667.31, 153512.67, 4890.96, 163416.66, -61928.64, 158579.77, -19496.44, 0.000, 0.000, 0.000, 17:18:14.888
27, -46110.80, -53147.11, 147762.59, 165937.58, 5374.25, 8377.43, -41302.09, 4484.70, 61543.98, 4667.31, 153512.67, 4890.96, 163416.66, -61928.64, 158579.77, -19496.44, 0.000, 0.000, 0.000, 17:18:14.888
28, -46110.80, -53147.11, 147762.59, 165937.58, 5374.25, 8377.43, -41302.09, 4484.70, 61546.78, 4683.25, 153505.72, 4885.11, 163416.89, -61921.55, 158583.63, -19486.63, 0.000, 0.000, 0.000, 17:18:14.888
29, -46116.50, -53152.09, 147762.70, 165931.56, 5390.35, 8375.47, -41267.53, 4473.48, 61546.78, 4683.25, 153505.72, 4885.11, 163416.89, -61921.55, 158583.63, -19486.63, 0.136, 0.922, 0.178, 17:18:14.888
30, -46116.50, -53152.09, 147762.70, 165931.56, 5390.35, 8375.47, -41267.53, 4473.48, 61552.52, 4662.95, 153519.02, 4898.12, 163421.73, -61967.30, 158569.55, -19505.00, 0.000, 0.000, 0.000, 17:18:14.889
31, -46179.04, -53174.17, 147771.89, 165932.22, 5395.08, 8368.11, -41247.39, 4434.43, 61552.52, 4662.95, 153519.02, 4898.12, 163421.73, -61967.30, 158569.55, -19505.00, 0.000, 0.000, 0.000, 17:18:14.889
32, -46179.04, -53174.17, 147771.89, 165932.22, 5395.08, 8368.11, -41247.39, 4434.43, 61552.34, 4696.86, 153518.17, 4901.25, 163436.22, -61991.93, 158559.16, -19519.46, 0.000, 0.000, 0.000, 17:18:14.889
33, -46154.25, -53146.16, 147754.41, 165944.55, 5383.60, 8375.62, -41240.89, 4441.52, 61552.34, 4696.86, 153518.17, 4901.25, 163436.22, -61991.93, 158559.16, -19519.46, 0.000, 0.000, 0.000, 17:18:14.889
34, -46154.25, -53146.16, 147754.41, 165944.55, 5383.60, 8375.62, -41240.89, 4441.52, 61565.53, 4717.67, 153526.64, 4905.74, 163464.66, -61984.83, 158572.36, -19503.86, 0.000, 0.000, 0.000, 17:18:14.889
35, -46213.62, -53174.73, 147762.61, 165937.52, 5413.37, 8367.15, -41254.99, 4418.07, 61565.53, 4717.67, 153526.64, 4905.74, 163464.66, -61984.83, 158572.36, -19503.86, 0.000, 0.000, 0.000, 17:18:14.889
36, -46213.62, -53174.73, 147762.61, 165937.52, 5413.37, 8367.15, -41254.99, 4418.07, 61570.05, 4702.02, 153537.92, 4919.93, 163496.72, -62028.55, 158556.27, -19522.10, 0.000, 0.000, 0.000, 17:18:14.890
37, -46234.49, -53169.34, 147766.22, 165937.88, 5407.36, 8371.38, -41267.24, 4399.85, 61570.05, 4702.02, 153537.92, 4919.93, 163496.72, -62028.55, 158556.27, -19522.10, 0.000, 0.000, 0.000, 17:18:14.890
38, -46234.49, -53169.34, 147766.22, 165937.88, 5407.36, 8371.38, -41267.24, 4399.85, 61574.18, 4719.10, 153541.39, 4921.45, 163489.34, -62036.64, 158549.86, -19522.04, 0.000, 0.000, 0.000, 17:18:14.890
39, -46246.96, -53168.92, 147753.08, 165930.45, 5399.29, 8368.11, -41292.86, 4395.25, 61574.18, 4719.10, 153541.39, 4921.45, 163489.34, -62036.64, 158549.86, -19522.04, 0.134, 0.926, 0.174, 17:18:14.890
40, -46246.96, -53168.92, 147753.08, 165930.45, 5399.29, 8368.11, -41292.86, 4395.25, 61576.35, 4693.89, 153546.72, 4922.10, 163449.22, -62076.87, 158542.69, -19528.45, 0.000, 0.000, 0.000, 17:18:14.891
41, -46287.27, -53180.72, 147758.02, 165928.27, 5410.22, 8357.23, -41280.14, 4391.42, 61576.35, 4693.89, 153546.72, 4922.10, 163449.22, -62076.87, 158542.69, -19528.45, 0.000, 0.000, 0.000, 17:18:14.891
42, -46287.27, -53180.72, 147758.02, 165928.27, 5410.22, 8357.23, -41280.14, 4391.42, 61578.70, 4714.41, 153556.75, 4927.35, 163455.44, -62093.57, 158546.34, -19525.81, 0.000, 0.000, 0.000, 17:18:14.891
43, -46287.02, -53160.40, 147766.81, 165929.69, 5414.08, 8363.08, -41309.04, 4367.78, 61578.70, 4714.41, 153556.75, 4927.35, 163455.44, -62093.57, 158546.34, -19525.81, 0.000, 0.000, 0.000, 17:18:14.891
44, -46287.02, -53160.40, 147766.81, 165929.69, 5414.08, 8363.08, -41309.04, 4367.78, 61585.74, 4722.01, 153564.33, 4935.18, 163462.73, -62124.66, 158538.59, -19536.54, 0.000, 0.000, 0.000, 17:18:14.892
45, -46338.47, -53177.26, 147769.50, 165928.22, 5428.39, 8361.85, -41316.44, 4341.20, 61585.74, 4722.01, 153564.33, 4935.18, 163462.73, -62124.66, 158538.59, -19536.54, 0.000, 0.000, 0.000, 17:18:14.892
46, -46338.47, -53177.26, 147769.50, 165928.22, 5428.39, 8361.85, -41316.44, 4341.20, 61580.11, 4711.21, 153565.98, 4931.76, 163492.70, -62192.39, 158515.80, -19572.64, 0.000, 0.000, 0.000, 17:18:14.892
47, -46340.48, -53163.06, 147757.55, 165936.86, 5416.81, 8362.61, -41321.94, 4328.95, 61580.11, 4711.21, 153565.98, 4931.76, 163492.70, -62192.39, 158515.80, -19572.64, 0.000, 0.000, 0.000, 17:18:14.892
48, -46340.48, -53163.06, 147757.55, 165936.86, 5416.81, 8362.61, -41321.94, 4328.95, 61569.64, 4724.31, 153533.38, 4901.96, 163501.91, -62192.74, 158518.16, -19559.38, 0.116, 0.920, 0.170, 17:18:14.892
49, -46337.11, -53160.09, 147757.98, 165938.88, 5408.18, 8366.24, -41316.68, 4334.11, 61569.64, 4724.31, 153533.38, 4901.96, 163501.91, -62192.74, 158518.16, -19559.38, 0.000, 0.000, 0.000, 17:18:14.892
50, -46337.11, -53160.09, 147757.98, 165938.88, 5408.18, 8366.24, -41316.68, 4334.11, 61587.84, 4718.79, 153584.08, 4957.95, 163475.84, -62249.96, 158507.22, -19576.57, 0.000, 0.000, 0.000, 17:18:14.893
51, -46386.80, -53173.01, 147779.45, 165952.44, 5415.07, 8378.06, -41309.60, 4311.45, 61587.84, 4718.79, 153584.08, 4957.95, 163475.84, -62249.96, 158507.22, -19576.57, 0.000, 0.000, 0.000, 17:18:14.893
52, -46386.80, -53173.01, 147779.45, 165952.44, 5415.07, 8378.06, -41309.60, 4311.45, 61571.25, 4742.15, 153559.16, 4932.09, 163477.20, -62281.79, 158496.77, -19590.05, 0.000, 0.000, 0.000, 17:18:14.893
53, -46356.62, -53150.01, 147764.83, 165948.48, 5405.23, 8379.04, -41291.94, 4324.70, 61571.25, 4742.15, 153559.16, 4932.09, 163477.20, -62281.79, 158496.77, -19590.05, 0.000, 0.000, 0.000, 17:18:14.893
54, -46356.62, -53150.01, 147764.83, 165948.48, 5405.23, 8379.04, -41291.94, 4324.70, 61590.74, 4748.61, 153581.00, 4957.30, 163485.73, -62294.82, 158507.92, -19586.30, 0.000, 0.000, 0.000, 17:18:14.893
55, -46445.79, -53187.34, 147794.56, 165946.03, 5445.76, 8376.81, -41317.42, 4270.19, 61590.74, 4748.61, 153581.00, 4957.30, 163485.73, -62294.82, 158507.92, -19586.30, 0.000, 0.000, 0.000, 17:18:14.893
56, -46445.79, -53187.34, 147794.56, 165946.03, 5445.76, 8376.81, -41317.42, 4270.19, 61574.88, 4739.44, 153567.59, 4938.10, 163508.45, -62365.63, 158487.36, -19626.06, 0.000, 0.000, 0.000, 17:18:14.894
57, -46409.71, -53158.39, 147752.63, 165951.08, 5387.75, 8381.28, -41325.63, 4317.46, 61574.88, 4739.44, 153567.59, 4938.10, 163508.45, -62365.63, 158487.36, -19626.06, 0.000, 0.000, 0.000, 17:18:14.894
58, -46409.71, -53158.39, 147752.63, 165951.08, 5387.75, 8381.28, -41325.63, 4317.46, 61584.66, 4750.68, 153550.47, 4916.53, 163487.25, -62323.68, 158525.09, -19579.90, 0.112, 0.924, 0.158, 17:18:14.895
59, -46418.47, -53161.23, 147761.00, 165931.39, 5404.03, 8358.26, -41368.56, 4311.45, 61584.66, 4750.68, 153550.47, 4916.53, 163487.25, -62323.68, 158525.09, -19579.90, 0.000, 0.000, 0.000, 17:18:14.895
60, -46418.47, -53161.23, 147761.00, 165931.39, 5404.03, 8358.26, -41368.56, 4311.45, 61604.73, 4745.05, 153603.80, 4971.72, 163506.30, -62384.48, 158508.75, -19610.30, 0.000, 0.000, 0.000, 17:18:14.895
61, -46495.72, -53190.89, 147776.88, 165941.69, 5414.11, 8357.67, -41361.88, 4282.50, 61604.73, 4745.05, 153603.80, 4971.72, 163506.30, -62384.48, 158508.75, -19610.30, 0.000, 0.000, 0.000, 17:18:14.896
62, -46495.72, -53190.89, 147776.88, 165941.69, 5414.11, 8357.67, -41361.88, 4282.50, 61591.13, 4753.10, 153579.20, 4944.18, 163490.06, -62427.82, 158498.34, -19628.83, 0.000, 0.000, 0.000, 17:18:14.896
63, -46516.04, -53185.86, 147776.83, 165945.22, 5406.77, 8357.72, -41393.55, 4276.20, 61591.13, 4753.10, 153579.20, 4944.18, 163490.06, -62427.82, 158498.34, -19628.83, 0.000, 0.000, 0.000, 17:18:14.896
64, -46516.04, -53185.86, 147776.83, 165945.22, 5406.77, 8357.72, -41393.55, 4276.20, 61592.78, 4745.07, 153599.28, 4961.35, 163510.09, -62463.56, 158494.98, -19644.03, 0.000, 0.000, 0.000, 17:18:14.896
65, -46566.97, -53196.95, 147789.42, 165951.11, 5412.18, 8364.49, -41376.48, 4283.11, 61592.78, 4745.07, 153599.28, 4961.35, 163510.09, -62463.56, 158494.98, -19644.03, 0.000, 0.000, 0.000, 17:18:14.897
66, -46566.97, -53196.95, 147789.42, 165951.11, 5412.18, 8364.49, -41376.48, 4283.11, 61588.60, 4748.54, 153593.42, 4947.29, 163498.36, -62493.33, 158504.33, -19645.21, 0.000, 0.000, 0.000, 17:18:14.897
67, -46582.62, -53185.62, 147788.88, 165950.52, 5408.94, 8364.13, -41374.82, 4292.54, 61588.60, 4748.54, 153593.42, 4947.29, 163498.36, -62493.33, 158504.33, -19645.21, 0.000, 0.000, 0.000, 17:18:14.897
68, -46582.62, -53185.62, 147788.88, 165950.52, 5408.94, 8364.13, -41374.82, 4292.54, 61593.89, 4781.04, 153613.91, 4970.42, 163518.86, -62496.66, 158520.41, -19640.54, 0.096, 0.928, 0.154, 17:18:14.897
69, -46604.86, -53180.70, 147811.23, 165962.41, 5435.59, 8387.85, -41322.88, 4296.27, 61593.89, 4781.04, 153613.91, 4970.42, 163518.86, -62496.66, 158520.41, -19640.54, 0.000, 0.000, 0.000, 17:18:14.898
70, -46604.86, -53180.70, 147811.23, 165962.41, 5435.59, 8387.85, -41322.88, 4296.27, 61589.05, 4761.66, 153612.45, 4970.92, 163509.58, -62554.11, 158522.64, -19663.86, 0.000, 0.000, 0.000, 17:18:14.898
71, -46660.27, -53197.93, 147804.06, 165964.84, 5422.38, 8396.88, -41337.07, 4302.96, 61589.05, 4761.66, 153612.45, 4970.92, 163509.58, -62554.11, 158522.64, -19663.86, 0.000, 0.000, 0.000, 17:18:14.899
72, -46660.27, -53197.93, 147804.06, 165964.84, 5422.38, 8396.88, -41337.07, 4302.96, 61588.31, 4776.21, 153603.78, 4958.11, 163517.41, -62571.88, 158540.36, -19660.77, 0.000, 0.000, 0.000, 17:18:14.899
73, -46663.27, -53179.89, 147797.39, 165952.36, 5411.98, 8396.50, -41422.83, 4310.33, 61588.31, 4776.21, 153603.78, 4958.11, 163517.41, -62571.88, 158540.36, -19660.77, 0.000, 0.000, 0.000, 17:18:14.899
74, -46663.27, -53179.89, 147797.39, 165952.36, 5411.98, 8396.50, -41422.83, 4310.33, 61602.10, 4782.51, 153627.27, 4985.13, 163531.75, -62595.52, 158545.97, -19662.40, 0.000, 0.000, 0.000, 17:18:14.899
75, -46749.79, -53210.16, 147821.52, 165940.94, 5431.52, 8397.39, -41426.41, 4299.60, 61602.10, 4782.51, 153627.27, 4985.13, 163531.75, -62595.52, 158545.97, -19662.40, 0.000, 0.000, 0.000, 17:18:14.900
76, -46749.79, -53210.16, 147821.52, 165940.94, 5431.52, 8397.39, -41426.41, 4299.60, 61580.93, 4776.37, 153603.84, 4958.35, 163516.73, -62648.41, 158544.30, -19681.94, 0.000, 0.000, 0.000, 17:18:14.900
77, -46723.01, -53169.05, 147806.27, 165942.56, 5428.14, 8399.09, -41334.18, 4355.51, 61580.93, 4776.37, 153603.84, 4958.35, 163516.73, -62648.41, 158544.30, -19681.94, 0.000, 0.000, 0.000, 17:18:14.900
78, -46723.01, -53169.05, 147806.27, 165942.56, 5428.14, 8399.09, -41334.18, 4355.51, 61589.61, 4794.29, 153603.28, 4954.04, 163520.58, -62608.60, 158585.02, -19643.00, 0.090, 0.934, 0.160, 17:18:14.900
79, -46745.77, -53172.63, 147812.75, 165925.53, 5429.19, 8388.94, -41365.99, 4360.96, 61589.61, 4794.29, 153603.28, 4954.04, 163520.58, -62608.60, 158585.02, -19643.00, 0.000, 0.000, 0.000, 17:18:14.901
80, -46745.77, -53172.63, 147812.75, 165925.53, 5429.19, 8388.94, -41365.99, 4360.96, 61603.28, 4772.37, 153621.41, 4974.09, 163555.02, -62648.63, 158581.11, -19655.03, 0.000, 0.000, 0.000, 17:18:14.901
81, -46796.50, -53181.57, 147814.34, 165925.52, 5414.08, 8385.03, -41416.95, 4368.31, 61603.28, 4772.37, 153621.41, 4974.09, 163555.02, -62648.63, 158581.11, -19655.03, 0.000, 0.000, 0.000, 17:18:14.901
82, -46796.50, -53181.57, 147814.34, 165925.52, 5414.08, 8385.03, -41416.95, 4368.31, 61595.24, 4786.36, 153602.08, 4952.23, 163585.73, -62654.60, 158584.34, -19651.54, 0.000, 0.000, 0.000, 17:18:14.901
83, -46763.85, -53144.69, 147800.66, 165919.42, 5416.32, 8386.33, -41404.21, 4405.73, 61595.24, 4786.36, 153602.08, 4952.23, 163585.73, -62654.60, 158584.34, -19651.54, 0.000, 0.000, 0.000, 17:18:14.902
84, -46763.85, -53144.69, 147800.66, 165919.42, 5416.32, 8386.33, -41404.21, 4405.73, 61606.08, 4790.18, 153597.31, 4951.38, 163541.11, -62625.59, 158613.34, -19619.53, 0.000, 0.000, 0.000, 17:18:14.902
85, -46809.78, -53165.41, 147808.66, 165902.31, 5419.63, 8374.71, -41380.12, 4413.53, 61606.08, 4790.18, 153597.31, 4951.38, 163541.11, -62625.59, 158613.34, -19619.53, 0.000, 0.000, 0.000, 17:18:14.902
86, -46809.78, -53165.41, 147808.66, 165902.31, 5419.63, 8374.71, -41380.12, 4413.53, 61609.05, 4772.92, 153616.06, 4965.69, 163509.22, -62661.19, 158599.72, -19640.39, 0.000, 0.000, 0.000, 17:18:14.903
87, -46820.51, -53152.20, 147812.55, 165913.16, 5408.83, 8377.50, -41389.80, 4427.03, 61609.05, 4772.92, 153616.06, 4965.69, 163509.22, -62661.19, 158599.72, -19640.39, 0.000, 0.000, 0.000, 17:18:14.903
88, -46820.51, -53152.20, 147812.55, 165913.16, 5408.83, 8377.50, -41389.80, 4427.03, 61601.50, 4768.07, 153608.42, 4963.12, 163500.77, -62649.61, 158608.31, -19632.90, 0.082, 0.936, 0.168, 17:18:14.903
89, -46859.45, -53158.10, 147818.66, 165910.53, 5399.47, 8379.33, -41445.61, 4428.86, 61601.50, 4768.07, 153608.42, 4963.12, 163500.77, -62649.61, 158608.31, -19632.90, 0.000, 0.000, 0.000, 17:18:14.904
90, -46859.45, -53158.10, 147818.66, 165910.53, 5399.47, 8379.33, -41445.61, 4428.86, 61606.90, 4763.22, 153636.94, 4991.79, 163513.48, -62701.49, 158586.27, -19664.88, 0.000, 0.000, 0.000, 17:18:14.904
91, -46923.13, -53172.59, 147840.52, 165933.27, 5412.27, 8411.03, -41403.16, 4438.99, 61606.90, 4763.22, 153636.94, 4991.79, 163513.48, -62701.49, 158586.27, -19664.88, 0.000, 0.000, 0.000, 17:18:14.905
92, -46923.13, -53172.59, 147840.52, 165933.27, 5412.27, 8411.03, -41403.16, 4438.99, 61579.81, 4768.41, 153599.06, 4943.11, 163497.75, -62703.28, 158598.03, -19660.95, 0.000, 0.000, 0.000, 17:18:14.905
93, -46892.35, -53136.87, 147826.91, 165938.86, 5404.03, 8421.91, -41358.86, 4490.58, 61579.81, 4768.41, 153599.06, 4943.11, 163497.75, -62703.28, 158598.03, -19660.95, 0.000, 0.000, 0.000, 17:18:14.905
94, -46892.35, -53136.87, 147826.91, 165938.86, 5404.03, 8421.91, -41358.86, 4490.58, 61590.74, 4773.89, 153618.53, 4962.80, 163503.86, -62695.14, 158610.05, -19647.83, 0.000, 0.000, 0.000, 17:18:14.905
95, -46950.04, -53157.07, 147835.45, 165928.55, 5417.01, 8417.42, -41369.97, 4477.19, 61590.74, 4773.89, 153618.53, 4962.80, 163503.86, -62695.14, 158610.05, -19647.83, 0.000, 0.000, 0.000, 17:18:14.905
96, -46950.04, -53157.07, 147835.45, 165928.55, 5417.01, 8417.42, -41369.97, 4477.19, 61582.79, 4776.19, 153608.95, 4955.54, 163500.03, -62726.10, 158599.19, -19664.08, 0.000, 0.000, 0.000, 17:18:14.905
97, -46911.26, -53117.53, 147809.75, 165935.36, 5391.17, 8427.66, -41391.94, 4511.27, 61582.79, 4776.19, 153608.95, 4955.54, 163500.03, -62726.10, 158599.19, -19664.08, 0.000, 0.000, 0.000, 17:18:14.906
98, -46911.26, -53117.53, 147809.75, 165935.36, 5391.17, 8427.66, -41391.94, 4511.27, 61587.95, 4793.71, 153596.69, 4945.06, 163501.16, -62672.39, 158626.41, -19625.03, 0.074, 0.920, 0.166, 17:18:14.906
99, -46907.32, -53111.25, 147816.53, 165926.19, 5409.88, 8418.81, -41439.66, 4507.61, 61587.95, 4793.71, 153596.69, 4945.06, 163501.16, -62672.39, 158626.41, -19625.03, 0.000, 0.000, 0.000, 17:18:14.906
100, -46907.32, -53111.25, 147816.53, 165926.19, 5409.88, 8418.81, -41439.66, 4507.61, 61604.51, 4788.01, 153645.75, 4995.03, 163554.77, -62706.30, 158606.25, -19648.37, 0.000, 0.000, 0.000, 17:18:14.906
101, -46949.10, -53121.89, 147838.17, 165939.19, 5426.35, 8423.63, -41428.75, 4480.88, 61604.51, 4788.01, 153645.75, 4995.03, 163554.77, -62706.30, 158606.25, -19648.37, 0.000, 0.000, 0.000, 17:18:14.906
102, -46949.10, -53121.89, 147838.17, 165939.19, 5426.35, 8423.63, -41428.75, 4480.88, 61595.30, 4811.77, 153628.50, 4977.49, 163560.94, -62719.02, 158596.48, -19663.95, 0.000, 0.000, 0.000, 17:18:14.906
103, -46914.57, -53096.32, 147832.67, 165942.41, 5437.11, 8431.06, -41430.36, 4485.64, 61595.30, 4811.77, 153628.50, 4977.49, 163560.94, -62719.02, 158596.48, -19663.95, 0.000, 0.000, 0.000, 17:18:14.907
104, -46914.57, -53096.32, 147832.67, 165942.41, 5437.11, 8431.06, -41430.36, 4485.64, 61597.07, 4790.58, 153620.98, 4964.48, 163564.61, -62719.75, 158603.53, -19660.93, 0.000, 0.000, 0.000, 17:18:14.907
105, -46970.04, -53127.86, 147839.38, 165929.42, 5436.35, 8423.05, -41483.23, 4477.10, 61597.07, 4790.58, 153620.98, 4964.48, 163564.61, -62719.75, 158603.53, -19660.93, 0.000, 0.000, 0.000, 17:18:14.907
106, -46970.04, -53127.86, 147839.38, 165929.42, 5436.35, 8423.05, -41483.23, 4477.10, 61596.38, 4778.20, 153632.86, 4967.41, 163537.56, -62766.89, 158587.31, -19685.16, 0.000, 0.000, 0.000, 17:18:15.360
107, -46983.30, -53120.77, 147839.11, 165942.91, 5435.97, 8429.98, -41488.48, 4487.34, 61596.38, 4778.20, 153632.86, 4967.41, 163537.56, -62766.89, 158587.31, -19685.16, 0.000, 0.000, 0.000, 17:18:15.361
108, -46983.30, -53120.77, 147839.11, 165942.91, 5435.97, 8429.98, -41488.48, 4487.34, 61594.25, 4790.69, 153620.86, 4961.84, 163545.94, -62759.76, 158607.38, -19678.83, 0.070, 0.922, 0.168, 17:18:15.363
109, -47011.37, -53135.64, 147831.19, 165926.98, 5447.03, 8419.46, -41399.25, 4491.36, 61594.25, 4790.69, 153620.86, 4961.84, 163545.94, -62759.76, 158607.38, -19678.83, 0.000, 0.000, 0.000, 17:18:15.363
110, -47011.37, -53135.64, 147831.19, 165926.98, 5447.03, 8419.46, -41399.25, 4491.36, 61595.46, 4751.89, 153600.59, 4945.12, 163526.81, -62784.93, 158623.63, -19676.89, 0.000, 0.000, 0.000, 17:18:15.364
111, -47048.39, -53151.66, 147815.52, 165916.64, 5419.83, 8415.32, -41390.69, 4521.74, 61595.46, 4751.89, 153600.59, 4945.12, 163526.81, -62784.93, 158623.63, -19676.89, 0.000, 0.000, 0.000, 17:18:15.364
112, -47048.39, -53151.66, 147815.52, 165916.64, 5419.83, 8415.32, -41390.69, 4521.74, 61597.36, 4749.01, 153596.02, 4935.44, 163536.16, -62767.16, 158660.66, -19642.82, 0.000, 0.000, 0.000, 17:18:15.364
113, -47063.79, -53146.75, 147826.97, 165915.92, 5436.59, 8410.65, -41439.64, 4518.74, 61597.36, 4749.01, 153596.02, 4935.44, 163536.16, -62767.16, 158660.66, -19642.82, 0.000, 0.000, 0.000, 17:18:15.365
114, -47063.79, -53146.75, 147826.97, 165915.92, 5436.59, 8410.65, -41439.64, 4518.74, 61613.83, 4760.56, 153624.72, 4962.24, 163553.16, -62787.37, 158659.09, -19646.62, 0.000, 0.000, 0.000, 17:18:15.365
115, -47125.70, -53172.90, 147828.52, 165917.16, 5447.72, 8412.24, -41356.00, 4517.78, 61613.83, 4760.56, 153624.72, 4962.24, 163553.16, -62787.37, 158659.09, -19646.62, 0.000, 0.000, 0.000, 17:18:15.365
116, -47125.70, -53172.90, 147828.52, 165917.16, 5447.72, 8412.24, -41356.00, 4517.78, 61606.21, 4757.19, 153623.06, 4972.23, 163544.92, -62822.75, 158664.95, -19654.07, 0.000, 0.000, 0.000, 17:18:15.365
117, -47151.14, -53162.21, 147838.66, 165938.78, 5428.23, 8434.70, -41341.23, 4531.15, 61606.21, 4757.19, 153623.06, 4972.23, 163544.92, -62822.75, 158664.95, -19654.07, 0.000, 0.000, 0.000, 17:18:15.366
118, -47151.14, -53162.21, 147838.66, 165938.78, 5428.23, 8434.70, -41341.23, 4531.15, 61605.05, 4778.65, 153622.34, 4965.95, 163555.48, -62815.60, 158683.44, -19641.71, 0.068, 0.932, 0.182, 17:18:15.366
119, -47179.39, -53162.71, 147839.91, 165936.13, 5439.34, 8434.36, -41364.56, 4528.33, 61605.05, 4778.65, 153622.34, 4965.95, 163555.48, -62815.60, 158683.44, -19641.71, 0.000, 0.000, 0.000, 17:18:15.366
120, -47179.39, -53162.71, 147839.91, 165936.13, 5439.34, 8434.36, -41364.56, 4528.33, 61602.88, 4772.59, 153629.61, 4964.61, 163557.36, -62854.11, 158680.27, -19660.28, 0.000, 0.000, 0.000, 17:18:15.367
121, -47207.84, -53160.61, 147841.36, 165943.80, 5437.04, 8435.53, -41387.96, 4533.13, 61602.88, 4772.59, 153629.61, 4964.61, 163557.36, -62854.11, 158680.27, -19660.28, 0.000, 0.000, 0.000, 17:18:15.367
122, -47207.84, -53160.61, 147841.36, 165943.80, 5437.04, 8435.53, -41387.96, 4533.13, 61597.09, 4797.62, 153624.86, 4958.35, 163587.78, -62843.07, 158691.72, -19650.18, 0.000, 0.000, 0.000, 17:18:15.368
123, -47157.60, -53115.21, 147837.98, 165946.50, 5430.42, 8443.28, -41417.04, 4554.77, 61597.09, 4797.62, 153624.86, 4958.35, 163587.78, -62843.07, 158691.72, -19650.18, 0.000, 0.000, 0.000, 17:18:15.368
124, -47157.60, -53115.21, 147837.98, 165946.50, 5430.42, 8443.28, -41417.04, 4554.77, 61594.59, 4790.81, 153612.09, 4941.21, 163555.38, -62817.36, 158712.02, -19628.52, 0.000, 0.000, 0.000, 17:18:15.368
125, -47150.78, -53117.27, 147825.11, 165929.98, 5428.88, 8430.88, -41422.70, 4581.35, 61594.59, 4790.81, 153612.09, 4941.21, 163555.38, -62817.36, 158712.02, -19628.52, 0.000, 0.000, 0.000, 17:18:15.369
126, -47150.78, -53117.27, 147825.11, 165929.98, 5428.88, 8430.88, -41422.70, 4581.35, 61605.47, 4780.48, 153625.95, 4952.21, 163558.97, -62812.67, 158727.56, -19616.49, 0.000, 0.000, 0.000, 17:18:15.369
127, -47131.60, -53103.45, 147830.25, 165928.17, 5431.52, 8434.23, -41428.82, 4576.90, 61605.47, 4780.48, 153625.95, 4952.21, 163558.97, -62812.67, 158727.56, -19616.49, 0.000, 0.000, 0.000, 17:18:15.369
128, -47131.60, -53103.45, 147830.25, 165928.17, 5431.52, 8434.23, -41428.82, 4576.90, 61613.59, 4806.56, 153628.83, 4956.97, 163580.25, -62783.07, 158742.36, -19602.10, 0.056, 0.924, 0.186, 17:18:15.369
129, -47119.67, -53102.25, 147832.67, 165922.14, 5455.23, 8433.33, -41451.84, 4570.80, 61613.59, 4806.56, 153628.83, 4956.97, 163580.25, -62783.07, 158742.36, -19602.10, 0.000, 0.000, 0.000, 17:18:15.370
130, -47119.67, -53102.25, 147832.67, 165922.14, 5455.23, 8433.33, -41451.84, 4570.80, 61619.00, 4774.78, 153636.72, 4963.12, 163566.66, -62811.04, 158731.95, -19619.44, 0.000, 0.000, 0.000, 17:18:15.370
131, -47126.62, -53108.86, 147822.72, 165920.66, 5440.84, 8424.98, -41440.04, 4582.76, 61619.00, 4774.78, 153636.72, 4963.12, 163566.66, -62811.04, 158731.95, -19619.44, 0.000, 0.000, 0.000, 17:18:15.370
132, -47126.62, -53108.86, 147822.72, 165920.66, 5440.84, 8424.98, -41440.04, 4582.76, 61609.56, 4784.79, 153596.27, 4923.19, 163550.23, -62786.90, 158739.38, -19600.58, 0.000, 0.000, 0.000, 17:18:15.370
133, -47048.66, -53075.58, 147796.84, 165905.30, 5415.67, 8416.15, -41464.18, 4627.17, 61609.56, 4784.79, 153596.27, 4923.19, 163550.23, -62786.90, 158739.38, -19600.58, 0.000, 0.000, 0.000, 17:18:15.371
134, -47048.66, -53075.58, 147796.84, 165905.30, 5415.67, 8416.15, -41464.18, 4627.17, 61613.74, 4767.60, 153574.06, 4900.96, 163550.02, -62734.28, 158771.31, -19556.39, 0.000, 0.000, 0.000, 17:18:15.371
135, -47030.46, -53091.65, 147790.33, 165876.81, 5408.88, 8396.28, -41394.69, 4659.33, 61613.74, 4767.60, 153574.06, 4900.96, 163550.02, -62734.28, 158771.31, -19556.39, 0.000, 0.000, 0.000, 17:18:15.371
136, -47030.46, -53091.65, 147790.33, 165876.81, 5408.88, 8396.28, -41394.69, 4659.33, 61629.46, 4760.27, 153605.52, 4930.26, 163558.45, -62736.18, 158774.50, -19551.52, 0.000, 0.000, 0.000, 17:18:15.371
137, -47013.36, -53081.99, 147809.08, 165897.75, 5412.74, 8411.94, -41400.23, 4662.60, 61629.46, 4760.27, 153605.52, 4930.26, 163558.45, -62736.18, 158774.50, -19551.52, 0.066, 0.926, 0.184, 17:18:15.371
138, -47013.36, -53081.99, 147809.08, 165897.75, 5412.74, 8411.94, -41400.23, 4662.60, 61624.79, 4782.51, 153603.59, 4935.47, 163570.23, -62716.60, 158770.97, -19543.61, 0.000, 0.000, 0.000, 17:18:15.372
139, -47038.53, -53110.76, 147821.53, 165910.48, 5434.31, 8421.62, -41354.04, 4677.39, 61624.79, 4782.51, 153603.59, 4935.47, 163570.23, -62716.60, 158770.97, -19543.61, 0.000, 0.000, 0.000, 17:18:15.372
140, -47038.53, -53110.76, 147821.53, 165910.48, 5434.31, 8421.62, -41354.04, 4677.39, 61634.98, 4753.46, 153622.13, 4963.00, 163569.45, -62751.80, 158762.52, -19553.60, 0.000, 0.000, 0.000, 17:18:15.372
141, -47138.06, -53158.75, 147841.58, 165918.63, 5449.82, 8425.53, -41334.05, 4660.88, 61634.98, 4753.46, 153622.13, 4963.00, 163569.45, -62751.80, 158762.52, -19553.60, 0.000, 0.000, 0.000, 17:18:15.373
142, -47138.06, -53158.75, 147841.58, 165918.63, 5449.82, 8425.53, -41334.05, 4660.88, 61633.93, 4782.98, 153642.58, 4990.99, 163582.06, -62785.82, 158740.16, -19572.71, 0.000, 0.000, 0.000, 17:18:15.373
143, -47177.60, -53156.52, 147847.16, 165943.34, 5442.25, 8442.08, -41343.77, 4664.23, 61633.93, 4782.98, 153642.58, 4990.99, 163582.06, -62785.82, 158740.16, -19572.71, 0.000, 0.000, 0.000, 17:18:15.373
144, -47177.60, -53156.52, 147847.16, 165943.34, 5442.25, 8442.08, -41343.77, 4664.23, 61636.81, 4777.37, 153648.92, 4997.54, 163593.27, -62804.91, 158732.78, -19577.42, 0.000, 0.000, 0.000, 17:18:15.373
145, -47295.69, -53204.73, 147855.69, 165941.30, 5453.96, 8437.89, -41364.72, 4642.66, 61636.81, 4777.37, 153648.92, 4997.54, 163593.27, -62804.91, 158732.78, -19577.42, 0.000, 0.000, 0.000, 17:18:15.374
146, -47295.69, -53204.73, 147855.69, 165941.30, 5453.96, 8437.89, -41364.72, 4642.66, 61629.64, 4773.04, 153636.30, 4985.96, 163605.52, -62859.00, 158709.86, -19600.67, 0.000, 0.000, 0.000, 17:18:15.374
147, -47354.88, -53207.36, 147854.02, 165954.03, 5439.59, 8447.24, -41376.03, 4658.62, 61629.64, 4773.04, 153636.30, 4985.96, 163605.52, -62859.00, 158709.86, -19600.67, 0.076, 0.934, 0.192, 17:18:15.374
148, -47354.88, -53207.36, 147854.02, 165954.03, 5439.59, 8447.24, -41376.03, 4658.62, 61641.50, 4803.61, 153658.20, 5003.59, 163625.83, -62857.11, 158704.59, -19598.43, 0.000, 0.000, 0.000, 17:18:15.375
149, -47438.60, -53222.79, 147864.47, 165959.13, 5453.09, 8457.32, -41383.14, 4644.85, 61641.50, 4803.61, 153658.20, 5003.59, 163625.83, -62857.11, 158704.59, -19598.43, 0.000, 0.000, 0.000, 17:18:15.375
150, -47438.60, -53222.79, 147864.47, 165959.13, 5453.09, 8457.32, -41383.14, 4644.85, 61640.27, 4785.96, 153670.67, 5016.89, 163611.52, -62915.38, 158672.50, -19632.90, 0.000, 0.000, 0.000, 17:18:15.375
151, -47548.15, -53248.58, 147871.61, 165965.39, 5467.95, 8462.37, -41377.70, 4627.95, 61640.27, 4785.96, 153670.67, 5016.89, 163611.52, -62915.38, 158672.50, -19632.90, 0.000, 0.000, 0.000, 17:18:15.376
152, -47548.15, -53248.58, 147871.61, 165965.39, 5467.95, 8462.37, -41377.70, 4627.95, 61621.66, 4802.61, 153638.47, 4987.43, 163582.44, -62938.00, 158658.16, -19642.71, 0.000, 0.000, 0.000, 17:18:15.376
153, -47572.63, -53228.33, 147853.98, 165961.47, 5437.33, 8467.40, -41436.69, 4638.61, 61621.66, 4802.61, 153638.47, 4987.43, 163582.44, -62938.00, 158658.16, -19642.71, 0.000, 0.000, 0.000, 17:18:15.376
154, -47572.63, -53228.33, 147853.98, 165961.47, 5437.33, 8467.40, -41436.69, 4638.61, 61639.92, 4806.07, 153665.95, 5010.14, 163590.16, -62956.35, 158641.64, -19650.54, 0.000, 0.000, 0.000, 17:18:15.376
155, -47653.70, -53246.82, 147865.95, 165957.03, 5482.03, 8473.28, -41435.75, 4619.46, 61639.92, 4806.07, 153665.95, 5010.14, 163590.16, -62956.35, 158641.64, -19650.54, 0.000, 0.000, 0.000, 17:18:15.376
156, -47653.70, -53246.82, 147865.95, 165957.03, 5482.03, 8473.28, -41435.75, 4619.46, 61608.78, 4800.66, 153623.31, 4959.25, 163605.33, -62986.90, 158642.22, -19660.91, 0.000, 0.000, 0.000, 17:18:15.377
157, -47614.46, -53204.59, 147851.00, 165963.38, 5473.61, 8487.58, -41303.05, 4678.51, 61608.78, 4800.66, 153623.31, 4959.25, 163605.33, -62986.90, 158642.22, -19660.91, 0.080, 0.920, 0.190, 17:18:15.377
158, -47614.46, -53204.59, 147851.00, 165963.38, 5473.61, 8487.58, -41303.05, 4678.51, 61620.92, 4806.03, 153618.45, 4951.29, 163584.39, -62921.97, 158685.84, -19608.34, 0.000, 0.000, 0.000, 17:18:15.377
159, -47605.28, -53197.69, 147827.14, 165936.63, 5443.21, 8470.37, -41377.48, 4696.24, 61620.92, 4806.03, 153618.45, 4951.29, 163584.39, -62921.97, 158685.84, -19608.34, 0.000, 0.000, 0.000, 17:18:15.377
160, -47605.28, -53197.69, 147827.14, 165936.63, 5443.21, 8470.37, -41377.48, 4696.24, 61638.69, 4782.16, 153628.92, 4970.36, 163594.94, -62922.13, 158692.00, -19594.50, 0.000, 0.000, 0.000, 17:18:15.377
161, -47639.61, -53204.21, 147843.34, 165940.73, 5467.66, 8475.63, -41370.64, 4702.52, 61638.69, 4782.16, 153628.92, 4970.36, 163594.94, -62922.13, 158692.00, -19594.50, 0.000, 0.000, 0.000, 17:18:15.378
162, -47639.61, -53204.21, 147843.34, 165940.73, 5467.66, 8475.63, -41370.64, 4702.52, 61636.09, 4817.94, 153635.31, 4984.62, 163611.64, -62906.05, 158708.63, -19581.04, 0.000, 0.000, 0.000, 17:18:15.378
163, -47597.52, -53167.00, 147852.47, 165962.17, 5467.24, 8499.83, -41309.44, 4733.00, 61636.09, 4817.94, 153635.31, 4984.62, 163611.64, -62906.05, 158708.63, -19581.04, 0.000, 0.000, 0.000, 17:18:15.378
164, -47597.52, -53167.00, 147852.47, 165962.17, 5467.24, 8499.83, -41309.44, 4733.00, 61636.01, 4811.06, 153628.39, 4966.07, 163606.19, -62875.57, 158727.47, -19556.17, 0.000, 0.000, 0.000, 17:18:15.379
165, -47625.91, -53187.49, 147847.58, 165947.53, 5464.49, 8495.72, -41320.82, 4753.75, 61636.01, 4811.06, 153628.39, 4966.07, 163606.19, -62875.57, 158727.47, -19556.17, 0.000, 0.000, 0.000, 17:18:15.379
166, -47625.91, -53187.49, 147847.58, 165947.53, 5464.49, 8495.72, -41320.82, 4753.75, 61640.05, 4793.38, 153640.48, 4974.47, 163621.02, -62880.60, 158728.89, -19550.02, 0.000, 0.000, 0.000, 17:18:15.379
167, -47629.71, -53178.40, 147846.75, 165956.20, 5449.15, 8491.54, -41356.36, 4776.21, 61640.05, 4793.38, 153640.48, 4974.47, 163621.02, -62880.60, 158728.89, -19550.02, 0.076, 0.920, 0.190, 17:18:15.380
168, -47629.71, -53178.40, 147846.75, 165956.20, 5449.15, 8491.54, -41356.36, 4776.21, 61648.72, 4825.23, 153661.17, 4994.83, 163641.45, -62852.16, 158739.06, -19533.37, 0.000, 0.000, 0.000, 17:18:15.380
169, -47650.70, -53181.59, 147856.25, 165964.36, 5464.55, 8492.86, -41370.04, 4782.74, 61648.72, 4825.23, 153661.17, 4994.83, 163641.45, -62852.16, 158739.06, -19533.37, 0.000, 0.000, 0.000, 17:18:15.380
170, -47650.70, -53181.59, 147856.25, 165964.36, 5464.55, 8492.86, -41370.04, 4782.74, 61647.76, 4803.35, 153654.94, 4981.47, 163607.09, -62869.87, 158736.61, -19534.08, 0.000, 0.000, 0.000, 17:18:15.380
171, -47708.86, -53206.09, 147853.14, 165950.05, 5471.64, 8482.55, -41389.11, 4783.32, 61647.76, 4803.35, 153654.94, 4981.47, 163607.09, -62869.87, 158736.61, -19534.08, 0.000, 0.000, 0.000, 17:18:15.380
172, -47708.86, -53206.09, 147853.14, 165950.05, 5471.64, 8482.55, -41389.11, 4783.32, 61651.23, 4829.70, 153660.70, 4987.84, 163623.80, -62867.27, 158732.56, -19536.07, 0.000, 0.000, 0.000, 17:18:15.381
173, -47686.20, -53177.32, 147843.55, 165957.05, 5445.22, 8483.60, -41395.12, 4808.80, 61651.23, 4829.70, 153660.70, 4987.84, 163623.80, -62867.27, 158732.56, -19536.07, 0.000, 0.000, 0.000, 17:18:15.381
174, -47686.20, -53177.32, 147843.55, 165957.05, 5445.22, 8483.60, -41395.12, 4808.80, 61654.16, 4827.69, 153654.88, 4982.72, 163631.44, -62839.07, 158742.86, -19511.20, 0.000, 0.000, 0.000, 17:18:15.381
175, -47720.70, -53193.21, 147840.48, 165945.98, 5440.08, 8462.82, -41408.21, 4827.89, 61654.16, 4827.69, 153654.88, 4982.72, 163631.44, -62839.07, 158742.86, -19511.20, 0.000, 0.000, 0.000, 17:18:15.381
176, -47720.70, -53193.21, 147840.48, 165945.98, 5440.08, 8462.82, -41408.21, 4827.89, 61666.23, 4828.89, 153672.89, 5001.58, 163622.52, -62847.67, 158727.72, -19508.96, 0.000, 0.000, 0.000, 17:18:15.381
177, -47744.35, -53183.80, 147844.31, 165940.27, 5444.30, 8449.58, -41459.78, 4811.73, 61666.23, 4828.89, 153672.89, 5001.58, 163622.52, -62847.67, 158727.72, -19508.96, 0.084, 0.930, 0.188, 17:18:15.381
178, -47744.35, -53183.80, 147844.31, 165940.27, 5444.30, 8449.58, -41459.78, 4811.73, 61662.94, 4858.60, 153679.64, 5006.14, 163630.39, -62829.19, 158712.22, -19509.21, 0.000, 0.000, 0.000, 17:18:15.382
179, -47731.59, -53168.56, 147856.56, 165954.55, 5446.05, 8459.51, -41415.77, 4829.63, 61662.94, 4858.60, 153679.64, 5006.14, 163630.39, -62829.19, 158712.22, -19509.21, 0.000, 0.000, 0.000, 17:18:15.382
180, -47731.59, -53168.56, 147856.56, 165954.55, 5446.05, 8459.51, -41415.77, 4829.63, 61667.84, 4840.58, 153696.42, 5020.04, 163625.88, -62840.70, 158711.16, -19515.78, 0.000, 0.000, 0.000, 17:18:15.382
181, -47771.46, -53179.96, 147872.30, 165967.95, 5455.35, 8471.58, -41400.17, 4824.29, 61667.84, 4840.58, 153696.42, 5020.04, 163625.88, -62840.70, 158711.16, -19515.78, 0.000, 0.000, 0.000, 17:18:15.382
182, -47771.46, -53179.96, 147872.30, 165967.95, 5455.35, 8471.58, -41400.17, 4824.29, 61653.30, 4858.42, 153675.39, 4996.06, 163634.59, -62831.87, 158709.47, -19519.29, 0.000, 0.000, 0.000, 17:18:15.383
183, -47730.81, -53150.64, 147853.86, 165973.20, 5440.26, 8477.86, -41374.60, 4852.52, 61653.30, 4858.42, 153675.39, 4996.06, 163634.59, -62831.87, 158709.47, -19519.29, 0.000, 0.000, 0.000, 17:18:15.383
184, -47730.81, -53150.64, 147853.86, 165973.20, 5440.26, 8477.86, -41374.60, 4852.52, 61665.46, 4854.64, 153688.13, 5008.06, 163645.63, -62806.86, 158717.72, -19503.73, 0.000, 0.000, 0.000, 17:18:15.383
185, -47784.56, -53177.79, 147867.63, 165972.27, 5459.97, 8476.47, -41384.61, 4834.79, 61665.46, 4854.64, 153688.13, 5008.06, 163645.63, -62806.86, 158717.72, -19503.73, 0.000, 0.000, 0.000, 17:18:15.384
186, -47784.56, -53177.79, 147867.63, 165972.27, 5459.97, 8476.47, -41384.61, 4834.79, 61657.02, 4845.39, 153691.95, 5006.52, 163682.80, -62843.71, 158692.98, -19533.14, 0.000, 0.000, 0.000, 17:18:15.384
187, -47757.72, -53149.41, 147841.30, 165979.38, 5431.83, 8490.71, -41365.37, 4866.51, 61657.02, 4845.39, 153691.95, 5006.52, 163682.80, -62843.71, 158692.98, -19533.14, 0.086, 0.922, 0.186, 17:18:15.384
188, -47757.72, -53149.41, 147841.30, 165979.38, 5431.83, 8490.71, -41365.37, 4866.51, 61653.55, 4852.36, 153658.47, 4970.65, 163666.53, -62799.77, 158701.72, -19506.77, 0.000, 0.000, 0.000, 17:18:15.384
189, -47752.31, -53152.56, 147831.80, 165958.08, 5439.79, 8477.95, -41388.07, 4879.85, 61653.55, 4852.36, 153658.47, 4970.65, 163666.53, -62799.77, 158701.72, -19506.77, 0.000, 0.000, 0.000, 17:18:15.384
190, -47752.31, -53152.56, 147831.80, 165958.08, 5439.79, 8477.95, -41388.07, 4879.85, 61661.11, 4824.60, 153649.42, 4968.26, 163669.03, -62813.83, 158691.64, -19504.58, 0.000, 0.000, 0.000, 17:18:15.385
191, -47766.79, -53167.76, 147804.02, 165943.39, 5403.98, 8465.75, -41428.44, 4903.39, 61661.11, 4824.60, 153649.42, 4968.26, 163669.03, -62813.83, 158691.64, -19504.58, 0.000, 0.000, 0.000, 17:18:15.385
192, -47766.79, -53167.76, 147804.02, 165943.39, 5403.98, 8465.75, -41428.44, 4903.39, 61675.14, 4838.42, 153653.63, 4975.30, 163689.19, -62790.12, 158692.27, -19481.56, 0.000, 0.000, 0.000, 17:18:15.385
193, -47749.47, -53156.76, 147820.89, 165939.45, 5455.77, 8464.43, -41403.32, 4896.55, 61675.14, 4838.42, 153653.63, 4975.30, 163689.19, -62790.12, 158692.27, -19481.56, 0.000, 0.000, 0.000, 17:18:15.385
194, -47749.47, -53156.76, 147820.89, 165939.45, 5455.77, 8464.43, -41403.32, 4896.55, 61674.99, 4837.21, 153671.75, 4990.61, 163700.73, -62800.49, 158671.66, -19499.21, 0.000, 0.000, 0.000, 17:18:15.385
195, -47762.99, -53170.24, 147811.14, 165941.63, 5445.33, 8464.25, -41362.62, 4904.53, 61674.99, 4837.21, 153671.75, 4990.61, 163700.73, -62800.49, 158671.66, -19499.21, 0.000, 0.000, 0.000, 17:18:15.385
196, -47762.99, -53170.24, 147811.14, 165941.63, 5445.33, 8464.25, -41362.62, 4904.53, 61667.32, 4818.48, 153646.84, 4966.04, 163682.28, -62804.62, 158664.86, -19499.84, 0.000, 0.000, 0.000, 17:18:15.386
197, -47730.83, -53148.47, 147807.91, 165944.83, 5436.44, 8469.68, -41363.11, 4926.66, 61667.32, 4818.48, 153646.84, 4966.04, 163682.28, -62804.62, 158664.86, -19499.84, 0.084, 0.916, 0.192, 17:18:15.386
198, -47730.83, -53148.47, 147807.91, 165944.83, 5436.44, 8469.68, -41363.11, 4926.66, 61672.08, 4849.59, 153637.44, 4966.96, 163716.75, -62748.34, 158685.13, -19468.01, 0.000, 0.000, 0.000, 17:18:15.386
199, -47687.58, -53132.40, 147796.75, 165937.53, 5426.02, 8470.13, -41363.02, 4954.22, 61672.08, 4849.59, 153637.44, 4966.96, 163716.75, -62748.34, 158685.13, -19468.01, 0.000, 0.000, 0.000, 17:18:15.386
200, -47687.58, -53132.40, 147796.75, 165937.53, 5426.02, 8470.13, -41363.02, 4954.22, 61683.79, 4824.78, 153654.98, 4982.78, 163715.92, -62753.19, 158670.69, -19471.63, 0.000, 0.000, 0.000, 17:18:15.386
201, -47700.52, -53137.96, 147806.36, 165935.66, 5442.34, 8463.91, -41370.89, 4950.20, 61683.79, 4824.78, 153654.98, 4982.78, 163715.92, -62753.19, 158670.69, -19471.63, 0.000, 0.000, 0.000, 17:18:15.386
202, -47700.52, -53137.96, 147806.36, 165935.66, 5442.34, 8463.91, -41370.89, 4950.20, 61680.87, 4851.87, 153665.94, 4990.32, 163736.92, -62745.86, 158660.80, -19474.72, 0.000, 0.000, 0.000, 17:18:15.387
203, -47631.70, -53103.36, 147805.05, 165942.92, 5439.63, 8461.86, -41376.16, 4966.33, 61680.87, 4851.87, 153665.94, 4990.32, 163736.92, -62745.86, 158660.80, -19474.72, 0.000, 0.000, 0.000, 17:18:15.387
204, -47631.70, -53103.36, 147805.05, 165942.92, 5439.63, 8461.86, -41376.16, 4966.33, 61677.00, 4852.65, 153644.64, 4961.75, 163739.44, -62707.68, 158676.58, -19446.91, 0.000, 0.000, 0.000, 17:18:15.387
205, -47605.23, -53111.48, 147800.03, 165929.63, 5437.46, 8449.18, -41377.73, 4999.21, 61677.00, 4852.65, 153644.64, 4961.75, 163739.44, -62707.68, 158676.58, -19446.91, 0.000, 0.000, 0.000, 17:18:15.387
206, -47605.23, -53111.48, 147800.03, 165929.63, 5437.46, 8449.18, -41377.73, 4999.21, 61685.27, 4835.33, 153656.77, 4965.40, 163718.91, -62704.40, 158688.08, -19432.85, 0.000, 0.000, 0.000, 17:18:15.387
207, -47544.50, -53087.98, 147790.58, 165930.84, 5414.60, 8459.44, -41378.46, 5039.25, 61685.27, 4835.33, 153656.77, 4965.40, 163718.91, -62704.40, 158688.08, -19432.85, 0.086, 0.918, 0.194, 17:18:15.387
208, -47544.50, -53087.98, 147790.58, 165930.84, 5414.60, 8459.44, -41378.46, 5039.25, 61687.82, 4852.03, 153654.88, 4961.77, 163711.03, -62656.83, 158708.67, -19399.01, 0.000, 0.000, 0.000, 17:18:15.387
209, -47505.64, -53083.34, 147793.33, 165921.63, 5416.88, 8454.95, -41420.51, 5049.59, 61687.82, 4852.03, 153654.88, 4961.77, 163711.03, -62656.83, 158708.67, -19399.01, 0.000, 0.000, 0.000, 17:18:15.388
210, -47505.64, -53083.34, 147793.33, 165921.63, 5416.88, 8454.95, -41420.51, 5049.59, 61688.53, 4840.90, 153657.67, 4971.50, 163712.03, -62665.93, 158700.52, -19399.99, 0.000, 0.000, 0.000, 17:18:15.388
211, -47463.59, -53076.16, 147771.13, 165914.44, 5382.19, 8449.61, -41458.42, 5089.74, 61688.53, 4840.90, 153657.67, 4971.50, 163712.03, -62665.93, 158700.52, -19399.99, 0.000, 0.000, 0.000, 17:18:15.388
212, -47463.59, -53076.16, 147771.13, 165914.44, 5382.19, 8449.61, -41458.42, 5089.74, 61684.58, 4856.48, 153650.42, 4964.10, 163711.25, -62623.08, 158717.45, -19364.75, 0.000, 0.000, 0.000, 17:18:15.388
213, -47383.71, -53048.36, 147780.56, 165917.75, 5404.38, 8448.22, -41452.16, 5121.21, 61684.58, 4856.48, 153650.42, 4964.10, 163711.25, -62623.08, 158717.45, -19364.75, 0.000, 0.000, 0.000, 17:18:15.389
214, -47383.71, -53048.36, 147780.56, 165917.75, 5404.38, 8448.22, -41452.16, 5121.21, 61690.50, 4846.04, 153654.47, 4973.24, 163733.70, -62596.82, 158723.84, -19342.66, 0.000, 0.000, 0.000, 17:18:15.389
215, -47383.66, -53071.58, 147792.56, 165913.91, 5426.96, 8438.63, -41418.09, 5126.89, 61690.50, 4846.04, 153654.47, 4973.24, 163733.70, -62596.82, 158723.84, -19342.66, 0.000, 0.000, 0.000, 17:18:15.389
216, -47383.66, -53071.58, 147792.56, 165913.91, 5426.96, 8438.63, -41418.09, 5126.89, 61690.81, 4829.68, 153659.77, 4967.56, 163724.06, -62604.91, 158714.23, -19342.01, 0.000, 0.000, 0.000, 17:18:15.389
217, -47315.60, -53046.16, 147785.66, 165919.31, 5409.57, 8447.35, -41403.07, 5170.70, 61690.81, 4829.68, 153659.77, 4967.56, 163724.06, -62604.91, 158714.23, -19342.01, 0.090, 0.938, 0.198, 17:18:15.389
218, -47315.60, -53046.16, 147785.66, 165919.31, 5409.57, 8447.35, -41403.07, 5170.70, 61690.19, 4851.83, 153636.78, 4948.45, 163713.33, -62525.25, 158748.50, -19283.95, 0.000, 0.000, 0.000, 17:18:15.390
219, -47256.17, -53044.73, 147781.53, 165901.25, 5398.93, 8432.31, -41469.70, 5209.83, 61690.19, 4851.83, 153636.78, 4948.45, 163713.33, -62525.25, 158748.50, -19283.95, 0.000, 0.000, 0.000, 17:18:15.390
220, -47256.17, -53044.73, 147781.53, 165901.25, 5398.93, 8432.31, -41469.70, 5209.83, 61716.59, 4831.89, 153680.17, 4995.77, 163742.61, -62512.80, 158754.91, -19266.89, 0.000, 0.000, 0.000, 17:18:15.390
221, -47273.76, -53070.66, 147801.20, 165906.16, 5416.05, 8434.61, -41480.77, 5218.66, 61716.59, 4831.89, 153680.17, 4995.77, 163742.61, -62512.80, 158754.91, -19266.89, 0.000, 0.000, 0.000, 17:18:15.390
222, -47273.76, -53070.66, 147801.20, 165906.16, 5416.05, 8434.61, -41480.77, 5218.66, 61711.00, 4841.95, 153680.22, 4994.25, 163759.41, -62502.83, 158758.25, -19261.66, 0.000, 0.000, 0.000, 17:18:15.391
223, -47222.11, -53052.89, 147803.83, 165918.06, 5431.05, 8441.87, -41417.22, 5254.00, 61711.00, 4841.95, 153680.22, 4994.25, 163759.41, -62502.83, 158758.25, -19261.66, 0.000, 0.000, 0.000, 17:18:15.391
224, -47222.11, -53052.89, 147803.83, 165918.06, 5431.05, 8441.87, -41417.22, 5254.00, 61708.63, 4829.38, 153680.84, 4978.09, 163734.91, -62487.14, 158772.73, -19248.29, 0.000, 0.000, 0.000, 17:18:15.392
225, -47225.32, -53074.98, 147806.84, 165909.33, 5441.55, 8430.76, -41415.59, 5274.10, 61708.63, 4829.38, 153680.84, 4978.09, 163734.91, -62487.14, 158772.73, -19248.29, 0.000, 0.000, 0.000, 17:18:15.392
226, -47225.32, -53074.98, 147806.84, 165909.33, 5441.55, 8430.76, -41415.59, 5274.10, 61700.36, 4835.53, 153681.66, 4967.43, 163733.63, -62493.89, 158787.81, -19241.95, 0.092, 0.932, 0.202, 17:18:15.841
227, -47184.17, -53055.60, 147825.05, 165928.30, 5450.32, 8440.78, -41366.06, 5302.46, 61700.36, 4835.53, 153681.66, 4967.43, 163733.63, -62493.89, 158787.81, -19241.95, 0.000, 0.000, 0.000, 17:18:15.841
228, -47184.17, -53055.60, 147825.05, 165928.30, 5450.32, 8440.78, -41366.06, 5302.46, 61700.47, 4854.20, 153695.95, 4987.95, 163745.98, -62468.65, 158809.00, -19227.73, 0.000, 0.000, 0.000, 17:18:15.841
229, -47154.38, -53047.62, 147826.25, 165937.94, 5435.88, 8444.69, -41384.63, 5314.62, 61700.47, 4854.20, 153695.95, 4987.95, 163745.98, -62468.65, 158809.00, -19227.73, 0.000, 0.000, 0.000, 17:18:15.841
230, -47154.38, -53047.62, 147826.25, 165937.94, 5435.88, 8444.69, -41384.63, 5314.62, 61689.27, 4815.64, 153671.19, 4964.34, 163734.70, -62480.63, 158806.33, -19227.13, 0.000, 0.000, 0.000, 17:18:15.842
231, -47149.04, -53055.29, 147814.34, 165930.31, 5412.21, 8432.98, -41418.14, 5337.26, 61689.27, 4815.64, 153671.19, 4964.34, 163734.70, -62480.63, 158806.33, -19227.13, 0.000, 0.000, 0.000, 17:18:15.842
232, -47149.04, -53055.29, 147814.34, 165930.31, 5412.21, 8432.98, -41418.14, 5337.26, 61693.92, 4835.29, 153669.72, 4964.23, 163738.19, -62451.38, 158819.75, -19201.76, 0.000, 0.000, 0.000, 17:18:15.842
233, -47096.51, -53027.75, 147813.11, 165939.59, 5405.21, 8435.28, -41427.93, 5355.86, 61693.92, 4835.29, 153669.72, 4964.23, 163738.19, -62451.38, 158819.75, -19201.76, 0.000, 0.000, 0.000, 17:18:15.843
234, -47096.51, -53027.75, 147813.11, 165939.59, 5405.21, 8435.28, -41427.93, 5355.86, 61699.11, 4836.20, 153674.88, 4966.18, 163734.45, -62423.39, 158821.39, -19181.42, 0.000, 0.000, 0.000, 17:18:15.843
235, -47129.05, -53058.48, 147812.53, 165933.84, 5409.10, 8425.85, -41448.52, 5352.33, 61699.11, 4836.20, 153674.88, 4966.18, 163734.45, -62423.39, 158821.39, -19181.42, 0.000, 0.000, 0.000, 17:18:15.844
236, -47129.05, -53058.48, 147812.53, 165933.84, 5409.10, 8425.85, -41448.52, 5352.33, 61709.83, 4834.48, 153696.11, 4996.44, 163755.69, -62445.74, 158794.41, -19192.91, 0.100, 0.910, 0.208, 17:18:15.845
237, -47143.05, -53058.75, 147830.34, 165950.16, 5430.69, 8439.06, -41442.79, 5325.26, 61709.83, 4834.48, 153696.11, 4996.44, 163755.69, -62445.74, 158794.41, -19192.91, 0.000, 0.000, 0.000, 17:18:15.845
238, -47143.05, -53058.75, 147830.34, 165950.16, 5430.69, 8439.06, -41442.79, 5325.26, 61695.24, 4862.91, 153691.73, 4985.33, 163789.58, -62438.39, 158772.86, -19200.53, 0.000, 0.000, 0.000, 17:18:15.845
239, -47120.09, -53052.63, 147817.25, 165951.77, 5413.35, 8446.28, -41417.42, 5337.53, 61695.24, 4862.91, 153691.73, 4985.33, 163789.58, -62438.39, 158772.86, -19200.53, 0.000, 0.000, 0.000, 17:18:15.846
240, -47120.09, -53052.63, 147817.25, 165951.77, 5413.35, 8446.28, -41417.42, 5337.53, 61700.94, 4834.17, 153687.59, 4973.71, 163769.95, -62434.88, 158770.88, -19186.92, 0.000, 0.000, 0.000, 17:18:15.846
241, -47154.29, -53076.05, 147826.50, 165939.20, 5433.08, 8437.65, -41444.47, 5320.09, 61700.94, 4834.17, 153687.59, 4973.71, 163769.95, -62434.88, 158770.88, -19186.92, 0.000, 0.000, 0.000, 17:18:15.846
242, -47154.29, -53076.05, 147826.50, 165939.20, 5433.08, 8437.65, -41444.47, 5320.09, 61712.25, 4863.58, 153712.42, 4993.94, 163781.19, -62423.68, 158761.06, -19181.86, 0.000, 0.000, 0.000, 17:18:15.846
243, -47122.37, -53052.29, 147829.94, 165952.88, 5437.29, 8450.26, -41446.10, 5314.13, 61712.25, 4863.58, 153712.42, 4993.94, 163781.19, -62423.68, 158761.06, -19181.86, 0.000, 0.000, 0.000, 17:18:15.847
244, -47122.37, -53052.29, 147829.94, 165952.88, 5437.29, 8450.26, -41446.10, 5314.13, 61709.07, 4867.70, 153700.63, 4977.04, 163771.11, -62398.31, 158767.97, -19161.35, 0.000, 0.000, 0.000, 17:18:15.847
245, -47138.04, -53072.94, 147826.52, 165946.14, 5442.27, 8446.12, -41437.18, 5320.36, 61709.07, 4867.70, 153700.63, 4977.04, 163771.11, -62398.31, 158767.97, -19161.35, 0.000, 0.000, 0.000, 17:18:15.847
246, -47138.04, -53072.94, 147826.52, 165946.14, 5442.27, 8446.12, -41437.18, 5320.36, 61713.93, 4852.99, 153716.50, 4991.70, 163768.92, -62409.27, 158761.69, -19153.41, 0.098, 0.922, 0.214, 17:18:15.847
247, -47117.50, -53059.93, 147825.20, 165951.81, 5427.96, 8455.44, -41444.83, 5328.61, 61713.93, 4852.99, 153716.50, 4991.70, 163768.92, -62409.27, 158761.69, -19153.41, 0.000, 0.000, 0.000, 17:18:15.847
248, -47117.50, -53059.93, 147825.20, 165951.81, 5427.96, 8455.44, -41444.83, 5328.61, 61711.73, 4866.71, 153699.27, 4970.00, 163768.28, -62358.82, 158784.75, -19110.21, 0.000, 0.000, 0.000, 17:18:15.847
249, -47106.66, -53063.89, 147828.42, 165935.92, 5455.90, 8443.93, -41445.23, 5320.81, 61711.73, 4866.71, 153699.27, 4970.00, 163768.28, -62358.82, 158784.75, -19110.21, 0.000, 0.000, 0.000, 17:18:15.848
250, -47106.66, -53063.89, 147828.42, 165935.92, 5455.90, 8443.93, -41445.23, 5320.81, 61735.20, 4858.22, 153757.42, 5028.54, 163819.75, -62385.80, 158770.09, -19126.83, 0.000, 0.000, 0.000, 17:18:15.848
251, -47136.54, -53075.31, 147826.05, 165953.38, 5444.75, 8443.21, -41439.84, 5294.41, 61735.20, 4858.22, 153757.42, 5028.54, 163819.75, -62385.80, 158770.09, -19126.83, 0.000, 0.000, 0.000, 17:18:15.848
252, -47136.54, -53075.31, 147826.05, 165953.38, 5444.75, 8443.21, -41439.84, 5294.41, 61712.05, 4878.04, 153694.03, 4968.97, 163767.14, -62347.60, 158781.02, -19098.60, 0.000, 0.000, 0.000, 17:18:15.848
253, -47075.97, -53049.96, 147817.25, 165950.31, 5420.21, 8448.22, -41461.88, 5313.43, 61712.05, 4878.04, 153694.03, 4968.97, 163767.14, -62347.60, 158781.02, -19098.60, 0.000, 0.000, 0.000, 17:18:15.849
254, -47075.97, -53049.96, 147817.25, 165950.31, 5420.21, 8448.22, -41461.88, 5313.43, 61729.53, 4882.81, 153735.05, 5004.96, 163767.11, -62322.61, 158774.09, -19086.98, 0.000, 0.000, 0.000, 17:18:15.849
255, -47093.16, -53069.34, 147818.34, 165947.91, 5420.03, 8443.77, -41442.10, 5299.06, 61729.53, 4882.81, 153735.05, 5004.96, 163767.11, -62322.61, 158774.09, -19086.98, 0.000, 0.000, 0.000, 17:18:15.849
0, -47093.16, -53069.34, 147818.34, 165947.91, 5420.03, 8443.77, -41442.10, 5299.06, 61722.95, 4872.26, 153723.73, 4995.15, 163754.50, -62335.77, 158746.06, -19094.27, 0.116, 0.908, 0.196, 17:18:15.849
1, -47075.36, -53059.11, 147814.77, 165951.13, 5410.35, 8445.94, -41432.53, 5289.79, 61722.95, 4872.26, 153723.73, 4995.15, 163754.50, -62335.77, 158746.06, -19094.27, 0.000, 0.000, 0.000, 17:18:15.849
2, -47075.36, -53059.11, 147814.77, 165951.13, 5410.35, 8445.94, -41432.53, 5289.79, 61708.85, 4890.49, 153688.56, 4962.49, 163746.03, -62291.38, 158729.95, -19068.16, 0.000, 0.000, 0.000, 17:18:15.849
3, -47062.16, -53064.00, 147807.83, 165935.86, 5417.66, 8433.51, -41432.20, 5282.14, 61708.85, 4890.49, 153688.56, 4962.49, 163746.03, -62291.38, 158729.95, -19068.16, 0.000, 0.000, 0.000, 17:18:15.850
4, -47062.16, -53064.00, 147807.83, 165935.86, 5417.66, 8433.51, -41432.20, 5282.14, 61722.51, 4875.50, 153723.00, 4998.54, 163759.41, -62315.14, 158684.59, -19085.77, 0.000, 0.000, 0.000, 17:18:15.850
5, -47092.02, -53077.32, 147807.55, 165948.63, 5406.26, 8442.30, -41420.04, 5268.82, 61722.51, 4875.50, 153723.00, 4998.54, 163759.41, -62315.14, 158684.59, -19085.77, 0.000, 0.000, 0.000, 17:18:15.850
6, -47092.02, -53077.32, 147807.55, 165948.63, 5406.26, 8442.30, -41420.04, 5268.82, 61709.95, 4883.14, 153697.83, 4970.47, 163780.28, -62290.00, 158663.20, -19070.82, 0.000, 0.000, 0.000, 17:18:15.850
7, -47044.81, -53052.02, 147791.63, 165946.30, 5401.12, 8446.08, -41425.18, 5281.34, 61709.95, 4883.14, 153697.83, 4970.47, 163780.28, -62290.00, 158663.20, -19070.82, 0.000, 0.000, 0.000, 17:18:15.850
8, -47044.81, -53052.02, 147791.63, 165946.30, 5401.12, 8446.08, -41425.18, 5281.34, 61728.03, 4882.85, 153712.05, 4982.38, 163758.58, -62245.58, 158650.17, -19037.07, 0.000, 0.000, 0.000, 17:18:15.850
9, -47098.79, -53092.23, 147793.27, 165921.36, 5402.42, 8426.83, -41471.74, 5249.78, 61728.03, 4882.85, 153712.05, 4982.38, 163758.58, -62245.58, 158650.17, -19037.07, 0.000, 0.000, 0.000, 17:18:15.851
10, -47098.79, -53092.23, 147793.27, 165921.36, 5402.42, 8426.83, -41471.74, 5249.78, 61734.13, 4876.95, 153732.03, 5003.30, 163791.44, -62270.75, 158606.47, -19051.13, 0.126, 0.928, 0.192, 17:18:15.851
11, -47124.70, -53088.95, 147801.17, 165938.94, 5419.29, 8436.02, -41445.30, 5223.89, 61734.13, 4876.95, 153732.03, 5003.30, 163791.44, -62270.75, 158606.47, -19051.13, 0.000, 0.000, 0.000, 17:18:15.851
12, -47124.70, -53088.95, 147801.17, 165938.94, 5419.29, 8436.02, -41445.30, 5223.89, 61729.95, 4903.82, 153737.11, 5020.18, 163784.91, -62258.32, 158582.00, -19048.51, 0.000, 0.000, 0.000, 17:18:15.851
13, -47148.81, -53094.78, 147809.72, 165951.19, 5416.01, 8443.75, -41448.52, 5204.49, 61729.95, 4903.82, 153737.11, 5020.18, 163784.91, -62258.32, 158582.00, -19048.51, 0.000, 0.000, 0.000, 17:18:15.852
14, -47148.81, -53094.78, 147809.72, 165951.19, 5416.01, 8443.75, -41448.52, 5204.49, 61731.54, 4886.90, 153742.67, 5025.10, 163765.13, -62279.47, 158551.61, -19055.11, 0.000, 0.000, 0.000, 17:18:15.852
15, -47219.20, -53118.70, 147828.95, 165954.39, 5451.90, 8446.39, -41459.29, 5168.95, 61731.54, 4886.90, 153742.67, 5025.10, 163765.13, -62279.47, 158551.61, -19055.11, 0.000, 0.000, 0.000, 17:18:15.852
16, -47219.20, -53118.70, 147828.95, 165954.39, 5451.90, 8446.39, -41459.29, 5168.95, 61735.29, 4922.75, 153765.31, 5045.86, 163800.00, -62286.44, 158527.89, -19068.23, 0.000, 0.000, 0.000, 17:18:15.852
17, -47219.00, -53099.68, 147828.27, 165965.81, 5445.76, 8456.40, -41470.87, 5149.24, 61735.29, 4922.75, 153765.31, 5045.86, 163800.00, -62286.44, 158527.89, -19068.23, 0.000, 0.000, 0.000, 17:18:15.852
18, -47219.00, -53099.68, 147828.27, 165965.81, 5445.76, 8456.40, -41470.87, 5149.24, 61732.43, 4917.50, 153758.34, 5035.60, 163786.58, -62280.61, 158515.33, -19065.79, 0.000, 0.000, 0.000, 17:18:15.852
19, -47265.60, -53120.02, 147824.89, 165960.22, 5443.21, 8458.26, -41505.42, 5143.76, 61732.43, 4917.50, 153758.34, 5035.60, 163786.58, -62280.61, 158515.33, -19065.79, 0.000, 0.000, 0.000, 17:18:15.853
20, -47265.60, -53120.02, 147824.89, 165960.22, 5443.21, 8458.26, -41505.42, 5143.76, 61728.74, 4912.29, 153761.88, 5035.74, 163789.67, -62301.73, 158505.56, -19069.23, 0.116, 0.932, 0.180, 17:18:15.853
21, -47262.00, -53101.13, 147823.86, 165975.00, 5468.51, 8473.30, -41415.88, 5154.63, 61728.74, 4912.29, 153761.88, 5035.74, 163789.67, -62301.73, 158505.56, -19069.23, 0.000, 0.000, 0.000, 17:18:15.853
22, -47262.00, -53101.13, 147823.86, 165975.00, 5468.51, 8473.30, -41415.88, 5154.63, 61716.94, 4914.25, 153709.30, 4982.58, 163802.09, -62243.21, 158524.95, -19019.08, 0.000, 0.000, 0.000, 17:18:15.853
23, -47241.82, -53096.30, 147793.17, 165948.67, 5443.25, 8462.95, -41443.64, 5179.23, 61716.94, 4914.25, 153709.30, 4982.58, 163802.09, -62243.21, 158524.95, -19019.08, 0.000, 0.000, 0.000, 17:18:15.854
24, -47241.82, -53096.30, 147793.17, 165948.67, 5443.25, 8462.95, -41443.64, 5179.23, 61751.00, 4908.26, 153771.61, 5050.11, 163818.98, -62249.18, 158512.78, -19008.68, 0.000, 0.000, 0.000, 17:18:15.854
25, -47302.68, -53116.89, 147822.16, 165962.59, 5472.56, 8469.41, -41432.11, 5147.83, 61751.00, 4908.26, 153771.61, 5050.11, 163818.98, -62249.18, 158512.78, -19008.68, 0.000, 0.000, 0.000, 17:18:15.854
26, -47302.68, -53116.89, 147822.16, 165962.59, 5472.56, 8469.41, -41432.11, 5147.83, 61727.16, 4923.82, 153761.02, 5023.04, 163793.28, -62261.27, 158489.31, -19022.29, 0.000, 0.000, 0.000, 17:18:15.854
27, -47256.32, -53080.79, 147812.27, 165975.02, 5444.95, 8475.07, -41416.57, 5174.67, 61727.16, 4923.82, 153761.02, 5023.04, 163793.28, -62261.27, 158489.31, -19022.29, 0.000, 0.000, 0.000, 17:18:15.854
28, -47256.32, -53080.79, 147812.27, 165975.02, 5444.95, 8475.07, -41416.57, 5174.67, 61722.46, 4911.28, 153745.98, 5011.13, 163783.00, -62226.34, 158497.17, -18993.86, 0.000, 0.000, 0.000, 17:18:15.855
29, -47285.47, -53100.57, 147816.28, 165964.80, 5435.41, 8464.40, -41435.55, 5184.33, 61722.46, 4911.28, 153745.98, 5011.13, 163783.00, -62226.34, 158497.17, -18993.86, 0.000, 0.000, 0.000, 17:18:15.855
30, -47285.47, -53100.57, 147816.28, 165964.80, 5435.41, 8464.40, -41435.55, 5184.33, 61732.59, 4917.47, 153768.73, 5039.58, 163799.19, -62229.58, 158489.20, -18988.90, 0.112, 0.934, 0.176, 17:18:15.855
31, -47309.10, -53093.97, 147837.11, 165977.20, 5458.83, 8473.08, -41447.13, 5173.98, 61732.59, 4917.47, 153768.73, 5039.58, 163799.19, -62229.58, 158489.20, -18988.90, 0.000, 0.000, 0.000, 17:18:15.855
32, -47309.10, -53093.97, 147837.11, 165977.20, 5458.83, 8473.08, -41447.13, 5173.98, 61723.18, 4938.46, 153760.73, 5029.08, 163806.45, -62215.14, 158472.44, -18988.66, 0.000, 0.000, 0.000, 17:18:15.856
33, -47321.17, -53098.78, 147836.52, 165969.23, 5460.58, 8472.23, -41458.37, 5183.21, 61723.18, 4938.46, 153760.73, 5029.08, 163806.45, -62215.14, 158472.44, -18988.66, 0.000, 0.000, 0.000, 17:18:15.856
34, -47321.17, -53098.78, 147836.52, 165969.23, 5460.58, 8472.23, -41458.37, 5183.21, 61730.66, 4903.59, 153769.11, 5032.94, 163809.69, -62247.66, 158453.75, -18998.00, 0.000, 0.000, 0.000, 17:18:15.856
35, -47384.80, -53125.80, 147840.63, 165964.25, 5466.68, 8464.16, -41456.85, 5176.44, 61730.66, 4903.59, 153769.11, 5032.94, 163809.69, -62247.66, 158453.75, -18998.00, 0.000, 0.000, 0.000, 17:18:15.857
36, -47384.80, -53125.80, 147840.63, 165964.25, 5466.68, 8464.16, -41456.85, 5176.44, 61735.16, 4920.02, 153790.61, 5053.95, 163837.88, -62281.99, 158427.03, -19014.49, 0.000, 0.000, 0.000, 17:18:15.857
37, -47396.27, -53110.83, 147839.94, 165980.55, 5461.67, 8471.91, -41471.49, 5172.84, 61735.16, 4920.02, 153790.61, 5053.95, 163837.88, -62281.99, 158427.03, -19014.49, 0.000, 0.000, 0.000, 17:18:15.857
38, -47396.27, -53110.83, 147839.94, 165980.55, 5461.67, 8471.91, -41471.49, 5172.84, 61719.71, 4892.24, 153759.25, 5017.36, 163796.78, -62302.22, 158410.83, -19013.38, 0.000, 0.000, 0.000, 17:18:15.857
39, -47457.73, -53144.78, 147841.47, 165965.20, 5475.71, 8458.93, -41475.02, 5174.97, 61719.71, 4892.24, 153759.25, 5017.36, 163796.78, -62302.22, 158410.83, -19013.38, 0.000, 0.000, 0.000, 17:18:15.858
40, -47457.73, -53144.78, 147841.47, 165965.20, 5475.71, 8458.93, -41475.02, 5174.97, 61724.27, 4884.24, 153775.06, 5029.19, 163788.92, -62356.47, 158382.98, -19036.22, 0.102, 0.934, 0.178, 17:18:15.858
41, -47473.94, -53138.52, 147843.33, 165973.28, 5476.80, 8463.11, -41463.33, 5189.31, 61724.27, 4884.24, 153775.06, 5029.19, 163788.92, -62356.47, 158382.98, -19036.22, 0.000, 0.000, 0.000, 17:18:15.859
42, -47473.94, -53138.52, 147843.33, 165973.28, 5476.80, 8463.11, -41463.33, 5189.31, 61723.07, 4902.72, 153764.08, 5011.98, 163787.28, -62348.78, 158383.98, -19023.30, 0.000, 0.000, 0.000, 17:18:15.859
43, -47494.21, -53141.27, 147832.06, 165963.59, 5476.29, 8454.97, -41483.00, 5192.82, 61723.07, 4902.72, 153764.08, 5011.98, 163787.28, -62348.78, 158383.98, -19023.30, 0.000, 0.000, 0.000, 17:18:15.859
44, -47494.21, -53141.27, 147832.06, 165963.59, 5476.29, 8454.97, -41483.00, 5192.82, 61731.54, 4894.85, 153774.45, 5018.59, 163821.23, -62390.76, 158367.88, -19039.24, 0.000, 0.000, 0.000, 17:18:15.860
45, -47542.94, -53158.84, 147842.80, 165968.20, 5488.09, 8463.24, -41481.46, 5205.52, 61731.54, 4894.85, 153774.45, 5018.59, 163821.23, -62390.76, 158367.88, -19039.24, 0.000, 0.000, 0.000, 17:18:15.860
46, -47542.94, -53158.84, 147842.80, 165968.20, 5488.09, 8463.24, -41481.46, 5205.52, 61728.07, 4896.84, 153776.33, 5015.66, 163821.14, -62392.88, 158382.16, -19035.55, 0.000, 0.000, 0.000, 17:18:15.860
47, -47536.37, -53139.80, 147862.58, 165981.66, 5504.90, 8477.06, -41448.36, 5222.08, 61728.07, 4896.84, 153776.33, 5015.66, 163821.14, -62392.88, 158382.16, -19035.55, 0.000, 0.000, 0.000, 17:18:15.860
48, -47536.37, -53139.80, 147862.58, 165981.66, 5504.90, 8477.06, -41448.36, 5222.08, 61721.86, 4884.77, 153784.78, 5016.74, 163826.19, -62401.40, 158385.59, -19044.63, 0.000, 0.000, 0.000, 17:18:15.860
49, -47583.58, -53163.67, 147869.08, 165980.55, 5504.14, 8478.33, -41461.95, 5227.31, 61721.86, 4884.77, 153784.78, 5016.74, 163826.19, -62401.40, 158385.59, -19044.63, 0.000, 0.000, 0.000, 17:18:15.860
50, -47583.58, -53163.67, 147869.08, 165980.55, 5504.14, 8478.33, -41461.95, 5227.31, 61719.11, 4871.21, 153779.48, 5019.20, 163810.31, -62435.64, 158385.38, -19060.49, 0.102, 0.926, 0.180, 17:18:15.861
51, -47592.61, -53152.63, 147872.09, 165986.70, 5501.46, 8478.98, -41482.45, 5238.56, 61719.11, 4871.21, 153779.48, 5019.20, 163810.31, -62435.64, 158385.38, -19060.49, 0.000, 0.000, 0.000, 17:18:15.861
52, -47592.61, -53152.63, 147872.09, 165986.70, 5501.46, 8478.98, -41482.45, 5238.56, 61709.83, 4880.79, 153765.64, 4999.21, 163815.03, -62425.96, 158389.39, -19058.55, 0.000, 0.000, 0.000, 17:18:15.861
53, -47584.25, -53145.52, 147863.17, 165979.06, 5484.98, 8472.99, -41462.62, 5267.55, 61709.83, 4880.79, 153765.64, 4999.21, 163815.03, -62425.96, 158389.39, -19058.55, 0.000, 0.000, 0.000, 17:18:15.861
54, -47584.25, -53145.52, 147863.17, 165979.06, 5484.98, 8472.99, -41462.62, 5267.55, 61720.61, 4848.32, 153781.27, 5013.92, 163829.94, -62449.03, 158390.27, -19060.18, 0.000, 0.000, 0.000, 17:18:15.861
55, -47640.64, -53168.56, 147871.30, 165976.84, 5491.71, 8475.20, -41468.12, 5259.01, 61720.61, 4848.32, 153781.27, 5013.92, 163829.94, -62449.03, 158390.27, -19060.18, 0.000, 0.000, 0.000, 17:18:15.861
56, -47640.64, -53168.56, 147871.30, 165976.84, 5491.71, 8475.20, -41468.12, 5259.01, 61716.83, 4884.33, 153773.20, 5016.11, 163848.81, -62458.17, 158389.81, -19063.85, 0.000, 0.000, 0.000, 17:18:15.862
57, -47611.61, -53140.18, 147866.17, 165981.86, 5473.56, 8480.61, -41478.55, 5274.77, 61716.83, 4884.33, 153773.20, 5016.11, 163848.81, -62458.17, 158389.81, -19063.85, 0.000, 0.000, 0.000, 17:18:15.862
58, -47611.61, -53140.18, 147866.17, 165981.86, 5473.56, 8480.61, -41478.55, 5274.77, 61720.00, 4881.53, 153782.81, 5029.08, 163843.69, -62454.30, 158398.72, -19060.79, 0.000, 0.000, 0.000, 17:18:15.862
59, -47636.37, -53155.08, 147869.34, 165981.17, 5466.81, 8473.23, -41481.91, 5275.86, 61720.00, 4881.53, 153782.81, 5029.08, 163843.69, -62454.30, 158398.72, -19060.79, 0.000, 0.000, 0.000, 17:18:15.863
60, -47636.37, -53155.08, 147869.34, 165981.17, 5466.81, 8473.23, -41481.91, 5275.86, 61699.21, 4856.39, 153738.05, 4977.58, 163809.06, -62455.53, 158414.20, -19052.76, 0.108, 0.924, 0.172, 17:18:15.863
61, -47565.96, -53121.60, 147839.03, 165972.69, 5428.34, 8466.33, -41489.44, 5331.58, 61699.21, 4856.39, 153738.05, 4977.58, 163809.06, -62455.53, 158414.20, -19052.76, 0.000, 0.000, 0.000, 17:18:15.863
62, -47565.96, -53121.60, 147839.03, 165972.69, 5428.34, 8466.33, -41489.44, 5331.58, 61716.61, 4878.02, 153752.70, 4993.89, 163845.70, -62392.48, 158448.52, -19003.70, 0.000, 0.000, 0.000, 17:18:15.863
63, -47541.45, -53119.01, 147848.58, 165959.16, 5444.35, 8458.55, -41502.70, 5329.48, 61716.61, 4878.02, 153752.70, 4993.89, 163845.70, -62392.48, 158448.52, -19003.70, 0.000, 0.000, 0.000, 17:18:15.864
64, -47541.45, -53119.01, 147848.58, 165959.16, 5444.35, 8458.55, -41502.70, 5329.48, 61729.14, 4862.67, 153758.50, 5005.90, 163848.31, -62397.39, 158446.33, -19000.05, 0.000, 0.000, 0.000, 17:18:15.864
65, -47565.70, -53137.96, 147856.31, 165958.02, 5463.59, 8456.54, -41493.24, 5313.99, 61729.14, 4862.67, 153758.50, 5005.90, 163848.31, -62397.39, 158446.33, -19000.05, 0.000, 0.000, 0.000, 17:18:15.864
66, -47565.70, -53137.96, 147856.31, 165958.02, 5463.59, 8456.54, -41493.24, 5313.99, 61717.10, 4871.63, 153750.83, 4990.21, 163827.55, -62385.21, 158447.16, -18994.13, 0.000, 0.000, 0.000, 17:18:15.864
67, -47516.10, -53111.90, 147845.42, 165969.05, 5455.35, 8465.97, -41459.60, 5335.99, 61717.10, 4871.63, 153750.83, 4990.21, 163827.55, -62385.21, 158447.16, -18994.13, 0.000, 0.000, 0.000, 17:18:15.864
68, -47516.10, -53111.90, 147845.42, 165969.05, 5455.35, 8465.97, -41459.60, 5335.99, 61724.74, 4859.69, 153771.03, 5009.09, 163820.98, -62377.59, 158442.91, -18982.60, 0.000, 0.000, 0.000, 17:18:15.865
69, -47570.81, -53153.36, 147859.52, 165958.17, 5475.10, 8460.47, -41474.02, 5301.10, 61724.74, 4859.69, 153771.03, 5009.09, 163820.98, -62377.59, 158442.91, -18982.60, 0.110, 0.926, 0.174, 17:18:15.865
70, -47570.81, -53153.36, 147859.52, 165958.17, 5475.10, 8460.47, -41474.02, 5301.10, 61729.97, 4857.70, 153789.03, 5023.46, 163833.91, -62426.27, 158406.98, -19012.62, 0.000, 0.000, 0.000, 17:18:15.865
71, -47575.02, -53146.16, 147862.69, 165968.25, 5467.75, 8467.82, -41468.95, 5279.73, 61729.97, 4857.70, 153789.03, 5023.46, 163833.91, -62426.27, 158406.98, -19012.62, 0.000, 0.000, 0.000, 17:18:15.865
72, -47575.02, -53146.16, 147862.69, 165968.25, 5467.75, 8467.82, -41468.95, 5279.73, 61721.66, 4886.54, 153779.06, 5024.60, 163839.42, -62415.79, 158393.06, -19013.13, 0.000, 0.000, 0.000, 17:18:15.865
73, -47568.89, -53137.76, 147868.03, 165974.14, 5469.27, 8468.56, -41454.21, 5257.91, 61721.66, 4886.54, 153779.06, 5024.60, 163839.42, -62415.79, 158393.06, -19013.13, 0.000, 0.000, 0.000, 17:18:15.865
74, -47568.89, -53137.76, 147868.03, 165974.14, 5469.27, 8468.56, -41454.21, 5257.91, 61717.90, 4865.26, 153782.19, 5022.53, 163846.91, -62442.68, 158372.77, -19026.83, 0.000, 0.000, 0.000, 17:18:15.866
75, -47583.82, -53144.36, 147857.91, 165970.86, 5460.31, 8470.15, -41452.02, 5246.27, 61717.90, 4865.26, 153782.19, 5022.53, 163846.91, -62442.68, 158372.77, -19026.83, 0.000, 0.000, 0.000, 17:18:15.866
