%OpenBCI Raw EEG Data
%
%Sample Rate = 250.0 Hz
%First Column = SampleIndex
%Last Column = Timestamp 
%Other Columns = EEG data in microvolts followed by Accel Data (in G) interleaved with Aux Data
0, 0.00, 0.00, 0.00, 0.00, 0.00, 0.00, 0.00, 0.00, 27158.64, -477.57, 73823.16, -3196.88, -1920.53, -8364.78, 44029.83, -10511.62, -0.010, 0.896, 0.162, 16:54:01.433
1, -32540.09, -31503.02, 60234.51, 59271.88, -14860.60, -33806.18, -39424.74, 68882.69, 27158.64, -477.57, 73823.16, -3196.88, -1920.53, -8364.78, 44029.83, -10511.62, 0.000, 0.000, 0.000, 16:54:01.449
2, -32540.09, -31503.02, 60234.51, 59271.88, -14860.60, -33806.18, -39424.74, 68882.69, 73572.38, 16027.25, 170372.59, 2629.77, 8381.99, -2042.64, 131186.78, -3556.21, 0.000, 0.000, 0.000, 16:54:01.928
3, -64968.47, -62973.54, 120470.00, 118546.97, -29625.89, -67609.55, -78821.39, 137780.47, 73572.38, 16027.25, 170372.59, 2629.77, 8381.99, -2042.64, 131186.78, -3556.21, 0.000, 0.000, 0.000, 16:54:01.929
4, -64968.47, -62973.54, 120470.00, 118546.97, -29625.89, -67609.55, -78821.39, 137780.47, 73572.66, 16063.10, 170380.13, 2654.92, 8388.61, -2039.51, 131505.25, -3528.58, 0.000, 0.000, 0.000, 16:54:01.930
5, -64757.36, -62904.85, 120463.96, 118535.03, -29447.73, -67617.84, -78792.67, 137777.59, 73572.66, 16063.10, 170380.13, 2654.92, 8388.61, -2039.51, 131505.25, -3528.58, 0.000, 0.000, 0.000, 16:54:01.931
6, -64757.36, -62904.85, 120463.96, 118535.03, -29447.73, -67617.84, -78792.67, 137777.59, 73556.80, 16082.88, 170368.08, 2652.50, 8375.42, -2069.79, 131914.97, -3520.00, 0.000, 0.000, 0.000, 16:54:01.932
7, -64527.14, -62837.99, 120456.72, 118522.67, -29273.10, -67625.47, -78792.67, 137779.81, 73556.80, 16082.88, 170368.08, 2652.50, 8375.42, -2069.79, 131914.97, -3520.00, 0.000, 0.000, 0.000, 16:54:01.933
8, -64527.14, -62837.99, 120456.72, 118522.67, -29273.10, -67625.47, -78792.67, 137779.81, 73531.11, 16090.91, 170342.14, 2644.39, 8345.72, -2110.36, 132396.86, -3501.60, 0.076, 0.932, -0.096, 16:54:01.933
9, -64199.97, -62741.30, 120448.00, 118496.14, -28999.78, -67650.91, -78750.83, 137768.55, 73531.11, 16090.91, 170342.14, 2644.39, 8345.72, -2110.36, 132396.86, -3501.60, 0.000, 0.000, 0.000, 16:54:01.934
10, -64199.97, -62741.30, 120448.00, 118496.14, -28999.78, -67650.91, -78750.83, 137768.55, 73536.19, 16141.71, 170348.86, 2663.70, 8346.03, -2126.90, 133043.44, -3464.50, 0.000, 0.000, 0.000, 16:54:01.934
11, -63912.75, -62675.83, 120436.02, 118476.89, -28770.36, -67680.16, -78759.07, 137752.88, 73536.19, 16141.71, 170348.86, 2663.70, 8346.03, -2126.90, 133043.44, -3464.50, 0.000, 0.000, 0.000, 16:54:01.935
12, -63912.75, -62675.83, 120436.02, 118476.89, -28770.36, -67680.16, -78759.07, 137752.88, 73535.36, 16123.01, 170351.20, 2662.45, 8337.85, -2145.88, 133567.05, -3468.99, 0.000, 0.000, 0.000, 16:54:01.935
13, -63709.02, -62629.03, 120438.77, 118482.57, -28628.70, -67686.42, -78729.14, 137751.47, 73535.36, 16123.01, 170351.20, 2662.45, 8337.85, -2145.88, 133567.05, -3468.99, 0.000, 0.000, 0.000, 16:54:01.936
14, -63709.02, -62629.03, 120438.77, 118482.57, -28628.70, -67686.42, -78729.14, 137751.47, 73545.87, 16106.35, 170366.67, 2679.17, 8352.51, -2140.76, 134069.58, -3440.38, 0.000, 0.000, 0.000, 16:54:01.937
15, -63697.38, -62668.16, 120424.49, 118483.35, -28652.16, -67688.45, -78763.95, 137736.88, 73545.87, 16106.35, 170366.67, 2679.17, 8352.51, -2140.76, 134069.58, -3440.38, 0.000, 0.000, 0.000, 16:54:01.937
16, -63697.38, -62668.16, 120424.49, 118483.35, -28652.16, -67688.45, -78763.95, 137736.88, 73576.89, 16019.83, 170377.64, 2651.65, 8359.40, -2125.67, 134162.11, -3482.16, 0.000, 0.000, 0.000, 16:54:01.938
17, -63922.57, -62771.70, 120429.23, 118494.33, -28859.59, -67678.76, -78811.94, 137728.77, 73576.89, 16019.83, 170377.64, 2651.65, 8359.40, -2125.67, 134162.11, -3482.16, 0.072, 0.934, -0.098, 16:54:01.941
18, -63922.57, -62771.70, 120429.23, 118494.33, -28859.59, -67678.76, -78811.94, 137728.77, 73617.84, 15967.21, 170413.72, 2643.29, 8399.23, -2084.37, 133976.59, -3530.95, 0.000, 0.000, 0.000, 16:54:01.942
19, -64364.66, -62940.77, 120446.39, 118520.01, -29258.52, -67663.58, -78896.70, 137730.55, 73617.84, 15967.21, 170413.72, 2643.29, 8399.23, -2084.37, 133976.59, -3530.95, 0.000, 0.000, 0.000, 16:54:01.943
20, -64364.66, -62940.77, 120446.39, 118520.01, -29258.52, -67663.58, -78896.70, 137730.55, 73634.06, 15858.07, 170432.63, 2612.43, 8414.96, -2055.18, 133358.75, -3602.16, 0.000, 0.000, 0.000, 16:54:01.944
21, -64812.12, -63064.71, 120462.40, 118544.17, -29622.90, -67636.33, -78929.15, 137750.47, 73634.06, 15858.07, 170432.63, 2612.43, 8414.96, -2055.18, 133358.75, -3602.16, 0.000, 0.000, 0.000, 16:54:01.945
22, -64812.12, -63064.71, 120462.40, 118544.17, -29622.90, -67636.33, -78929.15, 137750.47, 73613.45, 15832.59, 170425.16, 2600.69, 8408.26, -2073.55, 132849.94, -3605.49, 0.000, 0.000, 0.000, 16:54:01.945
23, -65052.65, -63107.04, 120465.68, 118548.28, -29790.98, -67644.69, -78930.47, 137750.52, 73613.45, 15832.59, 170425.16, 2600.69, 8408.26, -2073.55, 132849.94, -3605.49, 0.000, 0.000, 0.000, 16:54:01.946
24, -65052.65, -63107.04, 120465.68, 118548.28, -29790.98, -67644.69, -78930.47, 137750.52, 73617.23, 15779.03, 170428.63, 2588.67, 8404.68, -2072.50, 132381.67, -3637.57, 0.000, 0.000, 0.000, 16:54:01.947
25, -65252.56, -63142.38, 120473.20, 118549.45, -29928.38, -67628.24, -78949.04, 137752.61, 73617.23, 15779.03, 170428.63, 2588.67, 8404.68, -2072.50, 132381.67, -3637.57, 0.000, 0.000, 0.000, 16:54:01.966
26, -65252.56, -63142.38, 120473.20, 118549.45, -29928.38, -67628.24, -78949.04, 137752.61, 73589.41, 15812.65, 170415.45, 2603.53, 8392.43, -2108.06, 132195.56, -3611.80, 0.000, 0.000, 0.000, 16:54:01.966
27, -65191.23, -63094.12, 120467.16, 118541.94, -29837.97, -67630.37, -78897.21, 137760.25, 73589.41, 15812.65, 170415.45, 2603.53, 8392.43, -2108.06, 132195.56, -3611.80, 0.068, 0.926, -0.096, 16:54:01.967
28, -65191.23, -63094.12, 120467.16, 118541.94, -29837.97, -67630.37, -78897.21, 137760.25, 73631.52, 15743.38, 170431.83, 2570.54, 8406.07, -2074.35, 131957.61, -3648.59, 0.000, 0.000, 0.000, 16:54:01.967
29, -65608.91, -63260.20, 120465.82, 118563.57, -30189.43, -67603.74, -79002.80, 137755.83, 73631.52, 15743.38, 170431.83, 2570.54, 8406.07, -2074.35, 131957.61, -3648.59, 0.000, 0.000, 0.000, 16:54:01.967
30, -65608.91, -63260.20, 120465.82, 118563.57, -30189.43, -67603.74, -79002.80, 137755.83, 73622.62, 15712.34, 170431.94, 2571.66, 8415.63, -2063.87, 131418.95, -3662.96, 0.000, 0.000, 0.000, 16:54:01.968
31, -65650.83, -63223.83, 120468.79, 118559.64, -30193.14, -67606.98, -78957.84, 137762.22, 73622.62, 15712.34, 170431.94, 2571.66, 8415.63, -2063.87, 131418.95, -3662.96, 0.000, 0.000, 0.000, 16:54:01.968
32, -65650.83, -63223.83, 120468.79, 118559.64, -30193.14, -67606.98, -78957.84, 137762.22, 73587.44, 15742.51, 170398.77, 2571.70, 8386.35, -2112.57, 131380.95, -3635.69, 0.000, 0.000, 0.000, 16:54:01.969
33, -65526.77, -63162.59, 120466.78, 118550.05, -30064.21, -67618.34, -78940.28, 137755.67, 73587.44, 15742.51, 170398.77, 2571.70, 8386.35, -2112.57, 131380.95, -3635.69, 0.000, 0.000, 0.000, 16:54:01.969
34, -65526.77, -63162.59, 120466.78, 118550.05, -30064.21, -67618.34, -78940.28, 137755.67, 73629.98, 15709.16, 170423.91, 2563.52, 8412.03, -2087.79, 131314.61, -3660.79, 0.000, 0.000, 0.000, 16:54:01.970
35, -65752.46, -63263.82, 120470.34, 118560.73, -30250.87, -67625.09, -78997.84, 137753.84, 73629.98, 15709.16, 170423.91, 2563.52, 8412.03, -2087.79, 131314.61, -3660.79, 0.000, 0.000, 0.000, 16:54:01.970
36, -65752.46, -63263.82, 120470.34, 118560.73, -30250.87, -67625.09, -78997.84, 137753.84, 73620.92, 15693.74, 170426.84, 2569.47, 8416.93, -2097.67, 131040.98, -3662.40, 0.000, 0.000, 0.000, 16:54:01.970
37, -65734.18, -63226.96, 120479.99, 118560.98, -30217.68, -67619.68, -78957.83, 137769.48, 73620.92, 15693.74, 170426.84, 2569.47, 8416.93, -2097.67, 131040.98, -3662.40, 0.060, 0.930, -0.098, 16:54:01.971
38, -65734.18, -63226.96, 120479.99, 118560.98, -30217.68, -67619.68, -78957.83, 137769.48, 73593.14, 15688.96, 170396.63, 2558.96, 8388.56, -2145.03, 131062.91, -3654.09, 0.000, 0.000, 0.000, 16:54:01.971
39, -65681.45, -63207.85, 120464.95, 118545.67, -30157.60, -67638.19, -78972.09, 137758.88, 73593.14, 15688.96, 170396.63, 2558.96, 8388.56, -2145.03, 131062.91, -3654.09, 0.000, 0.000, 0.000, 16:54:01.971
40, -65681.45, -63207.85, 120464.95, 118545.67, -30157.60, -67638.19, -78972.09, 137758.88, 73616.97, 15675.08, 170406.55, 2554.94, 8399.34, -2141.68, 131020.49, -3690.25, 0.000, 0.000, 0.000, 16:54:01.972
41, -65774.48, -63250.50, 120464.43, 118548.09, -30236.54, -67643.75, -79008.43, 137751.11, 73616.97, 15675.08, 170406.55, 2554.94, 8399.34, -2141.68, 131020.49, -3690.25, 0.000, 0.000, 0.000, 16:54:01.975
42, -65774.48, -63250.50, 120464.43, 118548.09, -30236.54, -67643.75, -79008.43, 137751.11, 73627.91, 15642.22, 170408.59, 2543.09, 8405.06, -2141.01, 130843.95, -3717.01, 0.000, 0.000, 0.000, 16:54:01.975
43, -65977.43, -63333.18, 120460.86, 118549.11, -30398.13, -67642.34, -79033.20, 137732.39, 73627.91, 15642.22, 170408.59, 2543.09, 8405.06, -2141.01, 130843.95, -3717.01, 0.000, 0.000, 0.000, 16:54:01.979
44, -65977.43, -63333.18, 120460.86, 118549.11, -30398.13, -67642.34, -79033.20, 137732.39, 73629.23, 15603.15, 170408.48, 2538.00, 8406.09, -2154.31, 130542.32, -3751.56, 0.000, 0.000, 0.000, 16:54:01.979
45, -66100.88, -63348.04, 120477.84, 118569.83, -30482.06, -67616.26, -79003.87, 137779.03, 73629.23, 15603.15, 170408.48, 2538.00, 8406.09, -2154.31, 130542.32, -3751.56, 0.000, 0.000, 0.000, 16:54:01.980
46, -66100.88, -63348.04, 120477.84, 118569.83, -30482.06, -67616.26, -79003.87, 137779.03, 73611.84, 15594.72, 170399.25, 2531.83, 8398.15, -2179.23, 130347.68, -3733.43, 0.000, 0.000, 0.000, 16:54:01.980
47, -66157.63, -63346.88, 120484.93, 118580.63, -30521.19, -67614.98, -78981.36, 137776.66, 73611.84, 15594.72, 170399.25, 2531.83, 8398.15, -2179.23, 130347.68, -3733.43, 0.056, 0.936, -0.096, 16:54:01.981
48, -66157.63, -63346.88, 120484.93, 118580.63, -30521.19, -67614.98, -78981.36, 137776.66, 73612.61, 15593.29, 170410.41, 2537.08, 8409.89, -2176.99, 130196.76, -3722.86, 0.000, 0.000, 0.000, 16:54:01.981
49, -66186.73, -63343.28, 120493.98, 118584.05, -30537.85, -67608.48, -78945.87, 137774.09, 73612.61, 15593.29, 170410.41, 2537.08, 8409.89, -2176.99, 130196.76, -3722.86, 0.000, 0.000, 0.000, 16:54:01.982
50, -66186.73, -63343.28, 120493.98, 118584.05, -30537.85, -67608.48, -78945.87, 137774.09, 73595.35, 15579.70, 170394.63, 2524.36, 8389.66, -2214.12, 130097.95, -3735.20, 0.000, 0.000, 0.000, 16:54:01.982
51, -66162.79, -63324.21, 120484.33, 118571.75, -30511.20, -67618.25, -78958.63, 137771.13, 73595.35, 15579.70, 170394.63, 2524.36, 8389.66, -2214.12, 130097.95, -3735.20, 0.000, 0.000, 0.000, 16:54:01.982
52, -66162.79, -63324.21, 120484.33, 118571.75, -30511.20, -67618.25, -78958.63, 137771.13, 73594.26, 15575.86, 170389.58, 2514.75, 8389.32, -2233.95, 130084.38, -3741.15, 0.000, 0.000, 0.000, 16:54:01.983
53, -66115.88, -63305.86, 120484.59, 118570.34, -30466.83, -67615.84, -78969.67, 137773.84, 73594.26, 15575.86, 170389.58, 2514.75, 8389.32, -2233.95, 130084.38, -3741.15, 0.000, 0.000, 0.000, 16:54:01.983
54, -66115.88, -63305.86, 120484.59, 118570.34, -30466.83, -67615.84, -78969.67, 137773.84, 73592.71, 15580.71, 170391.34, 2511.17, 8389.82, -2244.83, 130102.75, -3737.86, 0.000, 0.000, 0.000, 16:54:01.984
55, -66105.39, -63307.04, 120483.19, 118564.55, -30447.28, -67631.03, -78969.74, 137775.03, 73592.71, 15580.71, 170391.34, 2511.17, 8389.82, -2244.83, 130102.75, -3737.86, 0.000, 0.000, 0.000, 16:54:01.984
56, -66105.39, -63307.04, 120483.19, 118564.55, -30447.28, -67631.03, -78969.74, 137775.03, 73585.31, 15569.49, 170380.66, 2492.26, 8378.06, -2272.50, 130106.39, -3749.53, 0.000, 0.000, 0.000, 16:54:01.987
57, -66077.70, -63288.34, 120480.99, 118561.94, -30417.19, -67639.80, -78954.12, 137774.52, 73585.31, 15569.49, 170380.66, 2492.26, 8378.06, -2272.50, 130106.39, -3749.53, 0.056, 0.940, -0.106, 16:54:01.988
58, -66077.70, -63288.34, 120480.99, 118561.94, -30417.19, -67639.80, -78954.12, 137774.52, 73588.84, 15589.76, 170384.89, 2495.04, 8378.44, -2281.29, 130163.26, -3743.38, 0.000, 0.000, 0.000, 16:54:01.988
59, -66044.04, -63282.75, 120476.91, 118563.57, -30392.61, -67637.13, -78966.01, 137766.83, 73588.84, 15589.76, 170384.89, 2495.04, 8378.44, -2281.29, 130163.26, -3743.38, 0.000, 0.000, 0.000, 16:54:01.988
60, -66044.04, -63282.75, 120476.91, 118563.57, -30392.61, -67637.13, -78966.01, 137766.83, 73595.66, 15578.85, 170390.16, 2484.06, 8383.47, -2291.81, 130174.90, -3751.11, 0.000, 0.000, 0.000, 16:54:01.989
61, -66079.40, -63311.29, 120481.28, 118569.02, -30423.38, -67642.84, -78969.36, 137753.69, 73595.66, 15578.85, 170390.16, 2484.06, 8383.47, -2291.81, 130174.90, -3751.11, 0.000, 0.000, 0.000, 16:54:01.989
62, -66079.40, -63311.29, 120481.28, 118569.02, -30423.38, -67642.84, -78969.36, 137753.69, 73586.43, 15554.51, 170375.66, 2461.04, 8371.93, -2312.42, 130132.81, -3769.64, 0.000, 0.000, 0.000, 16:54:01.990
63, -66084.47, -63306.13, 120485.98, 118578.10, -30420.07, -67635.77, -78958.34, 137781.48, 73586.43, 15554.51, 170375.66, 2461.04, 8371.93, -2312.42, 130132.81, -3769.64, 0.000, 0.000, 0.000, 16:54:01.990
64, -66084.47, -63306.13, 120485.98, 118578.10, -30420.07, -67635.77, -78958.34, 137781.48, 73585.18, 15557.28, 170382.22, 2443.90, 8371.09, -2316.02, 130116.79, -3758.54, 0.000, 0.000, 0.000, 16:54:01.991
65, -66096.54, -63310.62, 120482.23, 118584.63, -30424.32, -67629.36, -78991.64, 137781.80, 73585.18, 15557.28, 170382.22, 2443.90, 8371.09, -2316.02, 130116.79, -3758.54, 0.000, 0.000, 0.000, 16:54:01.991
66, -66096.54, -63310.62, 120482.23, 118584.63, -30424.32, -67629.36, -78991.64, 137781.80, 73592.98, 15553.48, 170382.42, 2431.04, 8376.61, -2310.05, 130083.39, -3755.79, 0.000, 0.000, 0.000, 16:54:01.992
67, -66126.00, -63318.67, 120482.29, 118587.71, -30457.00, -67630.12, -78969.09, 137782.08, 73592.98, 15553.48, 170382.42, 2431.04, 8376.61, -2310.05, 130083.39, -3755.79, 0.046, 0.946, -0.108, 16:54:01.992
68, -66126.00, -63318.67, 120482.29, 118587.71, -30457.00, -67630.12, -78969.09, 137782.08, 73584.22, 15539.98, 170375.58, 2408.49, 8365.52, -2326.19, 130044.03, -3760.84, 0.000, 0.000, 0.000, 16:54:01.993
69, -66128.10, -63313.88, 120488.77, 118596.12, -30462.65, -67615.39, -78937.35, 137796.63, 73584.22, 15539.98, 170375.58, 2408.49, 8365.52, -2326.19, 130044.03, -3760.84, 0.000, 0.000, 0.000, 16:54:01.994
70, -66128.10, -63313.88, 120488.77, 118596.12, -30462.65, -67615.39, -78937.35, 137796.63, 73575.68, 15524.67, 170376.92, 2384.77, 8363.98, -2325.32, 130014.51, -3751.25, 0.000, 0.000, 0.000, 16:54:01.994
71, -66143.13, -63323.20, 120485.64, 118596.56, -30479.55, -67621.02, -78942.56, 137787.17, 73575.68, 15524.67, 170376.92, 2384.77, 8363.98, -2325.32, 130014.51, -3751.25, 0.000, 0.000, 0.000, 16:54:01.994
72, -66143.13, -63323.20, 120485.64, 118596.56, -30479.55, -67621.02, -78942.56, 137787.17, 73573.47, 15507.97, 170364.45, 2349.12, 8353.94, -2344.85, 129974.63, -3767.14, 0.000, 0.000, 0.000, 16:54:01.995
73, -66172.27, -63337.04, 120482.13, 118583.73, -30497.75, -67633.07, -78964.59, 137776.08, 73573.47, 15507.97, 170364.45, 2349.12, 8353.94, -2344.85, 129974.63, -3767.14, 0.000, 0.000, 0.000, 16:54:01.995
74, -66172.27, -63337.04, 120482.13, 118583.73, -30497.75, -67633.07, -78964.59, 137776.08, 73573.24, 15497.51, 170359.25, 2311.97, 8353.85, -2354.94, 129924.74, -3789.13, 0.000, 0.000, 0.000, 16:54:01.996
75, -66219.90, -63352.08, 120490.94, 118580.74, -30535.70, -67637.34, -78961.27, 137774.45, 73573.24, 15497.51, 170359.25, 2311.97, 8353.85, -2354.94, 129924.74, -3789.13, 0.000, 0.000, 0.000, 16:54:01.996
76, -66219.90, -63352.08, 120490.94, 118580.74, -30535.70, -67637.34, -78961.27, 137774.45, 73574.50, 15486.58, 170369.61, 2294.79, 8359.95, -2355.49, 129840.45, -3793.85, 0.000, 0.000, 0.000, 16:54:01.998
77, -66262.21, -63361.25, 120494.00, 118579.46, -30582.95, -67642.08, -78977.52, 137776.91, 73574.50, 15486.58, 170369.61, 2294.79, 8359.95, -2355.49, 129840.45, -3793.85, 0.042, 0.940, -0.116, 16:54:01.998
78, -66262.21, -63361.25, 120494.00, 118579.46, -30582.95, -67642.08, -78977.52, 137776.91, 73571.81, 15475.57, 170374.09, 2274.02, 8360.31, -2365.71, 129722.95, -3807.08, 0.000, 0.000, 0.000, 16:54:01.999
79, -66330.05, -63377.03, 120491.59, 118578.13, -30651.84, -67640.94, -78990.34, 137775.61, 73571.81, 15475.57, 170374.09, 2274.02, 8360.31, -2365.71, 129722.95, -3807.08, 0.000, 0.000, 0.000, 16:54:01.999
80, -66330.05, -63377.03, 120491.59, 118578.13, -30651.84, -67640.94, -78990.34, 137775.61, 73575.23, 15464.68, 170372.64, 2259.18, 8361.43, -2364.90, 129573.20, -3817.86, 0.000, 0.000, 0.000, 16:54:02.000
81, -66415.03, -63397.57, 120487.01, 118578.23, -30733.94, -67636.87, -79007.78, 137768.97, 73575.23, 15464.68, 170372.64, 2259.18, 8361.43, -2364.90, 129573.20, -3817.86, 0.000, 0.000, 0.000, 16:54:02.000
82, -66415.03, -63397.57, 120487.01, 118578.23, -30733.94, -67636.87, -79007.78, 137768.97, 73574.20, 15433.75, 170356.78, 2228.47, 8358.77, -2368.55, 129396.81, -3844.03, 0.000, 0.000, 0.000, 16:54:02.000
83, -66528.76, -63438.85, 120485.24, 118573.70, -30827.39, -67638.88, -79027.52, 137761.86, 73574.20, 15433.75, 170356.78, 2228.47, 8358.77, -2368.55, 129396.81, -3844.03, 0.000, 0.000, 0.000, 16:54:02.001
84, -66528.76, -63438.85, 120485.24, 118573.70, -30827.39, -67638.88, -79027.52, 137761.86, 73576.71, 15427.29, 170358.44, 2224.58, 8363.06, -2367.94, 129212.79, -3841.44, 0.000, 0.000, 0.000, 16:54:02.001
85, -66472.50, -63387.82, 120485.80, 118568.84, -30776.09, -67636.58, -78984.55, 137776.02, 73576.71, 15427.29, 170358.44, 2224.58, 8363.06, -2367.94, 129212.79, -3841.44, 0.000, 0.000, 0.000, 16:54:02.002
86, -66472.50, -63387.82, 120485.80, 118568.84, -30776.09, -67636.58, -78984.55, 137776.02, 73533.70, 15480.35, 170318.05, 2220.42, 8322.96, -2421.25, 129373.84, -3797.85, 0.000, 0.000, 0.000, 16:54:02.002
87, -66269.05, -63320.61, 120470.06, 118555.34, -30601.39, -67657.99, -78971.99, 137768.95, 73533.70, 15480.35, 170318.05, 2220.42, 8322.96, -2421.25, 129373.84, -3797.85, 0.036, 0.936, -0.118, 16:54:02.003
88, -66269.05, -63320.61, 120470.06, 118555.34, -30601.39, -67657.99, -78971.99, 137768.95, 73575.01, 15471.32, 170345.39, 2213.36, 8345.96, -2384.13, 129493.66, -3801.70, 0.000, 0.000, 0.000, 16:54:02.004
89, -66338.19, -63367.13, 120470.91, 118563.33, -30672.98, -67649.74, -79005.91, 137777.53, 73575.01, 15471.32, 170345.39, 2213.36, 8345.96, -2384.13, 129493.66, -3801.70, 0.000, 0.000, 0.000, 16:54:02.004
90, -66338.19, -63367.13, 120470.91, 118563.33, -30672.98, -67649.74, -79005.91, 137777.53, 73577.60, 15450.64, 170341.03, 2198.65, 8350.77, -2372.55, 129405.33, -3813.19, 0.000, 0.000, 0.000, 16:54:02.005
91, -66418.88, -63403.52, 120464.14, 118556.42, -30744.89, -67645.59, -79031.30, 137770.63, 73577.60, 15450.64, 170341.03, 2198.65, 8350.77, -2372.55, 129405.33, -3813.19, 0.000, 0.000, 0.000, 16:54:02.005
92, -66418.88, -63403.52, 120464.14, 118556.42, -30744.89, -67645.59, -79031.30, 137770.63, 73561.65, 15420.29, 170321.16, 2174.36, 8333.96, -2395.12, 129299.14, -3827.65, 0.000, 0.000, 0.000, 16:54:02.006
93, -66451.80, -63406.27, 120472.99, 118552.35, -30760.02, -67644.55, -78979.15, 137776.11, 73561.65, 15420.29, 170321.16, 2174.36, 8333.96, -2395.12, 129299.14, -3827.65, 0.000, 0.000, 0.000, 16:54:02.006
94, -66451.80, -63406.27, 120472.99, 118552.35, -30760.02, -67644.55, -78979.15, 137776.11, 73550.47, 15401.42, 170311.92, 2168.05, 8334.16, -2401.31, 129245.98, -3820.32, 0.000, 0.000, 0.000, 16:54:02.006
95, -66451.17, -63400.43, 120480.19, 118556.27, -30759.64, -67638.90, -78979.04, 137778.27, 73550.47, 15401.42, 170311.92, 2168.05, 8334.16, -2401.31, 129245.98, -3820.32, 0.000, 0.000, 0.000, 16:54:02.007
96, -66451.17, -63400.43, 120480.19, 118556.27, -30759.64, -67638.90, -78979.04, 137778.27, 73542.45, 15403.64, 170305.77, 2172.14, 8331.63, -2412.24, 129229.94, -3816.31, 0.000, 0.000, 0.000, 16:54:02.007
97, -66385.15, -63365.72, 120472.70, 118541.84, -30697.93, -67647.17, -78990.10, 137774.42, 73542.45, 15403.64, 170305.77, 2172.14, 8331.63, -2412.24, 129229.94, -3816.31, 0.030, 0.926, -0.124, 16:54:02.008
98, -66385.15, -63365.72, 120472.70, 118541.84, -30697.93, -67647.17, -78990.10, 137774.42, 73528.84, 15426.73, 170296.91, 2176.95, 8328.71, -2432.36, 129344.60, -3811.75, 0.000, 0.000, 0.000, 16:54:02.008
99, -66214.72, -63298.30, 120464.66, 118529.42, -30551.77, -67662.59, -78951.81, 137765.67, 73528.84, 15426.73, 170296.91, 2176.95, 8328.71, -2432.36, 129344.60, -3811.75, 0.000, 0.000, 0.000, 16:54:02.009
100, -66214.72, -63298.30, 120464.66, 118529.42, -30551.77, -67662.59, -78951.81, 137765.67, 73517.26, 15447.89, 170283.11, 2174.96, 8318.45, -2447.49, 129600.62, -3795.55, 0.000, 0.000, 0.000, 16:54:02.010
101, -66054.09, -63251.61, 120459.07, 118525.73, -30421.48, -67669.77, -78940.46, 137769.11, 73517.26, 15447.89, 170283.11, 2174.96, 8318.45, -2447.49, 129600.62, -3795.55, 0.000, 0.000, 0.000, 16:54:02.010
102, -66054.09, -63251.61, 120459.07, 118525.73, -30421.48, -67669.77, -78940.46, 137769.11, 73512.09, 15455.43, 170283.61, 2179.03, 8318.96, -2452.93, 129852.55, -3780.13, 0.000, 0.000, 0.000, 16:54:02.010
103, -65869.43, -63188.80, 120460.95, 118522.00, -30261.58, -67680.74, -78911.80, 137776.42, 73512.09, 15455.43, 170283.61, 2179.03, 8318.96, -2452.93, 129852.55, -3780.13, 0.000, 0.000, 0.000, 16:54:02.011
104, -65869.43, -63188.80, 120460.95, 118522.00, -30261.58, -67680.74, -78911.80, 137776.42, 73489.70, 15502.90, 170267.81, 2195.30, 8301.68, -2478.63, 130265.34, -3745.03, 0.000, 0.000, 0.000, 16:54:02.011
105, -65556.66, -63090.05, 120457.97, 118512.63, -29994.05, -67693.77, -78881.20, 137776.95, 73489.70, 15502.90, 170267.81, 2195.30, 8301.68, -2478.63, 130265.34, -3745.03, 0.000, 0.000, 0.000, 16:54:02.011
106, -65556.66, -63090.05, 120457.97, 118512.63, -29994.05, -67693.77, -78881.20, 137776.95, 73477.11, 15531.33, 170254.94, 2197.78, 8285.93, -2508.42, 130794.16, -3731.42, 0.020, 0.944, -0.142, 16:54:02.012
107, -65306.16, -63022.91, 120456.52, 118502.30, -29785.04, -67723.28, -78876.80, 137754.95, 73477.11, 15531.33, 170254.94, 2197.78, 8285.93, -2508.42, 130794.16, -3731.42, 0.000, 0.000, 0.000, 16:54:02.012
108, -65306.16, -63022.91, 120456.52, 118502.30, -29785.04, -67723.28, -78876.80, 137754.95, 73475.01, 15547.22, 170257.81, 2199.75, 8279.04, -2517.57, 131256.50, -3734.89, 0.000, 0.000, 0.000, 16:54:02.013
109, -65112.89, -62981.98, 120463.05, 118501.66, -29638.77, -67721.05, -78854.88, 137776.30, 73475.01, 15547.22, 170257.81, 2199.75, 8279.04, -2517.57, 131256.50, -3734.89, 0.000, 0.000, 0.000, 16:54:02.013
110, -65112.89, -62981.98, 120463.05, 118501.66, -29638.77, -67721.05, -78854.88, 137776.30, 73461.82, 15560.32, 170253.59, 2196.75, 8270.57, -2525.26, 131681.30, -3704.73, 0.000, 0.000, 0.000, 16:54:02.014
111, -64950.59, -62944.59, 120467.25, 118507.20, -29513.42, -67705.02, -78834.58, 137781.89, 73461.82, 15560.32, 170253.59, 2196.75, 8270.57, -2525.26, 131681.30, -3704.73, 0.000, 0.000, 0.000, 16:54:02.014
112, -64950.59, -62944.59, 120467.25, 118507.20, -29513.42, -67705.02, -78834.58, 137781.89, 73463.63, 15582.90, 170262.22, 2203.66, 8278.15, -2522.55, 132061.92, -3691.01, 0.000, 0.000, 0.000, 16:54:02.015
113, -64829.58, -62919.53, 120461.34, 118505.62, -29422.38, -67716.95, -78821.99, 137785.53, 73463.63, 15582.90, 170262.22, 2203.66, 8278.15, -2522.55, 132061.92, -3691.01, 0.000, 0.000, 0.000, 16:54:02.015
114, -64829.58, -62919.53, 120461.34, 118505.62, -29422.38, -67716.95, -78821.99, 137785.53, 73465.22, 15588.60, 170264.45, 2197.20, 8277.34, -2529.30, 132364.02, -3694.45, 0.000, 0.000, 0.000, 16:54:02.016
115, -64751.14, -62909.00, 120464.23, 118498.98, -29381.08, -67722.38, -78823.65, 137769.02, 73465.22, 15588.60, 170264.45, 2197.20, 8277.34, -2529.30, 132364.02, -3694.45, 0.000, 0.000, 0.000, 16:54:02.016
116, -64751.14, -62909.00, 120464.23, 118498.98, -29381.08, -67722.38, -78823.65, 137769.02, 73446.47, 15582.41, 170254.13, 2180.41, 8269.30, -2557.98, 132596.13, -3706.46, 0.006, 0.956, -0.142, 16:54:02.017
117, -64660.18, -62884.42, 120470.60, 118487.35, -29316.10, -67735.08, -78781.07, 137758.09, 73446.47, 15582.41, 170254.13, 2180.41, 8269.30, -2557.98, 132596.13, -3706.46, 0.000, 0.000, 0.000, 16:54:02.018
118, -64660.18, -62884.42, 120470.60, 118487.35, -29316.10, -67735.08, -78781.07, 137758.09, 73431.31, 15595.73, 170241.08, 2178.24, 8256.53, -2580.06, 132857.25, -3697.89, 0.000, 0.000, 0.000, 16:54:02.018
119, -64490.52, -62827.96, 120461.02, 118464.20, -29180.04, -67759.63, -78779.41, 137733.08, 73431.31, 15595.73, 170241.08, 2178.24, 8256.53, -2580.06, 132857.25, -3697.89, 0.000, 0.000, 0.000, 16:54:02.019
120, -64490.52, -62827.96, 120461.02, 118464.20, -29180.04, -67759.63, -78779.41, 137733.08, 73422.23, 15628.16, 170235.06, 2183.50, 8250.81, -2604.11, 133275.89, -3678.56, 0.000, 0.000, 0.000, 16:54:02.019
121, -64209.41, -62729.32, 120466.47, 118457.71, -28940.93, -67756.27, -78742.40, 137763.83, 73422.23, 15628.16, 170235.06, 2183.50, 8250.81, -2604.11, 133275.89, -3678.56, 0.000, 0.000, 0.000, 16:54:02.020
122, -64209.41, -62729.32, 120466.47, 118457.71, -28940.93, -67756.27, -78742.40, 137763.83, 73408.16, 15686.54, 170236.06, 2202.07, 8254.39, -2609.97, 133866.88, -3602.83, 0.000, 0.000, 0.000, 16:54:02.409
123, -63864.25, -62625.94, 120461.55, 118446.52, -28649.62, -67772.21, -78701.05, 137765.55, 73408.16, 15686.54, 170236.06, 2202.07, 8254.39, -2609.97, 133866.88, -3602.83, 0.000, 0.000, 0.000, 16:54:02.410
124, -63864.25, -62625.94, 120461.55, 118446.52, -28649.62, -67772.21, -78701.05, 137765.55, 73392.11, 15699.48, 170218.98, 2192.59, 8228.17, -2648.46, 134473.59, -3600.66, 0.000, 0.000, 0.000, 16:54:02.410
125, -63674.13, -62607.43, 120449.12, 118435.38, -28501.24, -67791.34, -78682.90, 137750.53, 73392.11, 15699.48, 170218.98, 2192.59, 8228.17, -2648.46, 134473.59, -3600.66, 0.000, 0.000, 0.000, 16:54:02.410
126, -63674.13, -62607.43, 120449.12, 118435.38, -28501.24, -67791.34, -78682.90, 137750.53, 73415.94, 15676.26, 170235.86, 2183.61, 8236.73, -2638.76, 134834.72, -3627.31, -0.016, 0.930, -0.140, 16:54:02.411
127, -63735.73, -62668.61, 120437.70, 118435.99, -28590.88, -67796.86, -78735.49, 137734.42, 73415.94, 15676.26, 170235.86, 2183.61, 8236.73, -2638.76, 134834.72, -3627.31, 0.000, 0.000, 0.000, 16:54:02.412
128, -63735.73, -62668.61, 120437.70, 118435.99, -28590.88, -67796.86, -78735.49, 137734.42, 73435.94, 15646.47, 170257.28, 2183.39, 8253.67, -2607.91, 134854.13, -3646.22, 0.000, 0.000, 0.000, 16:54:02.413
129, -63937.25, -62755.96, 120439.40, 118446.98, -28778.96, -67781.95, -78774.09, 137752.70, 73435.94, 15646.47, 170257.28, 2183.39, 8253.67, -2607.91, 134854.13, -3646.22, 0.000, 0.000, 0.000, 16:54:02.413
130, -63937.25, -62755.96, 120439.40, 118446.98, -28778.96, -67781.95, -78774.09, 137752.70, 73451.59, 15585.13, 170265.69, 2159.04, 8255.21, -2585.87, 134615.05, -3683.12, 0.000, 0.000, 0.000, 16:54:02.414
131, -64270.47, -62874.25, 120447.00, 118461.27, -29066.36, -67756.78, -78825.39, 137753.91, 73451.59, 15585.13, 170265.69, 2159.04, 8255.21, -2585.87, 134615.05, -3683.12, 0.000, 0.000, 0.000, 16:54:02.414
132, -64270.47, -62874.25, 120447.00, 118461.27, -29066.36, -67756.78, -78825.39, 137753.91, 73456.95, 15545.44, 170272.16, 2144.90, 8254.37, -2574.59, 134193.13, -3721.21, 0.000, 0.000, 0.000, 16:54:02.414
133, -64549.31, -62953.82, 120453.26, 118468.31, -29293.39, -67757.79, -78852.93, 137748.81, 73456.95, 15545.44, 170272.16, 2144.90, 8254.37, -2574.59, 134193.13, -3721.21, 0.000, 0.000, 0.000, 16:54:02.415
134, -64549.31, -62953.82, 120453.26, 118468.31, -29293.39, -67757.79, -78852.93, 137748.81, 73457.22, 15513.36, 170277.22, 2135.60, 8252.31, -2568.24, 133795.03, -3744.74, 0.000, 0.000, 0.000, 16:54:02.415
135, -64769.36, -63008.98, 120460.81, 118475.77, -29473.99, -67737.88, -78872.24, 137752.45, 73457.22, 15513.36, 170277.22, 2135.60, 8252.31, -2568.24, 133795.03, -3744.74, 0.000, 0.000, 0.000, 16:54:02.416
136, -64769.36, -63008.98, 120460.81, 118475.77, -29473.99, -67737.88, -78872.24, 137752.45, 73448.27, 15492.62, 170272.77, 2130.72, 8245.40, -2570.41, 133430.72, -3755.76, -0.020, 0.894, -0.136, 16:54:02.416
137, -64929.11, -63043.85, 120468.43, 118478.91, -29586.85, -67714.25, -78880.47, 137753.91, 73448.27, 15492.62, 170272.77, 2130.72, 8245.40, -2570.41, 133430.72, -3755.76, 0.000, 0.000, 0.000, 16:54:02.416
138, -64929.11, -63043.85, 120468.43, 118478.91, -29586.85, -67714.25, -78880.47, 137753.91, 73453.87, 15477.24, 170272.77, 2122.79, 8251.50, -2564.59, 133106.06, -3778.16, 0.000, 0.000, 0.000, 16:54:02.417
139, -65114.12, -63098.23, 120467.54, 118476.65, -29722.52, -67710.80, -78904.83, 137745.59, 73453.87, 15477.24, 170272.77, 2122.79, 8251.50, -2564.59, 133106.06, -3778.16, 0.000, 0.000, 0.000, 16:54:02.417
140, -65114.12, -63098.23, 120467.54, 118476.65, -29722.52, -67710.80, -78904.83, 137745.59, 73452.55, 15441.79, 170265.88, 2106.03, 8238.99, -2562.38, 132765.17, -3819.33, 0.000, 0.000, 0.000, 16:54:02.417
141, -65298.90, -63154.25, 120470.80, 118479.51, -29858.96, -67721.73, -78933.69, 137738.23, 73452.55, 15441.79, 170265.88, 2106.03, 8238.99, -2562.38, 132765.17, -3819.33, 0.000, 0.000, 0.000, 16:54:02.418
142, -65298.90, -63154.25, 120470.80, 118479.51, -29858.96, -67721.73, -78933.69, 137738.23, 73469.16, 15415.33, 170284.44, 2103.01, 8257.32, -2544.48, 132382.89, -3858.38, 0.000, 0.000, 0.000, 16:54:02.418
143, -65551.98, -63232.86, 120486.05, 118499.87, -30053.46, -67716.80, -78972.55, 137763.00, 73469.16, 15415.33, 170284.44, 2103.01, 8257.32, -2544.48, 132382.89, -3858.38, 0.000, 0.000, 0.000, 16:54:02.419
144, -65551.98, -63232.86, 120486.05, 118499.87, -30053.46, -67716.80, -78972.55, 137763.00, 73468.33, 15363.85, 170287.00, 2086.98, 8262.84, -2538.40, 131860.05, -3891.15, 0.000, 0.000, 0.000, 16:54:02.419
145, -65824.68, -63309.17, 120494.67, 118512.23, -30264.71, -67708.69, -79007.58, 137760.02, 73468.33, 15363.85, 170287.00, 2086.98, 8262.84, -2538.40, 131860.05, -3891.15, 0.000, 0.000, 0.000, 16:54:02.419
146, -65824.68, -63309.17, 120494.67, 118512.23, -30264.71, -67708.69, -79007.58, 137760.02, 73478.77, 15344.36, 170295.03, 2085.10, 8273.18, -2517.57, 131395.27, -3904.36, -0.012, 0.892, -0.134, 16:54:02.420
147, -66029.69, -63362.21, 120503.68, 118526.42, -30409.14, -67692.50, -78980.55, 137755.00, 73478.77, 15344.36, 170295.03, 2085.10, 8273.18, -2517.57, 131395.27, -3904.36, 0.000, 0.000, 0.000, 16:54:02.421
148, -66029.69, -63362.21, 120503.68, 118526.42, -30409.14, -67692.50, -78980.55, 137755.00, 73472.26, 15325.99, 170290.53, 2078.09, 8274.55, -2517.34, 130992.86, -3910.35, 0.000, 0.000, 0.000, 16:54:02.421
149, -66166.50, -63390.30, 120509.34, 118536.15, -30494.55, -67689.38, -78983.98, 137770.66, 73472.26, 15325.99, 170290.53, 2078.09, 8274.55, -2517.34, 130992.86, -3910.35, 0.000, 0.000, 0.000, 16:54:02.422
150, -66166.50, -63390.30, 120509.34, 118536.15, -30494.55, -67689.38, -78983.98, 137770.66, 73468.70, 15321.05, 170286.05, 2068.09, 8277.77, -2516.38, 130669.61, -3912.16, 0.000, 0.000, 0.000, 16:54:02.422
151, -66243.21, -63389.95, 120510.12, 118535.63, -30538.85, -67697.24, -78984.40, 137763.52, 73468.70, 15321.05, 170286.05, 2068.09, 8277.77, -2516.38, 130669.61, -3912.16, 0.000, 0.000, 0.000, 16:54:02.422
152, -66243.21, -63389.95, 120510.12, 118535.63, -30538.85, -67697.24, -78984.40, 137763.52, 73444.52, 15316.42, 170263.02, 2041.83, 8247.79, -2546.20, 130445.89, -3936.59, 0.000, 0.000, 0.000, 16:54:02.423
153, -66245.52, -63372.20, 120503.75, 118535.34, -30536.75, -67698.20, -78986.50, 137770.00, 73444.52, 15316.42, 170263.02, 2041.83, 8247.79, -2546.20, 130445.89, -3936.59, 0.000, 0.000, 0.000, 16:54:02.423
154, -66245.52, -63372.20, 120503.75, 118535.34, -30536.75, -67698.20, -78986.50, 137770.00, 73463.61, 15331.44, 170282.36, 2061.90, 8267.49, -2520.05, 130318.89, -3920.83, 0.000, 0.000, 0.000, 16:54:02.423
155, -66268.88, -63376.52, 120498.66, 118548.30, -30556.69, -67698.07, -78995.47, 137776.17, 73463.61, 15331.44, 170282.36, 2061.90, 8267.49, -2520.05, 130318.89, -3920.83, 0.000, 0.000, 0.000, 16:54:02.424
156, -66268.88, -63376.52, 120498.66, 118548.30, -30556.69, -67698.07, -78995.47, 137776.17, 73449.57, 15337.43, 170263.78, 2064.05, 8253.20, -2529.88, 130219.59, -3914.35, -0.006, 0.912, -0.142, 16:54:02.425
157, -66184.88, -63335.90, 120498.16, 118549.58, -30464.96, -67707.12, -78958.25, 137784.38, 73449.57, 15337.43, 170263.78, 2064.05, 8253.20, -2529.88, 130219.59, -3914.35, 0.000, 0.000, 0.000, 16:54:02.425
158, -66184.88, -63335.90, 120498.16, 118549.58, -30464.96, -67707.12, -78958.25, 137784.38, 73434.62, 15339.08, 170238.41, 2044.42, 8226.25, -2556.48, 130279.33, -3907.78, 0.000, 0.000, 0.000, 16:54:02.426
159, -66108.77, -63317.68, 120487.39, 118548.09, -30391.78, -67715.32, -78966.77, 137776.42, 73434.62, 15339.08, 170238.41, 2044.42, 8226.25, -2556.48, 130279.33, -3907.78, 0.000, 0.000, 0.000, 16:54:02.427
160, -66108.77, -63317.68, 120487.39, 118548.09, -30391.78, -67715.32, -78966.77, 137776.42, 73453.64, 15355.07, 170258.69, 2059.78, 8244.40, -2539.72, 130330.88, -3892.76, 0.000, 0.000, 0.000, 16:54:02.427
161, -66070.70, -63305.64, 120494.72, 118557.72, -30376.22, -67710.27, -78957.53, 137775.17, 73453.64, 15355.07, 170258.69, 2059.78, 8244.40, -2539.72, 130330.88, -3892.76, 0.000, 0.000, 0.000, 16:54:02.428
162, -66070.70, -63305.64, 120494.72, 118557.72, -30376.22, -67710.27, -78957.53, 137775.17, 73443.29, 15351.31, 170252.00, 2049.81, 8234.99, -2554.38, 130348.33, -3910.37, 0.000, 0.000, 0.000, 16:54:02.429
163, -66041.34, -63301.52, 120497.36, 118559.21, -30359.08, -67722.79, -78964.02, 137778.05, 73443.29, 15351.31, 170252.00, 2049.81, 8234.99, -2554.38, 130348.33, -3910.37, 0.000, 0.000, 0.000, 16:54:02.429
164, -66041.34, -63301.52, 120497.36, 118559.21, -30359.08, -67722.79, -78964.02, 137778.05, 73437.77, 15349.32, 170246.17, 2029.40, 8226.85, -2558.92, 130366.99, -3911.91, 0.000, 0.000, 0.000, 16:54:02.430
165, -66035.88, -63302.21, 120500.33, 118576.34, -30351.32, -67710.61, -78967.52, 137776.75, 73437.77, 15349.32, 170246.17, 2029.40, 8226.85, -2558.92, 130366.99, -3911.91, 0.000, 0.000, 0.000, 16:54:02.430
166, -66035.88, -63302.21, 120500.33, 118576.34, -30351.32, -67710.61, -78967.52, 137776.75, 73432.36, 15357.57, 170241.83, 2003.36, 8217.08, -2558.49, 130390.91, -3910.42, 0.004, 0.936, -0.156, 16:54:02.431
167, -66002.11, -63291.40, 120497.38, 118583.84, -30330.73, -67706.47, -78969.90, 137760.97, 73432.36, 15357.57, 170241.83, 2003.36, 8217.08, -2558.49, 130390.91, -3910.42, 0.000, 0.000, 0.000, 16:54:02.431
168, -66002.11, -63291.40, 120497.38, 118583.84, -30330.73, -67706.47, -78969.90, 137760.97, 73433.48, 15369.15, 170244.47, 1976.61, 8219.94, -2560.97, 130444.77, -3921.30, 0.000, 0.000, 0.000, 16:54:02.432
169, -65981.61, -63291.00, 120504.04, 118593.34, -30328.54, -67709.76, -78970.52, 137768.80, 73433.48, 15369.15, 170244.47, 1976.61, 8219.94, -2560.97, 130444.77, -3921.30, 0.000, 0.000, 0.000, 16:54:02.432
170, -65981.61, -63291.00, 120504.04, 118593.34, -30328.54, -67709.76, -78970.52, 137768.80, 73434.53, 15363.61, 170245.30, 1941.27, 8230.09, -2568.66, 130474.08, -3916.32, 0.000, 0.000, 0.000, 16:54:02.433
171, -65978.23, -63288.22, 120508.04, 118595.60, -30326.76, -67718.43, -78968.17, 137771.25, 73434.53, 15363.61, 170245.30, 1941.27, 8230.09, -2568.66, 130474.08, -3916.32, 0.000, 0.000, 0.000, 16:54:02.433
172, -65978.23, -63288.22, 120508.04, 118595.60, -30326.76, -67718.43, -78968.17, 137771.25, 73431.54, 15370.85, 170242.44, 1905.20, 8229.69, -2566.87, 130491.67, -3922.66, 0.000, 0.000, 0.000, 16:54:02.433
173, -65955.01, -63273.59, 120510.66, 118595.73, -30299.40, -67721.27, -78979.08, 137774.97, 73431.54, 15370.85, 170242.44, 1905.20, 8229.69, -2566.87, 130491.67, -3922.66, 0.000, 0.000, 0.000, 16:54:02.434
174, -65955.01, -63273.59, 120510.66, 118595.73, -30299.40, -67721.27, -78979.08, 137774.97, 73428.14, 15369.98, 170235.38, 1860.25, 8228.57, -2574.99, 130530.47, -3930.91, 0.000, 0.000, 0.000, 16:54:02.434
175, -65938.38, -63266.32, 120515.41, 118598.13, -30285.79, -67727.73, -78961.52, 137768.39, 73428.14, 15369.98, 170235.38, 1860.25, 8228.57, -2574.99, 130530.47, -3930.91, 0.000, 0.000, 0.000, 16:54:02.434
176, -65938.38, -63266.32, 120515.41, 118598.13, -30285.79, -67727.73, -78961.52, 137768.39, 73413.36, 15356.27, 170212.50, 1798.38, 8209.33, -2597.21, 130560.36, -3947.00, 0.016, 0.958, -0.168, 16:54:02.435
177, -65930.70, -63271.91, 120510.86, 118602.42, -30295.35, -67733.05, -78967.66, 137762.42, 73413.36, 15356.27, 170212.50, 1798.38, 8209.33, -2597.21, 130560.36, -3947.00, 0.000, 0.000, 0.000, 16:54:02.435
178, -65930.70, -63271.91, 120510.86, 118602.42, -30295.35, -67733.05, -78967.66, 137762.42, 73422.91, 15356.21, 170221.78, 1767.64, 8214.33, -2578.30, 130570.03, -3941.53, 0.000, 0.000, 0.000, 16:54:02.435
179, -65927.05, -63271.50, 120499.28, 118604.16, -30306.28, -67728.51, -78988.05, 137775.13, 73422.91, 15356.21, 170221.78, 1767.64, 8214.33, -2578.30, 130570.03, -3941.53, 0.000, 0.000, 0.000, 16:54:02.436
180, -65927.05, -63271.50, 120499.28, 118604.16, -30306.28, -67728.51, -78988.05, 137775.13, 73421.03, 15366.96, 170208.03, 1739.35, 8203.51, -2577.92, 130574.13, -3932.45, 0.000, 0.000, 0.000, 16:54:02.436
181, -65929.69, -63272.40, 120486.59, 118606.38, -30322.06, -67719.48, -78983.06, 137770.30, 73421.03, 15366.96, 170208.03, 1739.35, 8203.51, -2577.92, 130574.13, -3932.45, 0.000, 0.000, 0.000, 16:54:02.437
182, -65929.69, -63272.40, 120486.59, 118606.38, -30322.06, -67719.48, -78983.06, 137770.30, 73414.57, 15368.39, 170195.30, 1717.40, 8195.31, -2581.92, 130562.66, -3928.92, 0.000, 0.000, 0.000, 16:54:02.437
183, -65922.78, -63273.65, 120481.55, 118611.70, -30325.55, -67723.28, -78959.16, 137770.09, 73414.57, 15368.39, 170195.30, 1717.40, 8195.31, -2581.92, 130562.66, -3928.92, 0.000, 0.000, 0.000, 16:54:02.437
184, -65922.78, -63273.65, 120481.55, 118611.70, -30325.55, -67723.28, -78959.16, 137770.09, 73407.57, 15362.29, 170180.72, 1700.14, 8181.79, -2588.31, 130556.27, -3934.94, 0.000, 0.000, 0.000, 16:54:02.438
185, -65935.77, -63279.73, 120476.39, 118616.14, -30346.61, -67721.20, -78987.13, 137769.52, 73407.57, 15362.29, 170180.72, 1700.14, 8181.79, -2588.31, 130556.27, -3934.94, 0.000, 0.000, 0.000, 16:54:02.438
186, -65935.77, -63279.73, 120476.39, 118616.14, -30346.61, -67721.20, -78987.13, 137769.52, 73419.48, 15374.22, 170185.84, 1701.95, 8188.63, -2568.75, 130537.20, -3934.85, 0.018, 0.948, -0.186, 16:54:02.438
187, -65949.02, -63277.21, 120475.07, 118613.17, -30366.86, -67723.75, -78983.13, 137769.91, 73419.48, 15374.22, 170185.84, 1701.95, 8188.63, -2568.75, 130537.20, -3934.85, 0.000, 0.000, 0.000, 16:54:02.439
188, -65949.02, -63277.21, 120475.07, 118613.17, -30366.86, -67723.75, -78983.13, 137769.91, 73413.14, 15370.24, 170176.28, 1685.68, 8182.59, -2565.13, 130519.45, -3932.99, 0.000, 0.000, 0.000, 16:54:02.439
189, -65956.27, -63273.20, 120486.91, 118620.57, -30377.81, -67711.39, -78987.69, 137768.42, 73413.14, 15370.24, 170176.28, 1685.68, 8182.59, -2565.13, 130519.45, -3932.99, 0.000, 0.000, 0.000, 16:54:02.440
190, -65956.27, -63273.20, 120486.91, 118620.57, -30377.81, -67711.39, -78987.69, 137768.42, 73403.95, 15363.99, 170173.34, 1673.14, 8178.12, -2574.43, 130494.89, -3937.08, 0.000, 0.000, 0.000, 16:54:02.440
191, -65965.78, -63282.35, 120487.52, 118612.16, -30389.83, -67721.11, -79006.93, 137766.25, 73403.95, 15363.99, 170173.34, 1673.14, 8178.12, -2574.43, 130494.89, -3937.08, 0.000, 0.000, 0.000, 16:54:02.441
192, -65965.78, -63282.35, 120487.52, 118612.16, -30389.83, -67721.11, -79006.93, 137766.25, 73404.09, 15350.60, 170166.81, 1658.66, 8174.52, -2580.49, 130469.20, -3961.49, 0.000, 0.000, 0.000, 16:54:02.442
193, -65983.87, -63290.91, 120489.24, 118606.69, -30403.80, -67717.34, -78990.21, 137761.33, 73404.09, 15350.60, 170166.81, 1658.66, 8174.52, -2580.49, 130469.20, -3961.49, 0.000, 0.000, 0.000, 16:54:02.442
194, -65983.87, -63290.91, 120489.24, 118606.69, -30403.80, -67717.34, -78990.21, 137761.33, 73412.11, 15347.04, 170169.88, 1655.88, 8184.98, -2570.16, 130428.95, -3954.14, 0.000, 0.000, 0.000, 16:54:02.443
195, -66012.90, -63296.90, 120499.10, 118609.86, -30426.74, -67711.88, -78987.11, 137763.63, 73412.11, 15347.04, 170169.88, 1655.88, 8184.98, -2570.16, 130428.95, -3954.14, 0.022, 0.930, -0.190, 16:54:02.443
196, -66012.90, -63296.90, 120499.10, 118609.86, -30426.74, -67711.88, -78987.11, 137763.63, 73407.84, 15342.24, 170160.38, 1653.69, 8186.26, -2570.47, 130386.23, -3948.19, 0.000, 0.000, 0.000, 16:54:02.444
197, -66029.33, -63304.05, 120493.06, 118597.80, -30428.95, -67719.46, -78976.18, 137772.59, 73407.84, 15342.24, 170160.38, 1653.69, 8186.26, -2570.47, 130386.23, -3948.19, 0.000, 0.000, 0.000, 16:54:02.445
198, -66029.33, -63304.05, 120493.06, 118597.80, -30428.95, -67719.46, -78976.18, 137772.59, 73419.71, 15344.41, 170168.56, 1658.90, 8200.41, -2557.91, 130364.04, -3947.59, 0.000, 0.000, 0.000, 16:54:02.445
199, -66053.90, -63311.61, 120495.45, 118594.17, -30452.08, -67718.19, -78982.16, 137773.28, 73419.71, 15344.41, 170168.56, 1658.90, 8200.41, -2557.91, 130364.04, -3947.59, 0.000, 0.000, 0.000, 16:54:02.445
200, -66053.90, -63311.61, 120495.45, 118594.17, -30452.08, -67718.19, -78982.16, 137773.28, 73409.66, 15337.45, 170157.92, 1650.90, 8197.88, -2571.64, 130333.11, -3949.62, 0.000, 0.000, 0.000, 16:54:02.446
201, -66059.98, -63315.56, 120488.37, 118586.59, -30457.42, -67716.98, -78991.09, 137773.06, 73409.66, 15337.45, 170157.92, 1650.90, 8197.88, -2571.64, 130333.11, -3949.62, 0.000, 0.000, 0.000, 16:54:02.446
202, -66059.98, -63315.56, 120488.37, 118586.59, -30457.42, -67716.98, -78991.09, 137773.06, 73408.91, 15324.67, 170150.81, 1649.20, 8188.23, -2571.86, 130311.31, -3960.48, 0.000, 0.000, 0.000, 16:54:02.447
203, -66076.00, -63322.07, 120477.82, 118581.16, -30466.14, -67727.84, -79004.80, 137761.86, 73408.91, 15324.67, 170150.81, 1649.20, 8188.23, -2571.86, 130311.31, -3960.48, 0.000, 0.000, 0.000, 16:54:02.447
204, -66076.00, -63322.07, 120477.82, 118581.16, -30466.14, -67727.84, -79004.80, 137761.86, 73407.09, 15312.96, 170145.34, 1644.82, 8177.92, -2575.01, 130275.93, -3974.74, 0.000, 0.000, 0.000, 16:54:02.448
205, -66096.23, -63319.65, 120476.86, 118590.26, -30474.61, -67720.55, -78996.25, 137773.69, 73407.09, 15312.96, 170145.34, 1644.82, 8177.92, -2575.01, 130275.93, -3974.74, 0.030, 0.934, -0.196, 16:54:02.448
206, -66096.23, -63319.65, 120476.86, 118590.26, -30474.61, -67720.55, -78996.25, 137773.69, 73418.26, 15314.74, 170153.98, 1652.35, 8189.59, -2555.45, 130230.53, -3963.97, 0.000, 0.000, 0.000, 16:54:02.448
207, -66144.30, -63330.54, 120479.41, 118604.81, -30509.04, -67709.96, -78994.80, 137781.31, 73418.26, 15314.74, 170153.98, 1652.35, 8189.59, -2555.45, 130230.53, -3963.97, 0.000, 0.000, 0.000, 16:54:02.449
208, -66144.30, -63330.54, 120479.41, 118604.81, -30509.04, -67709.96, -78994.80, 137781.31, 73412.55, 15308.87, 170148.48, 1645.62, 8180.76, -2557.82, 130162.63, -3970.30, 0.000, 0.000, 0.000, 16:54:02.450
209, -66164.76, -63338.74, 120469.48, 118601.41, -30514.49, -67719.46, -79006.17, 137774.25, 73412.55, 15308.87, 170148.48, 1645.62, 8180.76, -2557.82, 130162.63, -3970.30, 0.000, 0.000, 0.000, 16:54:02.451
210, -66164.76, -63338.74, 120469.48, 118601.41, -30514.49, -67719.46, -79006.17, 137774.25, 73405.00, 15299.12, 170147.28, 1642.70, 8173.38, -2552.39, 130108.88, -3985.11, 0.000, 0.000, 0.000, 16:54:02.451
211, -66192.63, -63337.06, 120476.95, 118611.92, -30546.38, -67710.98, -79047.99, 137760.95, 73405.00, 15299.12, 170147.28, 1642.70, 8173.38, -2552.39, 130108.88, -3985.11, 0.000, 0.000, 0.000, 16:54:02.451
212, -66192.63, -63337.06, 120476.95, 118611.92, -30546.38, -67710.98, -79047.99, 137760.95, 73406.39, 15306.50, 170155.80, 1649.80, 8176.13, -2540.32, 130042.29, -3983.15, 0.000, 0.000, 0.000, 16:54:02.452
213, -66188.12, -63321.75, 120480.46, 118617.40, -30541.20, -67707.52, -79031.81, 137760.34, 73406.39, 15306.50, 170155.80, 1649.80, 8176.13, -2540.32, 130042.29, -3983.15, 0.000, 0.000, 0.000, 16:54:02.452
214, -66188.12, -63321.75, 120480.46, 118617.40, -30541.20, -67707.52, -79031.81, 137760.34, 73373.11, 15336.51, 170132.27, 1647.48, 8153.83, -2572.80, 130124.14, -3957.94, 0.000, 0.000, 0.000, 16:54:02.452
215, -65922.47, -63213.28, 120481.30, 118600.23, -30309.52, -67724.62, -78952.08, 137755.55, 73373.11, 15336.51, 170132.27, 1647.48, 8153.83, -2572.80, 130124.14, -3957.94, 0.038, 0.926, -0.192, 16:54:02.453
216, -65922.47, -63213.28, 120481.30, 118600.23, -30309.52, -67724.62, -78952.08, 137755.55, 73363.38, 15376.14, 170119.48, 1651.01, 8145.65, -2599.95, 130548.98, -3918.89, 0.000, 0.000, 0.000, 16:54:02.454
217, -65722.76, -63178.79, 120471.20, 118581.45, -30144.23, -67740.71, -78946.72, 137747.11, 73363.38, 15376.14, 170119.48, 1651.01, 8145.65, -2599.95, 130548.98, -3918.89, 0.000, 0.000, 0.000, 16:54:02.454
218, -65722.76, -63178.79, 120471.20, 118581.45, -30144.23, -67740.71, -78946.72, 137747.11, 73390.81, 15335.73, 170130.28, 1640.13, 8156.44, -2580.37, 130714.61, -3949.40, 0.000, 0.000, 0.000, 16:54:02.455
219, -65804.41, -63228.84, 120471.49, 118590.77, -30240.41, -67732.58, -78984.94, 137753.27, 73390.81, 15335.73, 170130.28, 1640.13, 8156.44, -2580.37, 130714.61, -3949.40, 0.000, 0.000, 0.000, 16:54:02.455
220, -65804.41, -63228.84, 120471.49, 118590.77, -30240.41, -67732.58, -78984.94, 137753.27, 73395.52, 15334.84, 170139.14, 1650.77, 8152.55, -2559.86, 130670.71, -3959.25, 0.000, 0.000, 0.000, 16:54:02.455
221, -65895.35, -63258.41, 120467.98, 118596.05, -30337.51, -67734.19, -79017.28, 137759.52, 73395.52, 15334.84, 170139.14, 1650.77, 8152.55, -2559.86, 130670.71, -3959.25, 0.000, 0.000, 0.000, 16:54:02.456
222, -65895.35, -63258.41, 120467.98, 118596.05, -30337.51, -67734.19, -79017.28, 137759.52, 73401.74, 15314.88, 170140.75, 1640.22, 8153.89, -2551.65, 130528.66, -3982.45, 0.000, 0.000, 0.000, 16:54:02.456
223, -66019.16, -63299.42, 120474.58, 118602.15, -30457.69, -67727.59, -79001.70, 137760.81, 73401.74, 15314.88, 170140.75, 1640.22, 8153.89, -2551.65, 130528.66, -3982.45, 0.000, 0.000, 0.000, 16:54:02.456
224, -66019.16, -63299.42, 120474.58, 118602.15, -30457.69, -67727.59, -79001.70, 137760.81, 73399.05, 15297.85, 170138.09, 1632.77, 8154.77, -2545.75, 130349.16, -3983.68, 0.000, 0.000, 0.000, 16:54:02.457
225, -66139.23, -63328.86, 120481.93, 118601.01, -30553.09, -67723.59, -79014.30, 137766.16, 73399.05, 15297.85, 170138.09, 1632.77, 8154.77, -2545.75, 130349.16, -3983.68, 0.046, 0.922, -0.186, 16:54:02.457
226, -66139.23, -63328.86, 120481.93, 118601.01, -30553.09, -67723.59, -79014.30, 137766.16, 73398.32, 15290.45, 170144.69, 1639.70, 8158.12, -2545.28, 130187.62, -3984.71, 0.000, 0.000, 0.000, 16:54:02.457
227, -66150.19, -63317.91, 120483.16, 118602.53, -30553.60, -67717.87, -79003.36, 137777.38, 73398.32, 15290.45, 170144.69, 1639.70, 8158.12, -2545.28, 130187.62, -3984.71, 0.000, 0.000, 0.000, 16:54:02.458
228, -66150.19, -63317.91, 120483.16, 118602.53, -30553.60, -67717.87, -79003.36, 137777.38, 73388.53, 15309.89, 170140.94, 1651.68, 8150.12, -2553.04, 130199.38, -3962.63, 0.000, 0.000, 0.000, 16:54:02.458
229, -66027.88, -63263.53, 120482.07, 118603.90, -30449.47, -67716.82, -78973.38, 137783.97, 73388.53, 15309.89, 170140.94, 1651.68, 8150.12, -2553.04, 130199.38, -3962.63, 0.000, 0.000, 0.000, 16:54:02.459
230, -66027.88, -63263.53, 120482.07, 118603.90, -30449.47, -67716.82, -78973.38, 137783.97, 73385.45, 15347.94, 170136.05, 1670.06, 8148.22, -2560.19, 130413.02, -3924.77, 0.000, 0.000, 0.000, 16:54:02.460
231, -65827.72, -63199.55, 120475.92, 118599.34, -30283.69, -67724.46, -78939.50, 137787.81, 73385.45, 15347.94, 170136.05, 1670.06, 8148.22, -2560.19, 130413.02, -3924.77, 0.000, 0.000, 0.000, 16:54:02.461
232, -65827.72, -63199.55, 120475.92, 118599.34, -30283.69, -67724.46, -78939.50, 137787.81, 73375.77, 15372.97, 170121.17, 1669.32, 8131.94, -2577.89, 130746.03, -3896.87, 0.000, 0.000, 0.000, 16:54:02.461
233, -65612.60, -63136.43, 120460.90, 118586.17, -30106.17, -67738.03, -78933.13, 137772.86, 73375.77, 15372.97, 170121.17, 1669.32, 8131.94, -2577.89, 130746.03, -3896.87, 0.000, 0.000, 0.000, 16:54:02.462
234, -65612.60, -63136.43, 120460.90, 118586.17, -30106.17, -67738.03, -78933.13, 137772.86, 73364.28, 15382.85, 170111.13, 1664.71, 8117.01, -2602.79, 131105.41, -3899.73, 0.000, 0.000, 0.000, 16:54:02.462
235, -65447.27, -63101.74, 120451.71, 118582.70, -29970.96, -67747.91, -78924.92, 137763.14, 73364.28, 15382.85, 170111.13, 1664.71, 8117.01, -2602.79, 131105.41, -3899.73, 0.050, 0.918, -0.174, 16:54:02.462
236, -65447.27, -63101.74, 120451.71, 118582.70, -29970.96, -67747.91, -78924.92, 137763.14, 73379.86, 15389.11, 170120.44, 1674.55, 8132.37, -2585.72, 131413.75, -3886.70, 0.000, 0.000, 0.000, 16:54:02.463
237, -65374.25, -63099.40, 120450.22, 118587.60, -29928.22, -67741.56, -78933.26, 137760.41, 73379.86, 15389.11, 170120.44, 1674.55, 8132.37, -2585.72, 131413.75, -3886.70, 0.000, 0.000, 0.000, 16:54:02.463
238, -65374.25, -63099.40, 120450.22, 118587.60, -29928.22, -67741.56, -78933.26, 137760.41, 73373.84, 15373.28, 170109.38, 1661.38, 8119.00, -2600.60, 131607.77, -3897.59, 0.000, 0.000, 0.000, 16:54:02.463
239, -65373.89, -63115.45, 120449.86, 118603.59, -29938.15, -67730.59, -78922.98, 137765.16, 73373.84, 15373.28, 170109.38, 1661.38, 8119.00, -2600.60, 131607.77, -3897.59, 0.000, 0.000, 0.000, 16:54:02.464
240, -65373.89, -63115.45, 120449.86, 118603.59, -29938.15, -67730.59, -78922.98, 137765.16, 73392.17, 15371.94, 170138.75, 1674.41, 8139.68, -2571.37, 131659.27, -3907.24, 0.000, 0.000, 0.000, 16:54:02.464
241, -65441.46, -63138.42, 120454.15, 118620.16, -30010.75, -67722.20, -78941.51, 137764.86, 73392.17, 15371.94, 170138.75, 1674.41, 8139.68, -2571.37, 131659.27, -3907.24, 0.000, 0.000, 0.000, 16:54:02.465
242, -65441.46, -63138.42, 120454.15, 118620.16, -30010.75, -67722.20, -78941.51, 137764.86, 73387.03, 15358.24, 170143.94, 1679.38, 8147.14, -2569.58, 131638.11, -3914.73, 0.000, 0.000, 0.000, 16:54:02.889
243, -65471.32, -63141.53, 120461.44, 118627.92, -30045.73, -67705.20, -78954.47, 137776.33, 73387.03, 15358.24, 170143.94, 1679.38, 8147.14, -2569.58, 131638.11, -3914.73, 0.000, 0.000, 0.000, 16:54:02.890
244, -65471.32, -63141.53, 120461.44, 118627.92, -30045.73, -67705.20, -78954.47, 137776.33, 73372.28, 15353.86, 170137.77, 1673.39, 8136.37, -2589.00, 131647.50, -3927.74, 0.000, 0.000, 0.000, 16:54:02.890
245, -65453.17, -63131.52, 120465.51, 118633.55, -30049.21, -67697.44, -78940.39, 137784.78, 73372.28, 15353.86, 170137.77, 1673.39, 8136.37, -2589.00, 131647.50, -3927.74, 0.066, 0.908, -0.170, 16:54:02.891
246, -65453.17, -63131.52, 120465.51, 118633.55, -30049.21, -67697.44, -78940.39, 137784.78, 73360.77, 15353.61, 170128.44, 1663.17, 8125.57, -2602.35, 131702.23, -3933.62, 0.000, 0.000, 0.000, 16:54:02.892
247, -65416.09, -63115.07, 120465.64, 118639.57, -30013.36, -67705.35, -78927.92, 137784.58, 73360.77, 15353.61, 170128.44, 1663.17, 8125.57, -2602.35, 131702.23, -3933.62, 0.000, 0.000, 0.000, 16:54:02.892
248, -65416.09, -63115.07, 120465.64, 118639.57, -30013.36, -67705.35, -78927.92, 137784.58, 73363.72, 15364.59, 170136.72, 1665.96, 8130.40, -2597.94, 131782.66, -3931.20, 0.000, 0.000, 0.000, 16:54:02.893
249, -65405.56, -63112.92, 120469.95, 118649.31, -30011.78, -67705.00, -78934.76, 137784.16, 73363.72, 15364.59, 170136.72, 1665.96, 8130.40, -2597.94, 131782.66, -3931.20, 0.000, 0.000, 0.000, 16:54:02.893
250, -65405.56, -63112.92, 120469.95, 118649.31, -30011.78, -67705.00, -78934.76, 137784.16, 73363.59, 15358.11, 170138.77, 1667.51, 8132.59, -2598.41, 131830.31, -3938.58, 0.000, 0.000, 0.000, 16:54:02.894
251, -65415.26, -63116.14, 120476.08, 118656.06, -30021.63, -67703.52, -78937.91, 137792.95, 73363.59, 15358.11, 170138.77, 1667.51, 8132.59, -2598.41, 131830.31, -3938.58, 0.000, 0.000, 0.000, 16:54:02.894
252, -65415.26, -63116.14, 120476.08, 118656.06, -30021.63, -67703.52, -78937.91, 137792.95, 73353.02, 15337.30, 170134.77, 1651.35, 8125.24, -2614.06, 131846.09, -3952.26, 0.000, 0.000, 0.000, 16:54:02.894
253, -65450.53, -63137.57, 120480.26, 118656.94, -30049.10, -67702.91, -78946.74, 137785.95, 73353.02, 15337.30, 170134.77, 1651.35, 8125.24, -2614.06, 131846.09, -3952.26, 0.000, 0.000, 0.000, 16:54:02.895
254, -65450.53, -63137.57, 120480.26, 118656.94, -30049.10, -67702.91, -78946.74, 137785.95, 73349.13, 15317.99, 170133.97, 1628.77, 8121.39, -2628.03, 131812.53, -3975.12, 0.000, 0.000, 0.000, 16:54:02.895
255, -65507.24, -63146.87, 120488.70, 118673.45, -30100.06, -67668.63, -78960.24, 137789.16, 73349.13, 15317.99, 170133.97, 1628.77, 8121.39, -2628.03, 131812.53, -3975.12, 0.076, 0.916, -0.170, 16:54:02.895
0, -65507.24, -63146.87, 120488.70, 118673.45, -30100.06, -67668.63, -78960.24, 137789.16, 73344.20, 15330.21, 170144.06, 1626.72, 8124.30, -2614.46, 131773.91, -3963.39, 0.000, 0.000, 0.000, 16:54:02.896
1, -65501.09, -63128.39, 120500.17, 118687.49, -30092.22, -67668.20, -78946.41, 137802.45, 73344.20, 15330.21, 170144.06, 1626.72, 8124.30, -2614.46, 131773.91, -3963.39, 0.000, 0.000, 0.000, 16:54:02.896
2, -65501.09, -63128.39, 120500.17, 118687.49, -30092.22, -67668.20, -78946.41, 137802.45, 73340.41, 15316.82, 170141.11, 1606.33, 8115.54, -2615.62, 131760.56, -3964.91, 0.000, 0.000, 0.000, 16:54:02.897
3, -65553.88, -63151.14, 120506.95, 118695.23, -30133.08, -67663.60, -78954.47, 137806.64, 73340.41, 15316.82, 170141.11, 1606.33, 8115.54, -2615.62, 131760.56, -3964.91, 0.000, 0.000, 0.000, 16:54:02.897
4, -65553.88, -63151.14, 120506.95, 118695.23, -30133.08, -67663.60, -78954.47, 137806.64, 73350.53, 15325.29, 170153.61, 1597.03, 8133.93, -2600.29, 131710.72, -3965.91, 0.000, 0.000, 0.000, 16:54:02.898
5, -65542.89, -63140.82, 120502.19, 118690.40, -30121.61, -67665.63, -78943.07, 137797.53, 73350.53, 15325.29, 170153.61, 1597.03, 8133.93, -2600.29, 131710.72, -3965.91, 0.000, 0.000, 0.000, 16:54:02.898
6, -65542.89, -63140.82, 120502.19, 118690.40, -30121.61, -67665.63, -78943.07, 137797.53, 73347.20, 15337.23, 170147.27, 1565.43, 8131.03, -2626.42, 131759.84, -3976.38, 0.000, 0.000, 0.000, 16:54:02.899
7, -65492.35, -63122.44, 120494.14, 118685.86, -30079.35, -67672.66, -78937.84, 137796.89, 73347.20, 15337.23, 170147.27, 1565.43, 8131.03, -2626.42, 131759.84, -3976.38, 0.000, 0.000, 0.000, 16:54:02.899
8, -65492.35, -63122.44, 120494.14, 118685.86, -30079.35, -67672.66, -78937.84, 137796.89, 73341.77, 15335.40, 170144.41, 1531.72, 8127.27, -2640.08, 131828.73, -3984.96, 0.000, 0.000, 0.000, 16:54:02.899
9, -65469.09, -63109.57, 120486.09, 118679.11, -30047.74, -67687.34, -78936.48, 137777.72, 73341.77, 15335.40, 170144.41, 1531.72, 8127.27, -2640.08, 131828.73, -3984.96, 0.080, 0.930, -0.178, 16:54:02.900
10, -65469.09, -63109.57, 120486.09, 118679.11, -30047.74, -67687.34, -78936.48, 137777.72, 73344.77, 15328.51, 170143.08, 1502.73, 8127.03, -2655.50, 131870.39, -4008.67, 0.000, 0.000, 0.000, 16:54:02.900
11, -65465.95, -63110.50, 120497.38, 118684.96, -30035.96, -67687.65, -78935.12, 137797.56, 73344.77, 15328.51, 170143.08, 1502.73, 8127.03, -2655.50, 131870.39, -4008.67, 0.000, 0.000, 0.000, 16:54:02.901
12, -65465.95, -63110.50, 120497.38, 118684.96, -30035.96, -67687.65, -78935.12, 137797.56, 73337.05, 15325.56, 170144.84, 1468.62, 8124.57, -2665.76, 131897.70, -4001.79, 0.000, 0.000, 0.000, 16:54:02.901
13, -65448.54, -63106.59, 120499.37, 118685.99, -30025.95, -67679.78, -78931.95, 137799.42, 73337.05, 15325.56, 170144.84, 1468.62, 8124.57, -2665.76, 131897.70, -4001.79, 0.000, 0.000, 0.000, 16:54:02.901
14, -65448.54, -63106.59, 120499.37, 118685.99, -30025.95, -67679.78, -78931.95, 137799.42, 73326.66, 15325.32, 170134.66, 1435.18, 8104.65, -2690.01, 131936.67, -4019.80, 0.000, 0.000, 0.000, 16:54:02.902
15, -65412.49, -63094.26, 120493.02, 118685.97, -29997.58, -67682.16, -78921.70, 137802.77, 73326.66, 15325.32, 170134.66, 1435.18, 8104.65, -2690.01, 131936.67, -4019.80, 0.000, 0.000, 0.000, 16:54:02.902
16, -65412.49, -63094.26, 120493.02, 118685.97, -29997.58, -67682.16, -78921.70, 137802.77, 73332.77, 15336.34, 170144.41, 1416.50, 8112.81, -2691.71, 131985.08, -4019.78, 0.000, 0.000, 0.000, 16:54:02.903
17, -65389.63, -63085.16, 120496.51, 118681.99, -29984.13, -67680.50, -78924.37, 137797.42, 73332.77, 15336.34, 170144.41, 1416.50, 8112.81, -2691.71, 131985.08, -4019.78, 0.000, 0.000, 0.000, 16:54:02.903
18, -65389.63, -63085.16, 120496.51, 118681.99, -29984.13, -67680.50, -78924.37, 137797.42, 73317.67, 15323.30, 170133.45, 1389.47, 8103.20, -2713.79, 132065.95, -4024.14, 0.000, 0.000, 0.000, 16:54:02.904
19, -65352.03, -63078.83, 120492.98, 118673.81, -29940.88, -67684.88, -78925.41, 137794.08, 73317.67, 15323.30, 170133.45, 1389.47, 8103.20, -2713.79, 132065.95, -4024.14, 0.082, 0.936, -0.176, 16:54:02.905
20, -65352.03, -63078.83, 120492.98, 118673.81, -29940.88, -67684.88, -78925.41, 137794.08, 73330.91, 15315.17, 170139.22, 1376.38, 8118.76, -2713.84, 132152.78, -4021.75, 0.000, 0.000, 0.000, 16:54:02.905
21, -65352.57, -63086.16, 120494.45, 118676.83, -29955.40, -67682.84, -78938.05, 137803.63, 73330.91, 15315.17, 170139.22, 1376.38, 8118.76, -2713.84, 132152.78, -4021.75, 0.000, 0.000, 0.000, 16:54:02.905
22, -65352.57, -63086.16, 120494.45, 118676.83, -29955.40, -67682.84, -78938.05, 137803.63, 73324.88, 15312.22, 170131.84, 1351.88, 8107.60, -2733.35, 132183.92, -4019.42, 0.000, 0.000, 0.000, 16:54:02.906
23, -65373.80, -63095.55, 120486.88, 118669.45, -29983.41, -67692.48, -78952.28, 137797.16, 73324.88, 15312.22, 170131.84, 1351.88, 8107.60, -2733.35, 132183.92, -4019.42, 0.000, 0.000, 0.000, 16:54:02.906
24, -65373.80, -63095.55, 120486.88, 118669.45, -29983.41, -67692.48, -78952.28, 137797.16, 73330.53, 15317.34, 170136.98, 1338.20, 8119.11, -2740.37, 132169.58, -4021.62, 0.000, 0.000, 0.000, 16:54:02.907
25, -65398.61, -63103.71, 120487.27, 118673.63, -29995.10, -67695.14, -78934.87, 137795.77, 73330.53, 15317.34, 170136.98, 1338.20, 8119.11, -2740.37, 132169.58, -4021.62, 0.000, 0.000, 0.000, 16:54:02.907
26, -65398.61, -63103.71, 120487.27, 118673.63, -29995.10, -67695.14, -78934.87, 137795.77, 73320.18, 15305.38, 170130.25, 1320.16, 8113.10, -2764.33, 132152.41, -4022.40, 0.000, 0.000, 0.000, 16:54:02.907
27, -65408.11, -63101.07, 120480.55, 118671.30, -29981.47, -67702.36, -78939.30, 137795.73, 73320.18, 15305.38, 170130.25, 1320.16, 8113.10, -2764.33, 132152.41, -4022.40, 0.000, 0.000, 0.000, 16:54:02.908
28, -65408.11, -63101.07, 120480.55, 118671.30, -29981.47, -67702.36, -78939.30, 137795.73, 73319.91, 15290.34, 170126.59, 1300.96, 8105.95, -2783.78, 132139.98, -4038.56, 0.092, 0.940, -0.190, 16:54:02.908
29, -65412.45, -63102.53, 120478.16, 118666.59, -29984.71, -67707.25, -78947.12, 137794.75, 73319.91, 15290.34, 170126.59, 1300.96, 8105.95, -2783.78, 132139.98, -4038.56, 0.000, 0.000, 0.000, 16:54:02.908
30, -65412.45, -63102.53, 120478.16, 118666.59, -29984.71, -67707.25, -78947.12, 137794.75, 73324.72, 15291.05, 170126.16, 1286.86, 8114.69, -2794.12, 132148.67, -4039.90, 0.000, 0.000, 0.000, 16:54:02.909
31, -65417.56, -63114.57, 120470.60, 118650.84, -29981.15, -67724.46, -78945.15, 137780.16, 73324.72, 15291.05, 170126.16, 1286.86, 8114.69, -2794.12, 132148.67, -4039.90, 0.000, 0.000, 0.000, 16:54:02.909
32, -65417.56, -63114.57, 120470.60, 118650.84, -29981.15, -67724.46, -78945.15, 137780.16, 73329.70, 15300.17, 170130.09, 1269.98, 8111.90, -2813.08, 132172.16, -4053.35, 0.000, 0.000, 0.000, 16:54:02.910
33, -65417.47, -63112.56, 120474.96, 118659.39, -29969.31, -67714.95, -78952.75, 137783.64, 73329.70, 15300.17, 170130.09, 1269.98, 8111.90, -2813.08, 132172.16, -4053.35, 0.000, 0.000, 0.000, 16:54:02.911
34, -65417.47, -63112.56, 120474.96, 118659.39, -29969.31, -67714.95, -78952.75, 137783.64, 73329.66, 15325.72, 170142.81, 1273.67, 8117.71, -2836.17, 132206.58, -4020.50, 0.000, 0.000, 0.000, 16:54:02.911
35, -65383.01, -63088.78, 120479.14, 118671.62, -29927.11, -67712.08, -78931.63, 137792.95, 73329.66, 15325.72, 170142.81, 1273.67, 8117.71, -2836.17, 132206.58, -4020.50, 0.000, 0.000, 0.000, 16:54:02.912
36, -65383.01, -63088.78, 120479.14, 118671.62, -29927.11, -67712.08, -78931.63, 137792.95, 73320.36, 15320.65, 170121.73, 1249.95, 8101.52, -2873.65, 132279.63, -4017.82, 0.000, 0.000, 0.000, 16:54:02.912
37, -65384.33, -63102.97, 120472.92, 118672.23, -29934.66, -67721.07, -78937.22, 137785.14, 73320.36, 15320.65, 170121.73, 1249.95, 8101.52, -2873.65, 132279.63, -4017.82, 0.000, 0.000, 0.000, 16:54:02.914
38, -65384.33, -63102.97, 120472.92, 118672.23, -29934.66, -67721.07, -78937.22, 137785.14, 73332.74, 15319.37, 170133.16, 1244.93, 8108.50, -2856.78, 132291.55, -4016.14, 0.092, 0.930, -0.194, 16:54:02.914
39, -65415.20, -63121.39, 120469.41, 118672.83, -29972.48, -67718.01, -78936.99, 137774.36, 73332.74, 15319.37, 170133.16, 1244.93, 8108.50, -2856.78, 132291.55, -4016.14, 0.000, 0.000, 0.000, 16:54:02.915
40, -65415.20, -63121.39, 120469.41, 118672.83, -29972.48, -67718.01, -78936.99, 137774.36, 73321.70, 15309.22, 170122.39, 1225.39, 8095.69, -2864.82, 132277.38, -4037.15, 0.000, 0.000, 0.000, 16:54:02.915
41, -65431.29, -63124.05, 120472.55, 118677.27, -29989.45, -67711.59, -78940.23, 137790.61, 73321.70, 15309.22, 170122.39, 1225.39, 8095.69, -2864.82, 132277.38, -4037.15, 0.000, 0.000, 0.000, 16:54:02.915
42, -65431.29, -63124.05, 120472.55, 118677.27, -29989.45, -67711.59, -78940.23, 137790.61, 73315.69, 15306.85, 170125.61, 1219.53, 8098.69, -2855.52, 132261.97, -4021.26, 0.000, 0.000, 0.000, 16:54:02.916
43, -65443.52, -63124.25, 120465.59, 118675.45, -30005.18, -67711.57, -78932.81, 137785.64, 73315.69, 15306.85, 170125.61, 1219.53, 8098.69, -2855.52, 132261.97, -4021.26, 0.000, 0.000, 0.000, 16:54:02.916
44, -65443.52, -63124.25, 120465.59, 118675.45, -30005.18, -67711.57, -78932.81, 137785.64, 73310.08, 15290.13, 170109.20, 1190.77, 8088.56, -2857.36, 132255.98, -4029.35, 0.000, 0.000, 0.000, 16:54:02.916
45, -65475.48, -63130.85, 120462.33, 118668.07, -30032.25, -67706.67, -78941.09, 137785.53, 73310.08, 15290.13, 170109.20, 1190.77, 8088.56, -2857.36, 132255.98, -4029.35, 0.000, 0.000, 0.000, 16:54:02.917
46, -65475.48, -63130.85, 120462.33, 118668.07, -30032.25, -67706.67, -78941.09, 137785.53, 73315.62, 15290.81, 170120.42, 1181.20, 8093.03, -2845.33, 132233.00, -4026.20, 0.000, 0.000, 0.000, 16:54:02.917
47, -65500.09, -63134.27, 120463.23, 118661.18, -30053.35, -67710.30, -78942.02, 137783.75, 73315.62, 15290.81, 170120.42, 1181.20, 8093.03, -2845.33, 132233.00, -4026.20, 0.000, 0.000, 0.000, 16:54:02.917
48, -65500.09, -63134.27, 120463.23, 118661.18, -30053.35, -67710.30, -78942.02, 137783.75, 73305.98, 15290.83, 170107.78, 1161.91, 8082.66, -2861.40, 132211.55, -4028.52, 0.086, 0.926, -0.198, 16:54:02.918
49, -65490.65, -63130.98, 120457.32, 118651.39, -30035.18, -67729.29, -78931.79, 137776.59, 73305.98, 15290.83, 170107.78, 1161.91, 8082.66, -2861.40, 132211.55, -4028.52, 0.000, 0.000, 0.000, 16:54:02.918
50, -65490.65, -63130.98, 120457.32, 118651.39, -30035.18, -67729.29, -78931.79, 137776.59, 73313.23, 15299.61, 170116.30, 1162.49, 8091.60, -2852.19, 132233.52, -4024.19, 0.000, 0.000, 0.000, 16:54:02.918
51, -65474.18, -63123.89, 120456.85, 118651.88, -30030.04, -67735.17, -78936.61, 137778.23, 73313.23, 15299.61, 170116.30, 1162.49, 8091.60, -2852.19, 132233.52, -4024.19, 0.000, 0.000, 0.000, 16:54:02.919
52, -65474.18, -63123.89, 120456.85, 118651.88, -30030.04, -67735.17, -78936.61, 137778.23, 73311.69, 15289.15, 170112.23, 1153.95, 8087.49, -2861.87, 132247.42, -4020.50, 0.000, 0.000, 0.000, 16:54:02.919
53, -65488.73, -63129.89, 120456.19, 118657.61, -30041.79, -67738.34, -78943.56, 137777.27, 73311.69, 15289.15, 170112.23, 1153.95, 8087.49, -2861.87, 132247.42, -4020.50, 0.000, 0.000, 0.000, 16:54:02.919
54, -65488.73, -63129.89, 120456.19, 118657.61, -30041.79, -67738.34, -78943.56, 137777.27, 73311.35, 15287.25, 170111.75, 1153.10, 8088.49, -2856.35, 132240.47, -4009.37, 0.000, 0.000, 0.000, 16:54:02.920
55, -65503.02, -63133.66, 120453.10, 118659.53, -30054.24, -67736.42, -78943.63, 137776.13, 73311.35, 15287.25, 170111.75, 1153.10, 8088.49, -2856.35, 132240.47, -4009.37, 0.000, 0.000, 0.000, 16:54:02.920
56, -65503.02, -63133.66, 120453.10, 118659.53, -30054.24, -67736.42, -78943.63, 137776.13, 73308.29, 15290.78, 170105.20, 1156.12, 8081.61, -2858.50, 132243.69, -4016.52, 0.000, 0.000, 0.000, 16:54:02.921
57, -65480.80, -63123.45, 120454.66, 118660.38, -30028.76, -67731.55, -78931.83, 137786.11, 73308.29, 15290.78, 170105.20, 1156.12, 8081.61, -2858.50, 132243.69, -4016.52, 0.000, 0.000, 0.000, 16:54:02.922
58, -65480.80, -63123.45, 120454.66, 118660.38, -30028.76, -67731.55, -78931.83, 137786.11, 73306.48, 15296.59, 170111.77, 1161.78, 8085.99, -2856.60, 132285.28, -3996.72, 0.082, 0.930, -0.204, 16:54:02.922
59, -65465.80, -63116.09, 120464.52, 118661.23, -30013.29, -67742.68, -78923.52, 137777.27, 73306.48, 15296.59, 170111.77, 1161.78, 8085.99, -2856.60, 132285.28, -3996.72, 0.000, 0.000, 0.000, 16:54:02.922
60, -65465.80, -63116.09, 120464.52, 118661.23, -30013.29, -67742.68, -78923.52, 137777.27, 73310.19, 15286.13, 170118.56, 1160.77, 8087.53, -2863.77, 132317.41, -4009.93, 0.000, 0.000, 0.000, 16:54:02.923
61, -65471.77, -63121.10, 120461.80, 118657.88, -30011.26, -67751.09, -78927.61, 137780.86, 73310.19, 15286.13, 170118.56, 1160.77, 8087.53, -2863.77, 132317.41, -4009.93, 0.000, 0.000, 0.000, 16:54:02.923
62, -65471.77, -63121.10, 120461.80, 118657.88, -30011.26, -67751.09, -78927.61, 137780.86, 73308.13, 15283.67, 170124.80, 1155.05, 8092.99, -2860.80, 132317.92, -4007.15, 0.000, 0.000, 0.000, 16:54:02.923
63, -65481.73, -63118.30, 120467.78, 118665.81, -30008.45, -67737.12, -78916.36, 137790.98, 73308.13, 15283.67, 170124.80, 1155.05, 8092.99, -2860.80, 132317.92, -4007.15, 0.000, 0.000, 0.000, 16:54:02.924
64, -65481.73, -63118.30, 120467.78, 118665.81, -30008.45, -67737.12, -78916.36, 137790.98, 73302.97, 15271.47, 170117.13, 1146.96, 8086.10, -2866.28, 132312.39, -4011.11, 0.000, 0.000, 0.000, 16:54:02.924
65, -65478.00, -63118.42, 120462.40, 118656.66, -30002.46, -67746.86, -78915.65, 137786.63, 73302.97, 15271.47, 170117.13, 1146.96, 8086.10, -2866.28, 132312.39, -4011.11, 0.000, 0.000, 0.000, 16:54:02.925
66, -65478.00, -63118.42, 120462.40, 118656.66, -30002.46, -67746.86, -78915.65, 137786.63, 73294.48, 15260.07, 170097.59, 1130.15, 8065.45, -2882.99, 132346.22, -4019.92, 0.000, 0.000, 0.000, 16:54:02.925
67, -65482.32, -63125.77, 120457.64, 118646.79, -29997.29, -67749.12, -78921.98, 137785.84, 73294.48, 15260.07, 170097.59, 1130.15, 8065.45, -2882.99, 132346.22, -4019.92, 0.000, 0.000, 0.000, 16:54:02.926
68, -65482.32, -63125.77, 120457.64, 118646.79, -29997.29, -67749.12, -78921.98, 137785.84, 73309.59, 15263.65, 170116.58, 1138.46, 8079.95, -2869.54, 132371.67, -4020.41, 0.074, 0.930, -0.206, 16:54:02.926
69, -65492.64, -63126.55, 120458.69, 118643.97, -29997.11, -67755.02, -78925.88, 137781.06, 73309.59, 15263.65, 170116.58, 1138.46, 8079.95, -2869.54, 132371.67, -4020.41, 0.000, 0.000, 0.000, 16:54:02.927
70, -65492.64, -63126.55, 120458.69, 118643.97, -29997.11, -67755.02, -78925.88, 137781.06, 73306.45, 15264.18, 170120.80, 1140.05, 8079.75, -2868.00, 132397.67, -4019.54, 0.000, 0.000, 0.000, 16:54:02.927
71, -65477.98, -63116.18, 120463.18, 118647.30, -29996.20, -67757.55, -78920.66, 137786.42, 73306.45, 15264.18, 170120.80, 1140.05, 8079.75, -2868.00, 132397.67, -4019.54, 0.000, 0.000, 0.000, 16:54:02.927
72, -65477.98, -63116.18, 120463.18, 118647.30, -29996.20, -67757.55, -78920.66, 137786.42, 73302.56, 15256.61, 170115.48, 1132.25, 8081.32, -2871.08, 132434.55, -4014.26, 0.000, 0.000, 0.000, 16:54:02.928
73, -65493.74, -63122.87, 120463.96, 118649.67, -30018.26, -67758.62, -78933.30, 137778.94, 73302.56, 15256.61, 170115.48, 1132.25, 8081.32, -2871.08, 132434.55, -4014.26, 0.000, 0.000, 0.000, 16:54:02.928
74, -65493.74, -63122.87, 120463.96, 118649.67, -30018.26, -67758.62, -78933.30, 137778.94, 73312.94, 15248.14, 170123.50, 1127.60, 8092.61, -2857.02, 132422.53, -4008.70, 0.000, 0.000, 0.000, 16:54:02.929
75, -65517.52, -63135.65, 120461.50, 118647.33, -30033.68, -67756.77, -78941.15, 137778.70, 73312.94, 15248.14, 170123.50, 1127.60, 8092.61, -2857.02, 132422.53, -4008.70, 0.000, 0.000, 0.000, 16:54:02.929
76, -65517.52, -63135.65, 120461.50, 118647.33, -30033.68, -67756.77, -78941.15, 137778.70, 73314.63, 15250.59, 170129.16, 1126.06, 8092.31, -2853.18, 132404.33, -4008.87, 0.000, 0.000, 0.000, 16:54:02.930
77, -65513.65, -63128.95, 120465.52, 118642.38, -30022.44, -67757.84, -78966.74, 137783.48, 73314.63, 15250.59, 170129.16, 1126.06, 8092.31, -2853.18, 132404.33, -4008.87, 0.000, 0.000, 0.000, 16:54:02.930
78, -65513.65, -63128.95, 120465.52, 118642.38, -30022.44, -67757.84, -78966.74, 137783.48, 73293.80, 15231.95, 170107.55, 1109.79, 8069.40, -2883.04, 132408.98, -4030.73, 0.074, 0.930, -0.206, 16:54:02.931
79, -65506.86, -63129.75, 120470.22, 118630.94, -30005.96, -67770.40, -78900.38, 137769.69, 73293.80, 15231.95, 170107.55, 1109.79, 8069.40, -2883.04, 132408.98, -4030.73, 0.000, 0.000, 0.000, 16:54:02.932
80, -65506.86, -63129.75, 120470.22, 118630.94, -30005.96, -67770.40, -78900.38, 137769.69, 73299.26, 15225.09, 170116.06, 1112.71, 8082.30, -2876.80, 132417.92, -4037.44, 0.000, 0.000, 0.000, 16:54:02.932
81, -65504.07, -63126.84, 120480.64, 118644.15, -30014.46, -67752.23, -78892.40, 137783.22, 73299.26, 15225.09, 170116.06, 1112.71, 8082.30, -2876.80, 132417.92, -4037.44, 0.000, 0.000, 0.000, 16:54:02.933
82, -65504.07, -63126.84, 120480.64, 118644.15, -30014.46, -67752.23, -78892.40, 137783.22, 73302.23, 15229.61, 170121.77, 1119.69, 8091.38, -2864.71, 132419.50, -4013.95, 0.000, 0.000, 0.000, 16:54:02.933
83, -65521.05, -63137.24, 120477.75, 118641.49, -30056.21, -67752.94, -78922.91, 137781.98, 73302.23, 15229.61, 170121.77, 1119.69, 8091.38, -2864.71, 132419.50, -4013.95, 0.000, 0.000, 0.000, 16:54:02.934
84, -65521.05, -63137.24, 120477.75, 118641.49, -30056.21, -67752.94, -78922.91, 137781.98, 73303.28, 15231.55, 170120.27, 1118.17, 8086.26, -2862.68, 132412.53, -4012.29, 0.000, 0.000, 0.000, 16:54:02.934
85, -65523.98, -63140.41, 120469.77, 118632.51, -30063.50, -67760.00, -78912.14, 137777.69, 73303.28, 15231.55, 170120.27, 1118.17, 8086.26, -2862.68, 132412.53, -4012.29, 0.000, 0.000, 0.000, 16:54:02.935
86, -65523.98, -63140.41, 120469.77, 118632.51, -30063.50, -67760.00, -78912.14, 137777.69, 73305.59, 15226.41, 170121.09, 1110.01, 8084.42, -2864.89, 132421.98, -4021.08, 0.000, 0.000, 0.000, 16:54:02.935
87, -65523.46, -63144.44, 120469.66, 118633.31, -30067.48, -67750.39, -78913.48, 137794.05, 73305.59, 15226.41, 170121.09, 1110.01, 8084.42, -2864.89, 132421.98, -4021.08, 0.000, 0.000, 0.000, 16:54:02.936
88, -65523.46, -63144.44, 120469.66, 118633.31, -30067.48, -67750.39, -78913.48, 137794.05, 73306.48, 15224.85, 170122.66, 1118.03, 8089.57, -2866.28, 132435.28, -4012.32, 0.072, 0.918, -0.206, 16:54:02.936
89, -65516.34, -63135.94, 120469.55, 118633.76, -30066.20, -67732.06, -78917.75, 137792.63, 73306.48, 15224.85, 170122.66, 1118.03, 8089.57, -2866.28, 132435.28, -4012.32, 0.000, 0.000, 0.000, 16:54:02.937
90, -65516.34, -63135.94, 120469.55, 118633.76, -30066.20, -67732.06, -78917.75, 137792.63, 73303.48, 15229.70, 170126.92, 1120.25, 8085.97, -2868.00, 132447.45, -4012.85, 0.000, 0.000, 0.000, 16:54:02.937
91, -65506.77, -63125.64, 120472.10, 118632.15, -30051.43, -67722.12, -78916.99, 137786.98, 73303.48, 15229.70, 170126.92, 1120.25, 8085.97, -2868.00, 132447.45, -4012.85, 0.000, 0.000, 0.000, 16:54:02.938
92, -65506.77, -63125.64, 120472.10, 118632.15, -30051.43, -67722.12, -78916.99, 137786.98, 73298.70, 15219.17, 170123.02, 1111.51, 8078.66, -2872.58, 132471.19, -4023.83, 0.000, 0.000, 0.000, 16:54:02.938
93, -65517.16, -63127.80, 120477.71, 118637.04, -30053.08, -67730.84, -78925.73, 137786.92, 73298.70, 15219.17, 170123.02, 1111.51, 8078.66, -2872.58, 132471.19, -4023.83, 0.000, 0.000, 0.000, 16:54:02.939
94, -65517.16, -63127.80, 120477.71, 118637.04, -30053.08, -67730.84, -78925.73, 137786.92, 73306.92, 15219.77, 170131.27, 1120.49, 8091.00, -2857.83, 132479.97, -4021.15, 0.000, 0.000, 0.000, 16:54:02.939
95, -65520.67, -63130.91, 120475.14, 118632.38, -30053.57, -67734.70, -78926.13, 137785.20, 73306.92, 15219.77, 170131.27, 1120.49, 8091.00, -2857.83, 132479.97, -4021.15, 0.000, 0.000, 0.000, 16:54:02.939
96, -65520.67, -63130.91, 120475.14, 118632.38, -30053.57, -67734.70, -78926.13, 137785.20, 73305.36, 15215.41, 170120.42, 1113.07, 8085.10, -2868.87, 132494.92, -4019.72, 0.000, 0.000, 0.000, 16:54:02.940
97, -65521.14, -63129.37, 120473.51, 118633.55, -30052.84, -67734.45, -78921.05, 137786.72, 73305.36, 15215.41, 170120.42, 1113.07, 8085.10, -2868.87, 132494.92, -4019.72, 0.000, 0.000, 0.000, 16:54:02.940
98, -65521.14, -63129.37, 120473.51, 118633.55, -30052.84, -67734.45, -78921.05, 137786.72, 73308.55, 15214.05, 170127.38, 1111.35, 8085.27, -2861.63, 132504.20, -4018.73, 0.062, 0.920, -0.206, 16:54:02.940
99, -65526.71, -63133.26, 120473.35, 118635.10, -30062.60, -67735.44, -78926.31, 137786.83, 73308.55, 15214.05, 170127.38, 1111.35, 8085.27, -2861.63, 132504.20, -4018.73, 0.000, 0.000, 0.000, 16:54:02.941
100, -65526.71, -63133.26, 120473.35, 118635.10, -30062.60, -67735.44, -78926.31, 137786.83, 73301.96, 15197.44, 170126.81, 1102.77, 8073.87, -2863.15, 132500.28, -4030.15, 0.000, 0.000, 0.000, 16:54:02.941
101, -65541.08, -63135.99, 120472.45, 118638.14, -30073.51, -67737.32, -78922.51, 137784.70, 73301.96, 15197.44, 170126.81, 1102.77, 8073.87, -2863.15, 132500.28, -4030.15, 0.000, 0.000, 0.000, 16:54:02.941
102, -65541.08, -63135.99, 120472.45, 118638.14, -30073.51, -67737.32, -78922.51, 137784.70, 73299.13, 15187.05, 170122.19, 1102.19, 8064.80, -2863.21, 132487.72, -4034.91, 0.000, 0.000, 0.000, 16:54:02.942
103, -65549.80, -63133.77, 120469.02, 118637.31, -30069.71, -67737.77, -78926.94, 137781.11, 73299.13, 15187.05, 170122.19, 1102.19, 8064.80, -2863.21, 132487.72, -4034.91, 0.000, 0.000, 0.000, 16:54:02.943
104, -65549.80, -63133.77, 120469.02, 118637.31, -30069.71, -67737.77, -78926.94, 137781.11, 73298.56, 15183.41, 170124.28, 1097.49, 8066.32, -2856.40, 132471.34, -4037.40, 0.000, 0.000, 0.000, 16:54:02.944
105, -65567.16, -63138.82, 120475.85, 118641.18, -30081.56, -67738.50, -78930.34, 137782.89, 73298.56, 15183.41, 170124.28, 1097.49, 8066.32, -2856.40, 132471.34, -4037.40, 0.000, 0.000, 0.000, 16:54:02.944
106, -65567.16, -63138.82, 120475.85, 118641.18, -30081.56, -67738.50, -78930.34, 137782.89, 73300.84, 15186.18, 170128.20, 1104.29, 8073.49, -2859.93, 132446.02, -4029.91, 0.000, 0.000, 0.000, 16:54:02.944
107, -65572.66, -63138.89, 120475.59, 118636.39, -30084.31, -67733.74, -78921.34, 137789.84, 73300.84, 15186.18, 170128.20, 1104.29, 8073.49, -2859.93, 132446.02, -4029.91, 0.000, 0.000, 0.000, 16:54:03.372
108, -65572.66, -63138.89, 120475.59, 118636.39, -30084.31, -67733.74, -78921.34, 137789.84, 73300.95, 15174.67, 170126.34, 1100.62, 8081.68, -2858.90, 132434.55, -4030.58, 0.054, 0.928, -0.218, 16:54:03.372
109, -65571.81, -63139.36, 120482.54, 118634.90, -30092.76, -67726.50, -78922.62, 137788.31, 73300.95, 15174.67, 170126.34, 1100.62, 8081.68, -2858.90, 132434.55, -4030.58, 0.000, 0.000, 0.000, 16:54:03.373
110, -65571.81, -63139.36, 120482.54, 118634.90, -30092.76, -67726.50, -78922.62, 137788.31, 73287.12, 15157.99, 170112.22, 1080.30, 8066.39, -2877.03, 132430.70, -4044.46, 0.000, 0.000, 0.000, 16:54:03.373
111, -65565.42, -63141.04, 120479.20, 118629.40, -30078.00, -67728.89, -78926.69, 137780.66, 73287.12, 15157.99, 170112.22, 1080.30, 8066.39, -2877.03, 132430.70, -4044.46, 0.000, 0.000, 0.000, 16:54:03.373
112, -65565.42, -63141.04, 120479.20, 118629.40, -30078.00, -67728.89, -78926.69, 137780.66, 73288.88, 15157.75, 170111.34, 1080.28, 8071.30, -2876.49, 132449.61, -4039.52, 0.000, 0.000, 0.000, 16:54:03.374
113, -65561.45, -63135.07, 120479.90, 118636.38, -30061.58, -67728.48, -78927.88, 137788.80, 73288.88, 15157.75, 170111.34, 1080.28, 8071.30, -2876.49, 132449.61, -4039.52, 0.000, 0.000, 0.000, 16:54:03.374
114, -65561.45, -63135.07, 120479.90, 118636.38, -30061.58, -67728.48, -78927.88, 137788.80, 73295.86, 15160.99, 170123.72, 1088.64, 8076.02, -2859.59, 132475.55, -4028.52, 0.000, 0.000, 0.000, 16:54:03.374
115, -65567.21, -63137.95, 120486.02, 118645.09, -30058.13, -67721.89, -78930.00, 137794.30, 73295.86, 15160.99, 170123.72, 1088.64, 8076.02, -2859.59, 132475.55, -4028.52, 0.000, 0.000, 0.000, 16:54:03.375
116, -65567.21, -63137.95, 120486.02, 118645.09, -30058.13, -67721.89, -78930.00, 137794.30, 73300.13, 15167.49, 170132.80, 1099.86, 8087.31, -2848.73, 132476.03, -4019.51, 0.000, 0.000, 0.000, 16:54:03.375
117, -65560.93, -63137.02, 120487.81, 118651.93, -30048.61, -67713.47, -78913.59, 137791.28, 73300.13, 15167.49, 170132.80, 1099.86, 8087.31, -2848.73, 132476.03, -4019.51, 0.000, 0.000, 0.000, 16:54:03.376
118, -65560.93, -63137.02, 120487.81, 118651.93, -30048.61, -67713.47, -78913.59, 137791.28, 73291.39, 15158.10, 170120.50, 1091.97, 8079.75, -2854.50, 132474.19, -4022.22, 0.044, 0.920, -0.218, 16:54:03.376
119, -65557.59, -63141.26, 120490.23, 118653.07, -30048.99, -67719.63, -78924.70, 137793.72, 73291.39, 15158.10, 170120.50, 1091.97, 8079.75, -2854.50, 132474.19, -4022.22, 0.000, 0.000, 0.000, 16:54:03.376
120, -65557.59, -63141.26, 120490.23, 118653.07, -30048.99, -67719.63, -78924.70, 137793.72, 73287.19, 15151.42, 170115.92, 1083.28, 8073.32, -2867.89, 132482.31, -4031.11, 0.000, 0.000, 0.000, 16:54:03.377
121, -65551.74, -63144.73, 120491.92, 118647.34, -30048.41, -67721.67, -78916.72, 137792.00, 73287.19, 15151.42, 170115.92, 1083.28, 8073.32, -2867.89, 132482.31, -4031.11, 0.000, 0.000, 0.000, 16:54:03.377
122, -65551.74, -63144.73, 120491.92, 118647.34, -30048.41, -67721.67, -78916.72, 137792.00, 73291.13, 15151.38, 170114.25, 1076.91, 8076.85, -2860.58, 132493.06, -4025.75, 0.000, 0.000, 0.000, 16:54:03.377
123, -65556.10, -63148.79, 120490.92, 118648.30, -30046.24, -67726.79, -78911.65, 137790.13, 73291.13, 15151.38, 170114.25, 1076.91, 8076.85, -2860.58, 132493.06, -4025.75, 0.000, 0.000, 0.000, 16:54:03.378
124, -65556.10, -63148.79, 120490.92, 118648.30, -30046.24, -67726.79, -78911.65, 137790.13, 73293.98, 15153.74, 170113.02, 1077.49, 8070.16, -2863.33, 132503.78, -4024.23, 0.000, 0.000, 0.000, 16:54:03.378
125, -65565.63, -63159.05, 120480.52, 118646.56, -30052.95, -67726.43, -78918.48, 137789.38, 73293.98, 15153.74, 170113.02, 1077.49, 8070.16, -2863.33, 132503.78, -4024.23, 0.000, 0.000, 0.000, 16:54:03.378
126, -65565.63, -63159.05, 120480.52, 118646.56, -30052.95, -67726.43, -78918.48, 137789.38, 73288.84, 15152.27, 170111.44, 1074.27, 8062.30, -2865.31, 132510.09, -4034.49, 0.000, 0.000, 0.000, 16:54:03.379
127, -65568.48, -63165.16, 120486.09, 118650.66, -30052.79, -67716.82, -78913.14, 137783.14, 73288.84, 15152.27, 170111.44, 1074.27, 8062.30, -2865.31, 132510.09, -4034.49, 0.038, 0.916, -0.222, 16:54:03.379
128, -65568.48, -63165.16, 120486.09, 118650.66, -30052.79, -67716.82, -78913.14, 137783.14, 73293.18, 15150.37, 170119.48, 1069.08, 8070.50, -2861.16, 132511.11, -4026.96, 0.000, 0.000, 0.000, 16:54:03.379
129, -65580.33, -63172.13, 120488.46, 118655.08, -30066.72, -67714.45, -78919.70, 137789.30, 73293.18, 15150.37, 170119.48, 1069.08, 8070.50, -2861.16, 132511.11, -4026.96, 0.000, 0.000, 0.000, 16:54:03.379
130, -65580.33, -63172.13, 120488.46, 118655.08, -30066.72, -67714.45, -78919.70, 137789.30, 73284.64, 15150.21, 170117.73, 1063.29, 8063.50, -2862.32, 132492.36, -4037.37, 0.000, 0.000, 0.000, 16:54:03.380
131, -65581.40, -63166.25, 120486.43, 118656.58, -30048.07, -67716.80, -78923.49, 137797.58, 73284.64, 15150.21, 170117.73, 1063.29, 8063.50, -2862.32, 132492.36, -4037.37, 0.000, 0.000, 0.000, 16:54:03.381
132, -65581.40, -63166.25, 120486.43, 118656.58, -30048.07, -67716.80, -78923.49, 137797.58, 73289.34, 15156.74, 170122.67, 1058.47, 8063.32, -2851.39, 132497.72, -4041.89, 0.000, 0.000, 0.000, 16:54:03.381
133, -65588.27, -63170.68, 120486.41, 118660.29, -30046.91, -67719.46, -78921.95, 137803.28, 73289.34, 15156.74, 170122.67, 1058.47, 8063.32, -2851.39, 132497.72, -4041.89, 0.000, 0.000, 0.000, 16:54:03.382
134, -65588.27, -63170.68, 120486.41, 118660.29, -30046.91, -67719.46, -78921.95, 137803.28, 73288.64, 15149.34, 170117.63, 1054.91, 8059.66, -2852.73, 132492.80, -4040.50, 0.000, 0.000, 0.000, 16:54:03.383
135, -65595.62, -63185.74, 120479.54, 118654.57, -30047.99, -67720.42, -78930.38, 137791.61, 73288.64, 15149.34, 170117.63, 1054.91, 8059.66, -2852.73, 132492.80, -4040.50, 0.000, 0.000, 0.000, 16:54:03.383
136, -65595.62, -63185.74, 120479.54, 118654.57, -30047.99, -67720.42, -78930.38, 137791.61, 73291.77, 15146.28, 170116.42, 1052.10, 8062.30, -2852.66, 132476.59, -4055.81, 0.000, 0.000, 0.000, 16:54:03.383
137, -65599.48, -63183.73, 120484.88, 118652.02, -30051.03, -67723.62, -78945.35, 137829.92, 73291.77, 15146.28, 170116.42, 1052.10, 8062.30, -2852.66, 132476.59, -4055.81, 0.028, 0.920, -0.212, 16:54:03.383
138, -65599.48, -63183.73, 120484.88, 118652.02, -30051.03, -67723.62, -78945.35, 137829.92, 73286.67, 15155.17, 170125.41, 1057.01, 8074.86, -2841.69, 132454.69, -4046.94, 0.000, 0.000, 0.000, 16:54:03.384
139, -65589.91, -63168.08, 120491.16, 118654.03, -30040.56, -67734.16, -78927.92, 137836.94, 73286.67, 15155.17, 170125.41, 1057.01, 8074.86, -2841.69, 132454.69, -4046.94, 0.000, 0.000, 0.000, 16:54:03.384
140, -65589.91, -63168.08, 120491.16, 118654.03, -30040.56, -67734.16, -78927.92, 137836.94, 73272.88, 15134.37, 170103.20, 1045.12, 8053.80, -2856.64, 132460.30, -4048.01, 0.000, 0.000, 0.000, 16:54:03.384
141, -65594.84, -63168.62, 120491.45, 118659.23, -30043.89, -67737.95, -78932.37, 137837.77, 73272.88, 15134.37, 170103.20, 1045.12, 8053.80, -2856.64, 132460.30, -4048.01, 0.000, 0.000, 0.000, 16:54:03.385
142, -65594.84, -63168.62, 120491.45, 118659.23, -30043.89, -67737.95, -78932.37, 137837.77, 73284.48, 15141.14, 170125.31, 1057.01, 8074.10, -2843.10, 132454.64, -4036.46, 0.000, 0.000, 0.000, 16:54:03.385
143, -65601.32, -63165.47, 120497.85, 118668.07, -30044.59, -67729.98, -78927.94, 137843.72, 73284.48, 15141.14, 170125.31, 1057.01, 8074.10, -2843.10, 132454.64, -4036.46, 0.000, 0.000, 0.000, 16:54:03.385
144, -65601.32, -63165.47, 120497.85, 118668.07, -30044.59, -67729.98, -78927.94, 137843.72, 73279.01, 15142.97, 170121.77, 1050.60, 8065.11, -2846.34, 132452.91, -4039.45, 0.000, 0.000, 0.000, 16:54:03.386
145, -65604.24, -63166.05, 120497.24, 118672.88, -30052.39, -67731.53, -78927.61, 137837.13, 73279.01, 15142.97, 170121.77, 1050.60, 8065.11, -2846.34, 132452.91, -4039.45, 0.000, 0.000, 0.000, 16:54:03.386
146, -65604.24, -63166.05, 120497.24, 118672.88, -30052.39, -67731.53, -78927.61, 137837.13, 73281.09, 15144.54, 170124.83, 1053.37, 8067.68, -2844.15, 132452.20, -4032.41, 0.000, 0.000, 0.000, 16:54:03.386
147, -65602.91, -63166.70, 120504.02, 118674.99, -30052.95, -67728.80, -78944.84, 137834.70, 73281.09, 15144.54, 170124.83, 1053.37, 8067.68, -2844.15, 132452.20, -4032.41, 0.022, 0.922, -0.220, 16:54:03.387
148, -65602.91, -63166.70, 120504.02, 118674.99, -30052.95, -67728.80, -78944.84, 137834.70, 73284.39, 15149.32, 170128.06, 1058.51, 8071.82, -2836.55, 132448.41, -4026.98, 0.000, 0.000, 0.000, 16:54:03.387
149, -65597.36, -63170.16, 120505.47, 118677.66, -30057.31, -67727.82, -78941.46, 137831.63, 73284.39, 15149.32, 170128.06, 1058.51, 8071.82, -2836.55, 132448.41, -4026.98, 0.000, 0.000, 0.000, 16:54:03.387
150, -65597.36, -63170.16, 120505.47, 118677.66, -30057.31, -67727.82, -78941.46, 137831.63, 73269.95, 15137.18, 170111.34, 1038.93, 8054.96, -2850.45, 132449.77, -4038.76, 0.000, 0.000, 0.000, 16:54:03.387
151, -65586.99, -63171.01, 120503.44, 118677.45, -30053.80, -67724.95, -78931.43, 137825.56, 73269.95, 15137.18, 170111.34, 1038.93, 8054.96, -2850.45, 132449.77, -4038.76, 0.000, 0.000, 0.000, 16:54:03.388
152, -65586.99, -63171.01, 120503.44, 118677.45, -30053.80, -67724.95, -78931.43, 137825.56, 73274.89, 15138.77, 170112.08, 1041.03, 8054.96, -2848.46, 132462.94, -4059.99, 0.000, 0.000, 0.000, 16:54:03.388
153, -65583.70, -63172.46, 120500.04, 118675.16, -30055.34, -67728.80, -78956.22, 137800.05, 73274.89, 15138.77, 170112.08, 1041.03, 8054.96, -2848.46, 132462.94, -4059.99, 0.000, 0.000, 0.000, 16:54:03.388
154, -65583.70, -63172.46, 120500.04, 118675.16, -30055.34, -67728.80, -78956.22, 137800.05, 73268.63, 15146.70, 170106.58, 1034.30, 8046.27, -2842.27, 132485.95, -4070.05, 0.000, 0.000, 0.000, 16:54:03.389
155, -65576.93, -63164.60, 120505.70, 118687.91, -30050.06, -67719.59, -78947.39, 137828.08, 73268.63, 15146.70, 170106.58, 1034.30, 8046.27, -2842.27, 132485.95, -4070.05, 0.000, 0.000, 0.000, 16:54:03.389
156, -65576.93, -63164.60, 120505.70, 118687.91, -30050.06, -67719.59, -78947.39, 137828.08, 73270.23, 15154.48, 170116.80, 1046.44, 8057.31, -2827.18, 132499.70, -4055.61, 0.000, 0.000, 0.000, 16:54:03.389
157, -65571.26, -63154.74, 120508.64, 118697.70, -30039.94, -67708.48, -78941.53, 137847.30, 73270.23, 15154.48, 170116.80, 1046.44, 8057.31, -2827.18, 132499.70, -4055.61, 0.024, 0.914, -0.222, 16:54:03.389
158, -65571.26, -63154.74, 120508.64, 118697.70, -30039.94, -67708.48, -78941.53, 137847.30, 73260.21, 15159.87, 170107.39, 1040.72, 8047.90, -2829.22, 132508.25, -4045.44, 0.000, 0.000, 0.000, 16:54:03.390
159, -65570.38, -63151.21, 120503.16, 118685.73, -30033.14, -67720.93, -78946.05, 137827.94, 73260.21, 15159.87, 170107.39, 1040.72, 8047.90, -2829.22, 132508.25, -4045.44, 0.000, 0.000, 0.000, 16:54:03.390
160, -65570.38, -63151.21, 120503.16, 118685.73, -30033.14, -67720.93, -78946.05, 137827.94, 73269.44, 15158.51, 170106.72, 1038.15, 8050.87, -2820.21, 132504.69, -4050.05, 0.000, 0.000, 0.000, 16:54:03.390
161, -65575.32, -63155.32, 120502.52, 118680.59, -30043.13, -67722.54, -78958.18, 137816.56, 73269.44, 15158.51, 170106.72, 1038.15, 8050.87, -2820.21, 132504.69, -4050.05, 0.000, 0.000, 0.000, 16:54:03.391
162, -65575.32, -63155.32, 120502.52, 118680.59, -30043.13, -67722.54, -78958.18, 137816.56, 73260.55, 15151.33, 170100.59, 1029.50, 8047.48, -2820.72, 132491.09, -4060.66, 0.000, 0.000, 0.000, 16:54:03.391
163, -65579.91, -63155.50, 120511.28, 118690.59, -30054.24, -67717.96, -78962.72, 137824.11, 73260.55, 15151.33, 170100.59, 1029.50, 8047.48, -2820.72, 132491.09, -4060.66, 0.000, 0.000, 0.000, 16:54:03.391
164, -65579.91, -63155.50, 120511.28, 118690.59, -30054.24, -67717.96, -78962.72, 137824.11, 73258.45, 15156.16, 170104.14, 1035.98, 8046.18, -2820.37, 132484.80, -4063.37, 0.000, 0.000, 0.000, 16:54:03.392
165, -65571.52, -63150.05, 120505.16, 118684.85, -30042.96, -67724.40, -78963.13, 137826.78, 73258.45, 15156.16, 170104.14, 1035.98, 8046.18, -2820.37, 132484.80, -4063.37, 0.000, 0.000, 0.000, 16:54:03.392
166, -65571.52, -63150.05, 120505.16, 118684.85, -30042.96, -67724.40, -78963.13, 137826.78, 73265.62, 15160.25, 170101.64, 1031.56, 8049.71, -2817.17, 132499.11, -4063.03, 0.000, 0.000, 0.000, 16:54:03.392
167, -65583.15, -63159.41, 120503.13, 118681.86, -30052.90, -67731.05, -78968.78, 137829.61, 73265.62, 15160.25, 170101.64, 1031.56, 8049.71, -2817.17, 132499.11, -4063.03, 0.016, 0.922, -0.216, 16:54:03.392
168, -65583.15, -63159.41, 120503.13, 118681.86, -30052.90, -67731.05, -78968.78, 137829.61, 73264.57, 15159.78, 170096.52, 1030.97, 8047.10, -2809.08, 132492.91, -4058.56, 0.000, 0.000, 0.000, 16:54:03.393
169, -65574.63, -63163.34, 120500.17, 118685.63, -30046.44, -67722.79, -78968.06, 137833.75, 73264.57, 15159.78, 170096.52, 1030.97, 8047.10, -2809.08, 132492.91, -4058.56, 0.000, 0.000, 0.000, 16:54:03.393
170, -65574.63, -63163.34, 120500.17, 118685.63, -30046.44, -67722.79, -78968.06, 137833.75, 73257.26, 15151.98, 170097.27, 1025.32, 8043.86, -2806.66, 132494.94, -4054.43, 0.000, 0.000, 0.000, 16:54:03.393
171, -65566.25, -63160.51, 120505.13, 118689.95, -30041.68, -67720.33, -78974.63, 137827.80, 73257.26, 15151.98, 170097.27, 1025.32, 8043.86, -2806.66, 132494.94, -4054.43, 0.000, 0.000, 0.000, 16:54:03.394
172, -65566.25, -63160.51, 120505.13, 118689.95, -30041.68, -67720.33, -78974.63, 137827.80, 73264.77, 15153.39, 170109.47, 1033.10, 8050.79, -2800.18, 132501.22, -4050.31, 0.000, 0.000, 0.000, 16:54:03.394
173, -65572.93, -63161.33, 120511.39, 118694.15, -30046.82, -67722.41, -78975.75, 137830.94, 73264.77, 15153.39, 170109.47, 1033.10, 8050.79, -2800.18, 132501.22, -4050.31, 0.000, 0.000, 0.000, 16:54:03.394
174, -65572.93, -63161.33, 120511.39, 118694.15, -30046.82, -67722.41, -78975.75, 137830.94, 73267.43, 15161.86, 170114.34, 1036.14, 8058.21, -2790.68, 132495.13, -4050.76, 0.000, 0.000, 0.000, 16:54:03.395
175, -65575.57, -63154.67, 120516.66, 118700.21, -30049.53, -67716.82, -78973.27, 137831.14, 73267.43, 15161.86, 170114.34, 1036.14, 8058.21, -2790.68, 132495.13, -4050.76, 0.000, 0.000, 0.000, 16:54:03.395
176, -65575.57, -63154.67, 120516.66, 118700.21, -30049.53, -67716.82, -78973.27, 137831.14, 73256.70, 15155.44, 170099.39, 1022.73, 8044.33, -2801.48, 132488.44, -4057.87, 0.000, 0.000, 0.000, 16:54:03.395
177, -65567.37, -63153.60, 120512.58, 118692.92, -30034.75, -67721.13, -78972.84, 137835.00, 73256.70, 15155.44, 170099.39, 1022.73, 8044.33, -2801.48, 132488.44, -4057.87, 0.012, 0.926, -0.214, 16:54:03.395
178, -65567.37, -63153.60, 120512.58, 118692.92, -30034.75, -67721.13, -78972.84, 137835.00, 73254.11, 15147.93, 170091.42, 1011.39, 8041.40, -2806.02, 132499.06, -4059.95, 0.000, 0.000, 0.000, 16:54:03.396
179, -65573.29, -63153.36, 120508.71, 118691.11, -30035.22, -67719.70, -78979.80, 137824.11, 73254.11, 15147.93, 170091.42, 1011.39, 8041.40, -2806.02, 132499.06, -4059.95, 0.000, 0.000, 0.000, 16:54:03.396
180, -65573.29, -63153.36, 120508.71, 118691.11, -30035.22, -67719.70, -78979.80, 137824.11, 73261.64, 15162.39, 170103.03, 1016.60, 8051.01, -2787.98, 132506.36, -4055.21, 0.000, 0.000, 0.000, 16:54:03.396
181, -65567.48, -63141.71, 120513.70, 118694.62, -30032.32, -67716.62, -78990.86, 137824.86, 73261.64, 15162.39, 170103.03, 1016.60, 8051.01, -2787.98, 132506.36, -4055.21, 0.000, 0.000, 0.000, 16:54:03.397
182, -65567.48, -63141.71, 120513.70, 118694.62, -30032.32, -67716.62, -78990.86, 137824.86, 73252.34, 15162.44, 170093.97, 1013.90, 8039.14, -2794.59, 132510.55, -4059.81, 0.000, 0.000, 0.000, 16:54:03.397
183, -65569.76, -63137.51, 120520.91, 118701.04, -30049.57, -67716.51, -78991.69, 137829.14, 73252.34, 15162.44, 170093.97, 1013.90, 8039.14, -2794.59, 132510.55, -4059.81, 0.000, 0.000, 0.000, 16:54:03.398
184, -65569.76, -63137.51, 120520.91, 118701.04, -30049.57, -67716.51, -78991.69, 137829.14, 73256.39, 15169.57, 170108.17, 1019.84, 8051.28, -2785.92, 132494.56, -4059.39, 0.000, 0.000, 0.000, 16:54:03.398
185, -65571.61, -63133.04, 120529.45, 118710.52, -30047.63, -67710.02, -78977.72, 137837.08, 73256.39, 15169.57, 170108.17, 1019.84, 8051.28, -2785.92, 132494.56, -4059.39, 0.000, 0.000, 0.000, 16:54:03.398
186, -65571.61, -63133.04, 120529.45, 118710.52, -30047.63, -67710.02, -78977.72, 137837.08, 73243.45, 15161.21, 170099.91, 1011.08, 8037.58, -2794.48, 132489.09, -4067.88, 0.000, 0.000, 0.000, 16:54:03.399
187, -65572.17, -63135.16, 120524.65, 118710.91, -30039.47, -67711.92, -78985.14, 137837.97, 73243.45, 15161.21, 170099.91, 1011.08, 8037.58, -2794.48, 132489.09, -4067.88, 0.004, 0.938, -0.210, 16:54:03.399
188, -65572.17, -63135.16, 120524.65, 118710.91, -30039.47, -67711.92, -78985.14, 137837.97, 73241.32, 15152.25, 170092.30, 1001.18, 8034.60, -2801.52, 132506.75, -4061.58, 0.000, 0.000, 0.000, 16:54:03.399
189, -65574.18, -63136.66, 120522.30, 118702.13, -30034.24, -67709.51, -78992.78, 137841.02, 73241.32, 15152.25, 170092.30, 1001.18, 8034.60, -2801.52, 132506.75, -4061.58, 0.000, 0.000, 0.000, 16:54:03.400
190, -65574.18, -63136.66, 120522.30, 118702.13, -30034.24, -67709.51, -78992.78, 137841.02, 73244.88, 15157.59, 170092.13, 994.47, 8041.93, -2796.56, 132529.39, -4057.85, 0.000, 0.000, 0.000, 16:54:03.400
191, -65580.69, -63135.65, 120518.14, 118700.34, -30044.30, -67716.91, -78971.17, 137836.86, 73244.88, 15157.59, 170092.13, 994.47, 8041.93, -2796.56, 132529.39, -4057.85, 0.000, 0.000, 0.000, 16:54:03.400
192, -65580.69, -63135.65, 120518.14, 118700.34, -30044.30, -67716.91, -78971.17, 137836.86, 73242.59, 15154.15, 170089.64, 992.80, 8040.03, -2796.49, 132540.13, -4058.81, 0.000, 0.000, 0.000, 16:54:03.401
193, -65577.53, -63132.05, 120516.35, 118702.84, -30046.18, -67722.66, -78974.79, 137833.48, 73242.59, 15154.15, 170089.64, 992.80, 8040.03, -2796.49, 132540.13, -4058.81, 0.000, 0.000, 0.000, 16:54:03.401
194, -65577.53, -63132.05, 120516.35, 118702.84, -30046.18, -67722.66, -78974.79, 137833.48, 73241.23, 15151.55, 170091.81, 992.89, 8041.44, -2790.12, 132549.38, -4068.51, 0.000, 0.000, 0.000, 16:54:03.401
195, -65581.36, -63134.42, 120513.94, 118706.09, -30057.42, -67723.10, -78988.67, 137823.80, 73241.23, 15151.55, 170091.81, 992.89, 8041.44, -2790.12, 132549.38, -4068.51, 0.000, 0.000, 0.000, 16:54:03.402
196, -65581.36, -63134.42, 120513.94, 118706.09, -30057.42, -67723.10, -78988.67, 137823.80, 73240.14, 15153.21, 170089.33, 990.34, 8034.51, -2787.62, 132544.77, -4076.44, 0.000, 0.000, 0.000, 16:54:03.402
197, -65582.90, -63138.09, 120515.55, 118714.05, -30059.92, -67722.14, -78985.63, 137822.33, 73240.14, 15153.21, 170089.33, 990.34, 8034.51, -2787.62, 132544.77, -4076.44, -0.006, 0.934, -0.204, 16:54:03.402
198, -65582.90, -63138.09, 120515.55, 118714.05, -30059.92, -67722.14, -78985.63, 137822.33, 73234.02, 15144.02, 170079.56, 982.38, 8029.64, -2793.86, 132557.64, -4071.19, 0.000, 0.000, 0.000, 16:54:03.403
199, -65592.98, -63147.25, 120517.49, 118716.48, -30066.87, -67718.41, -78991.87, 137818.69, 73234.02, 15144.02, 170079.56, 982.38, 8029.64, -2793.86, 132557.64, -4071.19, 0.000, 0.000, 0.000, 16:54:03.403
200, -65592.98, -63147.25, 120517.49, 118716.48, -30066.87, -67718.41, -78991.87, 137818.69, 73240.09, 15143.37, 170088.08, 987.88, 8041.08, -2781.85, 132558.17, -4071.03, 0.000, 0.000, 0.000, 16:54:03.404
201, -65614.04, -63149.82, 120520.67, 118723.43, -30077.49, -67709.89, -78997.77, 137829.19, 73240.09, 15143.37, 170088.08, 987.88, 8041.08, -2781.85, 132558.17, -4071.03, 0.000, 0.000, 0.000, 16:54:03.404
202, -65614.04, -63149.82, 120520.67, 118723.43, -30077.49, -67709.89, -78997.77, 137829.19, 73242.10, 15151.58, 170086.22, 988.55, 8047.41, -2771.50, 132541.17, -4071.77, 0.000, 0.000, 0.000, 16:54:03.404
203, -65617.81, -63146.98, 120512.96, 118722.34, -30064.10, -67709.69, -78989.30, 137828.42, 73242.10, 15151.58, 170086.22, 988.55, 8047.41, -2771.50, 132541.17, -4071.77, 0.000, 0.000, 0.000, 16:54:03.405
204, -65617.81, -63146.98, 120512.96, 118722.34, -30064.10, -67709.69, -78989.30, 137828.42, 73241.50, 15156.67, 170087.67, 987.50, 8046.94, -2769.43, 132535.84, -4076.78, 0.000, 0.000, 0.000, 16:54:03.405
205, -65627.96, -63143.95, 120517.88, 118738.63, -30077.45, -67700.46, -78991.55, 137828.83, 73241.50, 15156.67, 170087.67, 987.50, 8046.94, -2769.43, 132535.84, -4076.78, 0.000, 0.000, 0.000, 16:54:03.406
206, -65627.96, -63143.95, 120517.88, 118738.63, -30077.45, -67700.46, -78991.55, 137828.83, 73233.01, 15164.56, 170088.55, 993.78, 8045.73, -2763.52, 132523.27, -4083.80, 0.000, 0.000, 0.000, 16:54:03.406
207, -65621.75, -63134.63, 120513.09, 118746.81, -30066.94, -67697.77, -78995.29, 137833.22, 73233.01, 15164.56, 170088.55, 993.78, 8045.73, -2763.52, 132523.27, -4083.80, -0.002, 0.930, -0.198, 16:54:03.406
208, -65621.75, -63134.63, 120513.09, 118746.81, -30066.94, -67697.77, -78995.29, 137833.22, 73229.85, 15163.56, 170089.03, 993.96, 8037.84, -2764.46, 132524.53, -4089.61, 0.000, 0.000, 0.000, 16:54:03.406
209, -65621.37, -63135.56, 120510.90, 118743.68, -30069.35, -67704.30, -79008.12, 137824.36, 73229.85, 15163.56, 170089.03, 993.96, 8037.84, -2764.46, 132524.53, -4089.61, 0.000, 0.000, 0.000, 16:54:03.407
210, -65621.37, -63135.56, 120510.90, 118743.68, -30069.35, -67704.30, -79008.12, 137824.36, 73225.05, 15156.23, 170079.72, 988.95, 8032.26, -2775.59, 132512.61, -4102.42, 0.000, 0.000, 0.000, 16:54:03.408
211, -65621.50, -63138.69, 120515.22, 118743.33, -30066.83, -67707.43, -78978.55, 137828.50, 73225.05, 15156.23, 170079.72, 988.95, 8032.26, -2775.59, 132512.61, -4102.42, 0.000, 0.000, 0.000, 16:54:03.408
212, -65621.50, -63138.69, 120515.22, 118743.33, -30066.83, -67707.43, -78978.55, 137828.50, 73222.16, 15158.46, 170078.28, 983.10, 8039.34, -2765.63, 132509.05, -4091.42, 0.000, 0.000, 0.000, 16:54:03.408
213, -65619.76, -63138.25, 120519.55, 118740.77, -30065.46, -67682.24, -78956.77, 137839.53, 73222.16, 15158.46, 170078.28, 983.10, 8039.34, -2765.63, 132509.05, -4091.42, 0.000, 0.000, 0.000, 16:54:03.409
214, -65619.76, -63138.25, 120519.55, 118740.77, -30065.46, -67682.24, -78956.77, 137839.53, 73220.49, 15156.92, 170072.61, 977.89, 8035.83, -2766.32, 132498.44, -4090.93, 0.000, 0.000, 0.000, 16:54:03.409
215, -65617.43, -63137.62, 120510.81, 118727.68, -30071.25, -67694.09, -78959.57, 137829.05, 73220.49, 15156.92, 170072.61, 977.89, 8035.83, -2766.32, 132498.44, -4090.93, 0.000, 0.000, 0.000, 16:54:03.409
216, -65617.43, -63137.62, 120510.81, 118727.68, -30071.25, -67694.09, -78959.57, 137829.05, 73224.89, 15155.76, 170083.41, 985.47, 8043.30, -2765.04, 132486.58, -4113.57, -0.002, 0.920, -0.194, 16:54:03.410
217, -65620.80, -63142.91, 120507.44, 118729.71, -30079.88, -67690.06, -78968.04, 137827.61, 73224.89, 15155.76, 170083.41, 985.47, 8043.30, -2765.04, 132486.58, -4113.57, 0.000, 0.000, 0.000, 16:54:03.410
218, -65620.80, -63142.91, 120507.44, 118729.71, -30079.88, -67690.06, -78968.04, 137827.61, 73214.48, 15150.88, 170070.38, 986.18, 8028.57, -2766.14, 132457.13, -4130.78, 0.000, 0.000, 0.000, 16:54:03.411
219, -65606.13, -63138.63, 120506.72, 118735.21, -30063.45, -67685.84, -78957.55, 137837.17, 73214.48, 15150.88, 170070.38, 986.18, 8028.57, -2766.14, 132457.13, -4130.78, 0.000, 0.000, 0.000, 16:54:03.411
220, -65606.13, -63138.63, 120506.72, 118735.21, -30063.45, -67685.84, -78957.55, 137837.17, 73213.47, 15150.68, 170065.05, 993.58, 8027.18, -2758.29, 132462.36, -4136.12, 0.000, 0.000, 0.000, 16:54:03.412
221, -65612.00, -63140.28, 120519.71, 118751.71, -30075.21, -67671.98, -78949.35, 137839.50, 73213.47, 15150.68, 170065.05, 993.58, 8027.18, -2758.29, 132462.36, -4136.12, 0.000, 0.000, 0.000, 16:54:03.412
222, -65612.00, -63140.28, 120519.71, 118751.71, -30075.21, -67671.98, -78949.35, 137839.50, 73223.69, 15168.21, 170079.06, 1004.84, 8045.35, -2737.31, 132450.69, -4134.36, 0.000, 0.000, 0.000, 16:54:03.412
223, -65610.08, -63137.93, 120524.71, 118754.75, -30068.88, -67667.65, -78944.75, 137837.64, 73223.69, 15168.21, 170079.06, 1004.84, 8045.35, -2737.31, 132450.69, -4134.36, 0.000, 0.000, 0.000, 16:54:03.413
224, -65610.08, -63137.93, 120524.71, 118754.75, -30068.88, -67667.65, -78944.75, 137837.64, 73218.16, 15164.67, 170071.58, 998.72, 8037.82, -2742.74, 132442.78, -4132.08, 0.000, 0.000, 0.000, 16:54:03.413
225, -65607.27, -63137.80, 120526.77, 118742.30, -30060.73, -67673.44, -78947.81, 137833.22, 73218.16, 15164.67, 170071.58, 998.72, 8037.82, -2742.74, 132442.78, -4132.08, 0.000, 0.000, 0.000, 16:54:03.414
226, -65607.27, -63137.80, 120526.77, 118742.30, -30060.73, -67673.44, -78947.81, 137833.22, 73210.19, 15150.10, 170065.66, 986.43, 8031.09, -2758.45, 132441.59, -4160.51, -0.002, 0.912, -0.192, 16:54:03.414
227, -65610.68, -63142.83, 120524.71, 118725.71, -30056.46, -67678.29, -78947.56, 137822.69, 73210.19, 15150.10, 170065.66, 986.43, 8031.09, -2758.45, 132441.59, -4160.51, 0.000, 0.000, 0.000, 16:54:03.716
228, -65610.68, -63142.83, 120524.71, 118725.71, -30056.46, -67678.29, -78947.56, 137822.69, 73210.68, 15147.35, 170057.75, 990.90, 8030.06, -2761.25, 132441.45, -4181.50, 0.000, 0.000, 0.000, 16:54:03.716
229, -65596.73, -63137.02, 120517.49, 118719.99, -30040.95, -67677.73, -78936.45, 137821.72, 73210.68, 15147.35, 170057.75, 990.90, 8030.06, -2761.25, 132441.45, -4181.50, 0.000, 0.000, 0.000, 16:54:03.717
230, -65596.73, -63137.02, 120517.49, 118719.99, -30040.95, -67677.73, -78936.45, 137821.72, 73209.59, 15144.11, 170042.00, 987.50, 8014.78, -2764.89, 132459.56, -4178.41, 0.000, 0.000, 0.000, 16:54:03.717
231, -65595.22, -63136.90, 120507.08, 118727.97, -30041.46, -67669.77, -78939.50, 137829.56, 73209.59, 15144.11, 170042.00, 987.50, 8014.78, -2764.89, 132459.56, -4178.41, 0.000, 0.000, 0.000, 16:54:03.717
232, -65595.22, -63136.90, 120507.08, 118727.97, -30041.46, -67669.77, -78939.50, 137829.56, 73215.35, 15151.62, 170050.86, 998.56, 8022.31, -2756.28, 132465.28, -4163.21, 0.000, 0.000, 0.000, 16:54:03.718
233, -65601.70, -63141.20, 120504.76, 118732.77, -30057.51, -67671.54, -78939.61, 137833.33, 73215.35, 15151.62, 170050.86, 998.56, 8022.31, -2756.28, 132465.28, -4163.21, 0.000, 0.000, 0.000, 16:54:03.718
234, -65601.70, -63141.20, 120504.76, 118732.77, -30057.51, -67671.54, -78939.61, 137833.33, 73223.30, 15157.77, 170066.53, 1004.26, 8034.49, -2756.62, 132459.86, -4171.71, 0.000, 0.000, 0.000, 16:54:03.718
235, -65620.36, -63147.34, 120508.11, 118734.70, -30071.68, -67658.23, -78947.66, 137827.69, 73223.30, 15157.77, 170066.53, 1004.26, 8034.49, -2756.62, 132459.86, -4171.71, 0.000, 0.000, 0.000, 16:54:03.719
236, -65620.36, -63147.34, 120508.11, 118734.70, -30071.68, -67658.23, -78947.66, 137827.69, 73210.45, 15139.93, 170050.02, 989.24, 8018.87, -2775.89, 132446.69, -4191.40, -0.002, 0.918, -0.190, 16:54:03.719
237, -65624.95, -63147.72, 120499.30, 118727.99, -30064.88, -67666.59, -78943.52, 137819.80, 73210.45, 15139.93, 170050.02, 989.24, 8018.87, -2775.89, 132446.69, -4191.40, 0.000, 0.000, 0.000, 16:54:03.720
238, -65624.95, -63147.72, 120499.30, 118727.99, -30064.88, -67666.59, -78943.52, 137819.80, 73204.87, 15127.46, 170035.14, 977.22, 8001.32, -2791.40, 132444.86, -4204.32, 0.000, 0.000, 0.000, 16:54:03.720
239, -65635.23, -63151.50, 120492.41, 118726.65, -30072.59, -67670.53, -78952.39, 137813.14, 73204.87, 15127.46, 170035.14, 977.22, 8001.32, -2791.40, 132444.86, -4204.32, 0.000, 0.000, 0.000, 16:54:03.720
240, -65635.23, -63151.50, 120492.41, 118726.65, -30072.59, -67670.53, -78952.39, 137813.14, 73212.96, 15140.04, 170045.47, 989.89, 8018.04, -2778.14, 132437.34, -4197.46, 0.000, 0.000, 0.000, 16:54:03.720
241, -65636.12, -63145.89, 120491.48, 118728.62, -30078.29, -67662.95, -78947.23, 137814.44, 73212.96, 15140.04, 170045.47, 989.89, 8018.04, -2778.14, 132437.34, -4197.46, 0.000, 0.000, 0.000, 16:54:03.721
242, -65636.12, -63145.89, 120491.48, 118728.62, -30078.29, -67662.95, -78947.23, 137814.44, 73209.29, 15133.81, 170033.20, 980.75, 8011.16, -2787.46, 132436.30, -4196.79, 0.000, 0.000, 0.000, 16:54:03.721
243, -65638.91, -63147.77, 120494.38, 118732.77, -30089.13, -67662.57, -78948.77, 137817.52, 73209.29, 15133.81, 170033.20, 980.75, 8011.16, -2787.46, 132436.30, -4196.79, 0.000, 0.000, 0.000, 16:54:03.721
244, -65638.91, -63147.77, 120494.38, 118732.77, -30089.13, -67662.57, -78948.77, 137817.52, 73205.72, 15129.92, 170039.58, 984.62, 8010.44, -2787.51, 132422.25, -4203.45, 0.000, 0.000, 0.000, 16:54:03.721
245, -65627.55, -63146.40, 120494.70, 118740.27, -30078.70, -67665.50, -78946.88, 137816.47, 73205.72, 15129.92, 170039.58, 984.62, 8010.44, -2787.51, 132422.25, -4203.45, 0.000, 0.000, 0.000, 16:54:03.721
246, -65627.55, -63146.40, 120494.70, 118740.27, -30078.70, -67665.50, -78946.88, 137816.47, 73188.08, 15114.63, 170025.17, 973.51, 7987.64, -2809.95, 132425.83, -4214.51, 0.000, 0.922, -0.198, 16:54:03.722
247, -65627.11, -63145.38, 120500.55, 118753.56, -30074.67, -67662.59, -78954.56, 137814.91, 73188.08, 15114.63, 170025.17, 973.51, 7987.64, -2809.95, 132425.83, -4214.51, 0.000, 0.000, 0.000, 16:54:03.722
248, -65627.11, -63145.38, 120500.55, 118753.56, -30074.67, -67662.59, -78954.56, 137814.91, 73190.45, 15118.45, 170030.63, 976.64, 7995.89, -2804.72, 132424.66, -4206.33, 0.000, 0.000, 0.000, 16:54:03.723
249, -65633.23, -63144.04, 120508.95, 118759.44, -30082.72, -67661.37, -78956.62, 137817.34, 73190.45, 15118.45, 170030.63, 976.64, 7995.89, -2804.72, 132424.66, -4206.33, 0.000, 0.000, 0.000, 16:54:03.723
250, -65633.23, -63144.04, 120508.95, 118759.44, -30082.72, -67661.37, -78956.62, 137817.34, 73193.22, 15116.42, 170024.03, 968.90, 7998.21, -2799.38, 132421.16, -4199.00, 0.000, 0.000, 0.000, 16:54:03.723
251, -65641.64, -63147.86, 120502.48, 118752.91, -30074.49, -67665.50, -78951.88, 137814.89, 73193.22, 15116.42, 170024.03, 968.90, 7998.21, -2799.38, 132421.16, -4199.00, 0.000, 0.000, 0.000, 16:54:03.724
252, -65641.64, -63147.86, 120502.48, 118752.91, -30074.49, -67665.50, -78951.88, 137814.89, 73188.66, 15114.50, 170006.14, 961.71, 7993.12, -2801.97, 132418.61, -4205.50, 0.000, 0.000, 0.000, 16:54:03.724
253, -65645.98, -63145.15, 120494.95, 118750.27, -30069.49, -67667.29, -78958.49, 137810.77, 73188.66, 15114.50, 170006.14, 961.71, 7993.12, -2801.97, 132418.61, -4205.50, 0.000, 0.000, 0.000, 16:54:03.724
254, -65645.98, -63145.15, 120494.95, 118750.27, -30069.49, -67667.29, -78958.49, 137810.77, 73191.59, 15117.92, 170007.58, 961.06, 7993.39, -2797.23, 132410.41, -4216.34, 0.000, 0.000, 0.000, 16:54:03.725
255, -65650.13, -63139.09, 120496.04, 118753.85, -30072.13, -67665.97, -78962.19, 137809.25, 73191.59, 15117.92, 170007.58, 961.06, 7993.39, -2797.23, 132410.41, -4216.34, 0.000, 0.000, 0.000, 16:54:03.725
0, -65650.13, -63139.09, 120496.04, 118753.85, -30072.13, -67665.97, -78962.19, 137809.25, 73181.20, 15114.27, 170000.97, 956.43, 7982.79, -2804.45, 132395.48, -4229.64, -0.002, 0.930, -0.204, 16:54:03.726
1, -65645.93, -63125.97, 120494.31, 118754.68, -30072.37, -67668.97, -78956.06, 137817.19, 73181.20, 15114.27, 170000.97, 956.43, 7982.79, -2804.45, 132395.48, -4229.64, 0.000, 0.000, 0.000, 16:54:03.726
2, -65645.93, -63125.97, 120494.31, 118754.68, -30072.37, -67668.97, -78956.06, 137817.19, 73166.96, 15100.55, 169987.02, 944.50, 7965.20, -2819.25, 132391.05, -4252.02, 0.000, 0.000, 0.000, 16:54:03.727
3, -65641.70, -63119.25, 120484.41, 118745.38, -30061.75, -67675.16, -78965.27, 137808.02, 73166.96, 15100.55, 169987.02, 944.50, 7965.20, -2819.25, 132391.05, -4252.02, 0.000, 0.000, 0.000, 16:54:03.727
4, -65641.70, -63119.25, 120484.41, 118745.38, -30061.75, -67675.16, -78965.27, 137808.02, 73175.61, 15107.23, 169990.53, 945.05, 7968.53, -2816.92, 132394.58, -4254.30, 0.000, 0.000, 0.000, 16:54:03.731
5, -65655.03, -63119.43, 120484.19, 118749.18, -30077.76, -67676.45, -78968.78, 137812.20, 73175.61, 15107.23, 169990.53, 945.05, 7968.53, -2816.92, 132394.58, -4254.30, 0.000, 0.000, 0.000, 16:54:03.731
6, -65655.03, -63119.43, 120484.19, 118749.18, -30077.76, -67676.45, -78968.78, 137812.20, 73170.47, 15107.23, 169977.75, 946.33, 7965.76, -2825.04, 132381.95, -4259.84, 0.000, 0.000, 0.000, 16:54:03.731
7, -65659.52, -63110.95, 120490.00, 118759.33, -30087.17, -67672.23, -78969.49, 137819.17, 73170.47, 15107.23, 169977.75, 946.33, 7965.76, -2825.04, 132381.95, -4259.84, 0.000, 0.000, 0.000, 16:54:03.732
8, -65659.52, -63110.95, 120490.00, 118759.33, -30087.17, -67672.23, -78969.49, 137819.17, 73166.53, 15112.44, 169977.56, 953.21, 7964.80, -2822.13, 132374.36, -4253.67, 0.000, 0.000, 0.000, 16:54:03.733
9, -65670.98, -63109.14, 120492.77, 118767.94, -30069.44, -67676.68, -78951.37, 137809.83, 73166.53, 15112.44, 169977.56, 953.21, 7964.80, -2822.13, 132374.36, -4253.67, 0.000, 0.000, 0.000, 16:54:03.733
10, -65670.98, -63109.14, 120492.77, 118767.94, -30069.44, -67676.68, -78951.37, 137809.83, 73168.12, 15105.06, 169980.08, 942.60, 7971.82, -2823.99, 132367.92, -4252.31, -0.004, 0.932, -0.206, 16:54:03.734
11, -65696.96, -63116.38, 120495.59, 118774.98, -30088.35, -67676.30, -78957.24, 137804.67, 73168.12, 15105.06, 169980.08, 942.60, 7971.82, -2823.99, 132367.92, -4252.31, 0.000, 0.000, 0.000, 16:54:03.734
12, -65696.96, -63116.38, 120495.59, 118774.98, -30088.35, -67676.30, -78957.24, 137804.67, 73167.70, 15108.84, 169982.11, 939.49, 7972.38, -2825.57, 132334.02, -4254.21, 0.000, 0.000, 0.000, 16:54:03.734
13, -65695.55, -63113.12, 120489.96, 118770.98, -30087.66, -67680.27, -78942.36, 137808.20, 73167.70, 15108.84, 169982.11, 939.49, 7972.38, -2825.57, 132334.02, -4254.21, 0.000, 0.000, 0.000, 16:54:03.734
14, -65695.55, -63113.12, 120489.96, 118770.98, -30087.66, -67680.27, -78942.36, 137808.20, 73157.13, 15105.02, 169965.55, 919.91, 7955.99, -2835.77, 132324.36, -4261.25, 0.000, 0.000, 0.000, 16:54:03.735
15, -65722.44, -63111.76, 120487.74, 118775.94, -30093.22, -67661.68, -78962.09, 137809.34, 73157.13, 15105.02, 169965.55, 919.91, 7955.99, -2835.77, 132324.36, -4261.25, 0.000, 0.000, 0.000, 16:54:03.735
16, -65722.44, -63111.76, 120487.74, 118775.94, -30093.22, -67661.68, -78962.09, 137809.34, 73165.93, 15122.94, 169978.03, 932.76, 7966.43, -2821.68, 132303.17, -4265.76, 0.000, 0.000, 0.000, 16:54:03.735
17, -65744.16, -63101.14, 120489.76, 118780.43, -30095.04, -67658.88, -78939.32, 137814.39, 73165.93, 15122.94, 169978.03, 932.76, 7966.43, -2821.68, 132303.17, -4265.76, 0.000, 0.000, 0.000, 16:54:03.736
18, -65744.16, -63101.14, 120489.76, 118780.43, -30095.04, -67658.88, -78939.32, 137814.39, 73158.27, 15115.99, 169966.59, 927.31, 7953.22, -2835.12, 132299.70, -4285.61, 0.000, 0.000, 0.000, 16:54:03.736
19, -65757.65, -63106.91, 120487.90, 118788.27, -30092.33, -67643.75, -78941.82, 137806.08, 73158.27, 15115.99, 169966.59, 927.31, 7953.22, -2835.12, 132299.70, -4285.61, 0.000, 0.000, 0.000, 16:54:03.736
20, -65757.65, -63106.91, 120487.90, 118788.27, -30092.33, -67643.75, -78941.82, 137806.08, 73159.89, 15111.25, 169968.45, 927.42, 7951.59, -2829.13, 132294.06, -4286.46, -0.002, 0.926, -0.208, 16:54:03.737
21, -65776.76, -63110.86, 120488.88, 118792.37, -30091.28, -67654.80, -78951.45, 137799.78, 73159.89, 15111.25, 169968.45, 927.42, 7951.59, -2829.13, 132294.06, -4286.46, 0.000, 0.000, 0.000, 16:54:03.737
22, -65776.76, -63110.86, 120488.88, 118792.37, -30091.28, -67654.80, -78951.45, 137799.78, 73160.88, 15109.80, 169969.55, 928.56, 7953.49, -2823.34, 132286.92, -4288.00, 0.000, 0.000, 0.000, 16:54:03.737
23, -65794.97, -63114.48, 120489.69, 118795.20, -30096.76, -67640.87, -78951.97, 137818.48, 73160.88, 15109.80, 169969.55, 928.56, 7953.49, -2823.34, 132286.92, -4288.00, 0.000, 0.000, 0.000, 16:54:03.737
24, -65794.97, -63114.48, 120489.69, 118795.20, -30096.76, -67640.87, -78951.97, 137818.48, 73163.23, 15121.33, 169969.41, 932.87, 7960.28, -2813.46, 132297.69, -4261.85, 0.000, 0.000, 0.000, 16:54:03.738
25, -65801.79, -63118.48, 120485.22, 118785.73, -30100.89, -67636.87, -78946.56, 137817.70, 73163.23, 15121.33, 169969.41, 932.87, 7960.28, -2813.46, 132297.69, -4261.85, 0.000, 0.000, 0.000, 16:54:03.738
26, -65801.79, -63118.48, 120485.22, 118785.73, -30100.89, -67636.87, -78946.56, 137817.70, 73157.99, 15121.83, 169960.30, 921.41, 7953.58, -2822.15, 132306.52, -4278.37, 0.000, 0.000, 0.000, 16:54:03.738
27, -65801.34, -63123.67, 120481.80, 118772.85, -30096.67, -67645.90, -78950.83, 137813.52, 73157.99, 15121.83, 169960.30, 921.41, 7953.58, -2822.15, 132306.52, -4278.37, 0.000, 0.000, 0.000, 16:54:03.739
28, -65801.34, -63123.67, 120481.80, 118772.85, -30096.67, -67645.90, -78950.83, 137813.52, 73147.67, 15107.79, 169947.89, 909.89, 7936.37, -2835.43, 132309.63, -4295.51, 0.000, 0.000, 0.000, 16:54:03.739
29, -65795.15, -63120.18, 120474.96, 118761.88, -30100.98, -67652.72, -78953.34, 137805.03, 73147.67, 15107.79, 169947.89, 909.89, 7936.37, -2835.43, 132309.63, -4295.51, 0.000, 0.000, 0.000, 16:54:03.739
30, -65795.15, -63120.18, 120474.96, 118761.88, -30100.98, -67652.72, -78953.34, 137805.03, 73150.51, 15109.06, 169954.45, 912.76, 7933.93, -2829.84, 132304.16, -4304.05, 0.006, 0.926, -0.198, 16:54:03.740
31, -65793.61, -63119.36, 120478.58, 118776.25, -30117.59, -67642.30, -78960.26, 137810.80, 73150.51, 15109.06, 169954.45, 912.76, 7933.93, -2829.84, 132304.16, -4304.05, 0.000, 0.000, 0.000, 16:54:03.740
32, -65793.61, -63119.36, 120478.58, 118776.25, -30117.59, -67642.30, -78960.26, 137810.80, 73153.62, 15119.26, 169964.09, 927.31, 7945.40, -2822.91, 132281.86, -4308.59, 0.000, 0.000, 0.000, 16:54:03.740
33, -65784.40, -63110.39, 120483.84, 118781.81, -30108.85, -67637.65, -78944.39, 137819.33, 73153.62, 15119.26, 169964.09, 927.31, 7945.40, -2822.91, 132281.86, -4308.59, 0.000, 0.000, 0.000, 16:54:03.741
34, -65784.40, -63110.39, 120483.84, 118781.81, -30108.85, -67637.65, -78944.39, 137819.33, 73153.39, 15110.72, 169959.16, 923.60, 7943.43, -2822.65, 132289.02, -4303.78, 0.000, 0.000, 0.000, 16:54:03.741
35, -65805.01, -63118.35, 120485.30, 118785.55, -30113.65, -67635.41, -78936.77, 137820.66, 73153.39, 15110.72, 169959.16, 923.60, 7943.43, -2822.65, 132289.02, -4303.78, 0.000, 0.000, 0.000, 16:54:03.741
36, -65805.01, -63118.35, 120485.30, 118785.55, -30113.65, -67635.41, -78936.77, 137820.66, 73150.62, 15104.48, 169950.13, 921.07, 7940.17, -2825.44, 132276.91, -4301.64, 0.000, 0.000, 0.000, 16:54:03.741
37, -65798.51, -63119.11, 120473.10, 118781.30, -30100.49, -67638.70, -78937.30, 137821.30, 73150.62, 15104.48, 169950.13, 921.07, 7940.17, -2825.44, 132276.91, -4301.64, 0.000, 0.000, 0.000, 16:54:03.742
38, -65798.51, -63119.11, 120473.10, 118781.30, -30100.49, -67638.70, -78937.30, 137821.30, 73165.21, 15118.41, 169957.00, 923.42, 7948.75, -2813.68, 132283.08, -4282.24, 0.000, 0.000, 0.000, 16:54:03.742
39, -65815.24, -63128.54, 120466.60, 118783.71, -30101.18, -67627.23, -78946.54, 137824.47, 73165.21, 15118.41, 169957.00, 923.42, 7948.75, -2813.68, 132283.08, -4282.24, 0.000, 0.000, 0.000, 16:54:03.742
40, -65815.24, -63128.54, 120466.60, 118783.71, -30101.18, -67627.23, -78946.54, 137824.47, 73157.97, 15118.45, 169956.11, 923.82, 7938.15, -2823.32, 132280.22, -4283.91, 0.000, 0.920, -0.196, 16:54:03.743
41, -65812.90, -63124.09, 120466.80, 118786.15, -30091.37, -67637.29, -78943.95, 137821.03, 73157.97, 15118.45, 169956.11, 923.82, 7938.15, -2823.32, 132280.22, -4283.91, 0.000, 0.000, 0.000, 16:54:03.743
42, -65812.90, -63124.09, 120466.80, 118786.15, -30091.37, -67637.29, -78943.95, 137821.03, 73156.12, 15118.79, 169963.53, 926.77, 7942.92, -2823.52, 132276.34, -4284.45, 0.000, 0.000, 0.000, 16:54:03.743
43, -65813.32, -63116.63, 120486.98, 118793.39, -30091.68, -67633.96, -78935.52, 137825.56, 73156.12, 15118.79, 169963.53, 926.77, 7942.92, -2823.52, 132276.34, -4284.45, 0.000, 0.000, 0.000, 16:54:03.744
44, -65813.32, -63116.63, 120486.98, 118793.39, -30091.68, -67633.96, -78935.52, 137825.56, 73144.13, 15112.93, 169952.44, 915.80, 7929.73, -2832.86, 132269.13, -4283.82, 0.000, 0.000, 0.000, 16:54:03.745
45, -65807.80, -63110.26, 120490.18, 118799.05, -30071.88, -67633.36, -78938.34, 137830.50, 73144.13, 15112.93, 169952.44, 915.80, 7929.73, -2832.86, 132269.13, -4283.82, 0.000, 0.000, 0.000, 16:54:03.745
46, -65807.80, -63110.26, 120490.18, 118799.05, -30071.88, -67633.36, -78938.34, 137830.50, 73142.86, 15113.82, 169945.53, 916.20, 7923.29, -2834.56, 132286.88, -4279.64, 0.000, 0.000, 0.000, 16:54:03.745
47, -65825.84, -63111.64, 120488.10, 118811.38, -30082.52, -67624.98, -78946.76, 137832.31, 73142.86, 15113.82, 169945.53, 916.20, 7923.29, -2834.56, 132286.88, -4279.64, 0.000, 0.000, 0.000, 16:54:03.745
48, -65825.84, -63111.64, 120488.10, 118811.38, -30082.52, -67624.98, -78946.76, 137832.31, 73152.92, 15126.01, 169961.92, 933.01, 7939.07, -2814.76, 132288.06, -4262.68, 0.000, 0.000, 0.000, 16:54:03.746
49, -65829.41, -63106.66, 120490.70, 118824.82, -30083.93, -67615.73, -78936.73, 137836.03, 73152.92, 15126.01, 169961.92, 933.01, 7939.07, -2814.76, 132288.06, -4262.68, 0.000, 0.000, 0.000, 16:54:03.746
50, -65829.41, -63106.66, 120490.70, 118824.82, -30083.93, -67615.73, -78936.73, 137836.03, 73140.36, 15119.03, 169947.02, 920.51, 7925.21, -2826.53, 132272.33, -4273.41, 0.000, 0.924, -0.194, 16:54:03.746
51, -65827.61, -63104.71, 120484.50, 118813.24, -30088.51, -67623.13, -78946.18, 137830.58, 73140.36, 15119.03, 169947.02, 920.51, 7925.21, -2826.53, 132272.33, -4273.41, 0.000, 0.000, 0.000, 16:54:03.747
52, -65827.61, -63104.71, 120484.50, 118813.24, -30088.51, -67623.13, -78946.18, 137830.58, 73139.80, 15120.71, 169948.28, 912.80, 7924.43, -2835.16, 132256.31, -4283.62, 0.000, 0.000, 0.000, 16:54:03.747
53, -65823.25, -63108.92, 120480.26, 118794.84, -30098.72, -67630.66, -78946.49, 137827.61, 73139.80, 15120.71, 169948.28, 912.80, 7924.43, -2835.16, 132256.31, -4283.62, 0.000, 0.000, 0.000, 16:54:03.747
54, -65823.25, -63108.92, 120480.26, 118794.84, -30098.72, -67630.66, -78946.49, 137827.61, 73143.20, 15118.21, 169951.03, 904.93, 7929.95, -2840.57, 132248.41, -4287.15, 0.000, 0.000, 0.000, 16:54:03.747
55, -65826.94, -63110.37, 120491.45, 118790.29, -30107.31, -67627.28, -78945.98, 137825.50, 73143.20, 15118.21, 169951.03, 904.93, 7929.95, -2840.57, 132248.41, -4287.15, 0.000, 0.000, 0.000, 16:54:03.819
56, -65826.94, -63110.37, 120491.45, 118790.29, -30107.31, -67627.28, -78945.98, 137825.50, 73143.13, 15129.22, 169960.69, 906.39, 7938.15, -2841.53, 132230.77, -4292.83, 0.000, 0.000, 0.000, 16:54:03.819
57, -65827.65, -63108.70, 120492.70, 118788.48, -30109.16, -67628.30, -78956.30, 137826.02, 73143.13, 15129.22, 169960.69, 906.39, 7938.15, -2841.53, 132230.77, -4292.83, 0.000, 0.000, 0.000, 16:54:03.820
58, -65827.65, -63108.70, 120492.70, 118788.48, -30109.16, -67628.30, -78956.30, 137826.02, 73129.98, 15121.33, 169946.88, 890.83, 7921.48, -2859.61, 132223.28, -4307.54, 0.000, 0.000, 0.000, 16:54:03.820
59, -65832.61, -63107.24, 120489.80, 118789.99, -30114.75, -67627.95, -78951.57, 137820.31, 73129.98, 15121.33, 169946.88, 890.83, 7921.48, -2859.61, 132223.28, -4307.54, 0.000, 0.934, -0.186, 16:54:03.820
60, -65832.61, -63107.24, 120489.80, 118789.99, -30114.75, -67627.95, -78951.57, 137820.31, 73131.55, 15125.96, 169944.28, 894.83, 7923.94, -2859.30, 132216.80, -4303.11, 0.000, 0.000, 0.000, 16:54:03.820
61, -65816.90, -63103.02, 120484.30, 118789.62, -30111.33, -67635.37, -78948.26, 137819.67, 73131.55, 15125.96, 169944.28, 894.83, 7923.94, -2859.30, 132216.80, -4303.11, 0.000, 0.000, 0.000, 16:54:03.821
62, -65816.90, -63103.02, 120484.30, 118789.62, -30111.33, -67635.37, -78948.26, 137819.67, 73133.41, 15129.96, 169938.58, 895.48, 7924.32, -2851.43, 132209.27, -4307.45, 0.000, 0.000, 0.000, 16:54:03.821
63, -65816.16, -63107.73, 120481.13, 118789.37, -30115.35, -67640.83, -78949.35, 137823.56, 73133.41, 15129.96, 169938.58, 895.48, 7924.32, -2851.43, 132209.27, -4307.45, 0.000, 0.000, 0.000, 16:54:03.821
64, -65816.16, -63107.73, 120481.13, 118789.37, -30115.35, -67640.83, -78949.35, 137823.56, 73140.25, 15136.76, 169940.36, 892.64, 7931.20, -2847.68, 132208.84, -4306.13, 0.000, 0.000, 0.000, 16:54:03.822
65, -65833.26, -63126.49, 120485.04, 118788.05, -30138.29, -67645.02, -78958.74, 137817.14, 73140.25, 15136.76, 169940.36, 892.64, 7931.20, -2847.68, 132208.84, -4306.13, 0.000, 0.000, 0.000, 16:54:03.822
66, -65833.26, -63126.49, 120485.04, 118788.05, -30138.29, -67645.02, -78958.74, 137817.14, 73142.23, 15143.78, 169943.70, 894.96, 7937.66, -2836.95, 132206.42, -4296.56, 0.000, 0.000, 0.000, 16:54:03.822
67, -65846.12, -63130.89, 120493.29, 118798.84, -30135.29, -67631.28, -78930.87, 137814.30, 73142.23, 15143.78, 169943.70, 894.96, 7937.66, -2836.95, 132206.42, -4296.56, 0.000, 0.000, 0.000, 16:54:03.822
