%OpenBCI Raw EEG Data
%
%Sample Rate = 250.0 Hz
%First Column = SampleIndex
%Last Column = Timestamp 
%Other Columns = EEG data in microvolts followed by Accel Data (in G) interleaved with Aux Data
0, 0.00, 0.00, 0.00, 0.00, 0.00, 0.00, 0.00, 0.00, -87726.05, -58098.02, -59038.84, 53512.58, 53447.76, -73258.53, 53463.29, -82440.72, -0.036, 0.876, 0.324, 16:33:19.098
1, -71830.48, -48073.46, -72829.87, -71668.09, -69412.91, -71328.46, 65592.69, -93750.01, -87726.05, -58098.02, -59038.84, 53512.58, 53447.76, -73258.53, 53463.29, -82440.72, 0.000, 0.000, 0.000, 16:33:19.576
2, -71830.48, -48073.46, -72829.87, -71668.09, -69412.91, -71328.46, 65592.69, -93750.01, -131180.94, -102925.51, -95191.52, -90364.92, -92329.45, -106710.95, -75234.59, -164432.95, 0.000, 0.000, 0.000, 16:33:19.576
3, -143541.20, -95464.43, -145297.89, -143242.16, -138125.97, -142660.14, 131232.66, -187500.02, -131180.94, -102925.51, -95191.52, -90364.92, -92329.45, -106710.95, -75234.59, -164432.95, 0.000, 0.000, 0.000, 16:33:19.577
4, -143541.20, -95464.43, -145297.89, -143242.16, -138125.97, -142660.14, 131232.66, -187500.02, -131215.31, -102916.97, -95018.91, -90287.09, -92196.92, -106694.57, -75138.07, -164367.97, 0.000, 0.000, 0.000, 16:33:19.577
5, -143540.06, -95759.61, -145346.66, -143261.11, -138598.72, -142654.94, 131208.52, -187500.02, -131215.31, -102916.97, -95018.91, -90287.09, -92196.92, -106694.57, -75138.07, -164367.97, 0.000, 0.000, 0.000, 16:33:19.578
6, -143540.06, -95759.61, -145346.66, -143261.11, -138598.72, -142654.94, 131208.52, -187500.02, -131155.45, -102947.66, -95240.65, -90384.46, -92296.14, -106735.21, -75269.48, -164453.22, 0.000, 0.000, 0.000, 16:33:19.578
7, -143490.14, -96451.80, -145374.48, -143300.98, -138983.81, -142664.41, 131183.34, -187500.02, -131155.45, -102947.66, -95240.65, -90384.46, -92296.14, -106735.21, -75269.48, -164453.22, 0.156, 0.752, 0.292, 16:33:19.579
8, -143490.14, -96451.80, -145374.48, -143300.98, -138983.81, -142664.41, 131183.34, -187500.02, -131190.55, -102946.88, -95141.47, -90334.59, -92159.13, -106729.33, -75164.94, -164395.72, 0.000, 0.000, 0.000, 16:33:19.580
9, -143260.48, -96122.69, -145115.28, -143261.16, -137833.88, -142665.41, 131220.20, -187500.02, -131190.55, -102946.88, -95141.47, -90334.59, -92159.13, -106729.33, -75164.94, -164395.72, 0.000, 0.000, 0.000, 16:33:19.581
10, -143260.48, -96122.69, -145115.28, -143261.16, -137833.88, -142665.41, 131220.20, -187500.02, -131171.13, -102958.23, -95296.66, -90388.48, -92151.23, -106743.14, -75204.66, -164441.28, 0.000, 0.000, 0.000, 16:33:19.581
11, -143314.69, -97201.16, -145306.09, -143359.25, -138184.92, -142664.14, 131163.73, -187500.02, -131171.13, -102958.23, -95296.66, -90388.48, -92151.23, -106743.14, -75204.66, -164441.28, 0.000, 0.000, 0.000, 16:33:19.582
12, -143314.69, -97201.16, -145306.09, -143359.25, -138184.92, -142664.14, 131163.73, -187500.02, -131152.25, -102981.08, -95465.48, -90431.94, -92120.09, -106767.59, -75227.38, -164475.33, 0.000, 0.000, 0.000, 16:33:19.582
13, -143110.48, -96798.85, -145026.11, -143292.48, -136757.47, -142683.94, 131206.64, -187500.02, -131152.25, -102981.08, -95465.48, -90431.94, -92120.09, -106767.59, -75227.38, -164475.33, 0.000, 0.000, 0.000, 16:33:19.583
14, -143110.48, -96798.85, -145026.11, -143292.48, -136757.47, -142683.94, 131206.64, -187500.02, -131192.33, -102967.89, -95302.02, -90365.57, -91912.29, -106752.53, -75113.82, -164414.22, 0.000, 0.000, 0.000, 16:33:19.583
15, -143066.36, -97017.63, -145024.59, -143311.58, -136540.08, -142679.58, 131186.67, -187500.02, -131192.33, -102967.89, -95302.02, -90365.57, -91912.29, -106752.53, -75113.82, -164414.22, 0.000, 0.000, 0.000, 16:33:19.584
16, -143066.36, -97017.63, -145024.59, -143311.58, -136540.08, -142679.58, 131186.67, -187500.02, -131139.00, -102993.68, -95600.89, -90459.14, -91980.24, -106782.46, -75226.02, -164494.11, 0.000, 0.000, 0.000, 16:33:19.584
17, -142888.55, -97485.12, -144963.69, -143330.31, -136594.41, -142692.08, 131175.81, -187500.02, -131139.00, -102993.68, -95600.89, -90459.14, -91980.24, -106782.46, -75226.02, -164494.11, 0.116, 0.812, 0.294, 16:33:19.585
18, -142888.55, -97485.12, -144963.69, -143330.31, -136594.41, -142692.08, 131175.81, -187500.02, -131192.69, -103008.44, -95466.80, -90393.40, -91750.02, -106785.57, -75104.20, -164435.08, 0.000, 0.000, 0.000, 16:33:19.585
19, -142503.63, -96881.04, -144635.55, -143253.27, -135298.19, -142708.39, 131228.36, -187500.02, -131192.69, -103008.44, -95466.80, -90393.40, -91750.02, -106785.57, -75104.20, -164435.08, 0.000, 0.000, 0.000, 16:33:19.586
20, -142503.63, -96881.04, -144635.55, -143253.27, -135298.19, -142708.39, 131228.36, -187500.02, -131185.63, -103025.69, -95435.42, -90419.84, -91728.70, -106803.54, -75115.43, -164453.42, 0.000, 0.000, 0.000, 16:33:19.587
21, -142432.75, -97695.34, -144757.52, -143318.23, -135847.66, -142711.39, 131185.09, -187500.02, -131185.63, -103025.69, -95435.42, -90419.84, -91728.70, -106803.54, -75115.43, -164453.42, 0.000, 0.000, 0.000, 16:33:19.588
22, -142432.75, -97695.34, -144757.52, -143318.23, -135847.66, -142711.39, 131185.09, -187500.02, -131180.55, -103061.95, -95392.19, -90443.73, -91704.22, -106831.61, -75118.16, -164466.86, 0.000, 0.000, 0.000, 16:33:19.589
23, -138841.13, -97151.45, -144388.55, -143229.06, -134648.05, -142726.91, 131242.53, -187500.02, -131180.55, -103061.95, -95392.19, -90443.73, -91704.22, -106831.61, -75118.16, -164466.86, 0.000, 0.000, 0.000, 16:33:19.590
24, -138841.13, -97151.45, -144388.55, -143229.06, -134648.05, -142726.91, 131242.53, -187500.02, -131238.86, -103065.39, -95094.17, -90366.78, -91456.74, -106824.57, -74975.21, -164394.42, 0.000, 0.000, 0.000, 16:33:19.590
25, -137482.98, -97278.79, -144301.88, -143236.70, -134541.06, -142730.34, 131240.77, -187500.02, -131238.86, -103065.39, -95094.17, -90366.78, -91456.74, -106824.57, -74975.21, -164394.42, 0.000, 0.000, 0.000, 16:33:19.591
26, -137482.98, -97278.79, -144301.88, -143236.70, -134541.06, -142730.34, 131240.77, -187500.02, -131195.27, -103097.64, -95281.28, -90444.68, -91507.95, -106857.77, -75048.20, -164454.94, 0.000, 0.000, 0.000, 16:33:19.592
27, -136412.48, -97637.63, -144198.75, -143240.09, -134350.45, -142734.48, 131235.30, -187500.02, -131195.27, -103097.64, -95281.28, -90444.68, -91507.95, -106857.77, -75048.20, -164454.94, 0.060, 0.822, 0.296, 16:33:19.592
28, -136412.48, -97637.63, -144198.75, -143240.09, -134350.45, -142734.48, 131235.30, -187500.02, -131260.50, -103113.35, -94909.68, -90366.09, -91206.63, -106858.95, -74887.15, -164374.97, 0.000, 0.000, 0.000, 16:33:19.593
29, -131689.41, -96776.34, -143845.56, -143148.91, -133138.05, -142753.50, 131307.78, -187500.02, -131260.50, -103113.35, -94909.68, -90366.09, -91206.63, -106858.95, -74887.15, -164374.97, 0.000, 0.000, 0.000, 16:33:19.593
30, -131689.41, -96776.34, -143845.56, -143148.91, -133138.05, -142753.50, 131307.78, -187500.02, -131277.47, -103132.71, -94762.09, -90380.37, -91090.91, -106872.23, -74849.91, -164374.66, 0.000, 0.000, 0.000, 16:33:19.594
31, -132927.16, -97193.67, -143899.88, -143191.75, -133598.08, -142759.14, 131290.91, -187500.02, -131277.47, -103132.71, -94762.09, -90380.37, -91090.91, -106872.23, -74849.91, -164374.66, 0.000, 0.000, 0.000, 16:33:19.594
32, -132927.16, -97193.67, -143899.88, -143191.75, -133598.08, -142759.14, 131290.91, -187500.02, -131303.53, -103169.37, -94617.75, -90381.73, -90965.25, -106894.45, -74787.66, -164363.06, 0.000, 0.000, 0.000, 16:33:19.597
33, -127921.84, -96051.57, -143430.56, -143062.77, -132060.61, -142737.56, 131384.73, -187500.02, -131303.53, -103169.37, -94617.75, -90381.73, -90965.25, -106894.45, -74787.66, -164363.06, 0.000, 0.000, 0.000, 16:33:19.598
34, -127921.84, -96051.57, -143430.56, -143062.77, -132060.61, -142737.56, 131384.73, -187500.02, -131398.95, -103175.00, -94166.42, -90263.74, -90574.79, -106882.28, -74563.31, -164251.55, 0.000, 0.000, 0.000, 16:33:19.598
35, -125918.55, -95519.28, -143223.56, -143019.84, -131329.09, -142689.08, 131419.84, -187500.02, -131398.95, -103175.00, -94166.42, -90263.74, -90574.79, -106882.28, -74563.31, -164251.55, 0.000, 0.000, 0.000, 16:33:19.599
36, -125918.55, -95519.28, -143223.56, -143019.84, -131329.09, -142689.08, 131419.84, -187500.02, -131399.84, -103215.44, -94119.17, -90309.38, -90535.20, -106914.56, -74557.73, -164276.64, 0.000, 0.000, 0.000, 16:33:19.599
37, -123767.35, -95214.18, -141943.41, -142863.20, -130733.34, -142529.17, 131463.64, -187500.02, -131399.84, -103215.44, -94119.17, -90309.38, -90535.20, -106914.56, -74557.73, -164276.64, 0.076, 0.762, 0.388, 16:33:19.602
38, -123767.35, -95214.18, -141943.41, -142863.20, -130733.34, -142529.17, 131463.64, -187500.02, -131509.20, -103243.06, -93549.31, -90190.00, -90127.84, -106913.33, -74321.09, -164163.56, 0.000, 0.000, 0.000, 16:33:19.602
39, -117761.05, -93744.80, -135900.53, -141173.53, -128820.68, -141496.69, 131575.22, -187500.02, -131509.20, -103243.06, -93549.31, -90190.00, -90127.84, -106913.33, -74321.09, -164163.56, 0.000, 0.000, 0.000, 16:33:19.603
40, -117761.05, -93744.80, -135900.53, -141173.53, -128820.68, -141496.69, 131575.22, -187500.02, -131563.38, -103272.01, -93192.82, -90167.13, -89947.48, -106930.02, -74229.07, -164134.86, 0.000, 0.000, 0.000, 16:33:19.603
41, -117103.00, -93777.57, -134983.66, -141103.55, -128772.24, -141612.16, 131592.56, -187500.02, -131563.38, -103272.01, -93192.82, -90167.13, -89947.48, -106930.02, -74229.07, -164134.86, 0.000, 0.000, 0.000, 16:33:19.603
42, -117103.00, -93777.57, -134983.66, -141103.55, -128772.24, -141612.16, 131592.56, -187500.02, -131625.84, -103325.63, -92691.48, -90147.35, -89772.27, -106963.69, -74135.37, -164103.22, 0.000, 0.000, 0.000, 16:33:19.604
43, -110353.09, -92423.52, -126930.84, -137654.52, -126820.51, -140555.45, 131729.44, -187500.02, -131625.84, -103325.63, -92691.48, -90147.35, -89772.27, -106963.69, -74135.37, -164103.22, 0.000, 0.000, 0.000, 16:33:19.604
44, -110353.09, -92423.52, -126930.84, -137654.52, -126820.51, -140555.45, 131729.44, -187500.02, -131767.63, -103358.71, -91787.73, -90022.27, -89300.18, -106969.84, -73893.92, -163987.66, 0.000, 0.000, 0.000, 16:33:19.605
45, -106456.73, -91554.22, -123075.34, -135940.13, -125595.97, -139958.59, 131808.77, -187500.02, -131767.63, -103358.71, -91787.73, -90022.27, -89300.18, -106969.84, -73893.92, -163987.66, 0.000, 0.000, 0.000, 16:33:19.605
46, -106456.73, -91554.22, -123075.34, -135940.13, -125595.97, -139958.59, 131808.77, -187500.02, -131805.64, -103401.49, -91454.46, -90044.18, -89242.11, -107000.79, -73847.45, -163993.84, 0.000, 0.000, 0.000, 16:33:19.606
47, -102152.16, -90859.59, -119051.02, -134157.95, -124524.38, -139479.89, 131888.78, -187500.02, -131805.64, -103401.49, -91454.46, -90044.18, -89242.11, -107000.79, -73847.45, -163993.84, 0.068, 0.748, 0.290, 16:33:19.606
48, -102152.16, -90859.59, -119051.02, -134157.95, -124524.38, -139479.89, 131888.78, -187500.02, -131957.45, -103449.84, -90611.40, -89909.15, -88929.23, -107019.55, -73562.49, -163870.84, 0.000, 0.000, 0.000, 16:33:19.606
49, -93371.55, -89139.88, -110493.70, -131059.41, -122180.06, -138313.06, 132042.13, -187500.02, -131957.45, -103449.84, -90611.40, -89909.15, -88929.23, -107019.55, -73562.49, -163870.84, 0.000, 0.000, 0.000, 16:33:19.607
50, -93371.55, -89139.88, -110493.70, -131059.41, -122180.06, -138313.06, 132042.13, -187500.02, -132045.27, -103488.44, -90089.84, -89870.48, -88781.57, -107044.84, -73401.20, -163831.00, 0.000, 0.000, 0.000, 16:33:19.607
51, -90069.32, -88872.61, -109351.34, -131310.80, -121864.59, -138257.83, 132088.39, -187500.02, -132045.27, -103488.44, -90089.84, -89870.48, -88781.57, -107044.84, -73401.20, -163831.00, 0.000, 0.000, 0.000, 16:33:19.608
52, -90069.32, -88872.61, -109351.34, -131310.80, -121864.59, -138257.83, 132088.39, -187500.02, -132133.25, -103548.43, -89596.74, -89832.17, -88579.76, -107086.69, -73223.33, -163792.66, 0.000, 0.000, 0.000, 16:33:19.608
53, -80930.03, -87302.98, -101222.80, -128278.45, -120090.15, -137382.13, 132248.41, -187500.02, -132133.25, -103548.43, -89596.74, -89832.17, -88579.76, -107086.69, -73223.33, -163792.66, 0.000, 0.000, 0.000, 16:33:19.609
54, -80930.03, -87302.98, -101222.80, -128278.45, -120090.15, -137382.13, 132248.41, -187500.02, -132293.64, -103586.97, -88810.01, -89689.30, -88089.88, -107108.64, -72887.63, -163685.42, 0.000, 0.000, 0.000, 16:33:19.609
55, -75800.95, -86164.88, -98255.52, -127117.02, -119656.44, -136969.11, 132334.95, -187500.02, -132293.64, -103586.97, -88810.01, -89689.30, -88089.88, -107108.64, -72887.63, -163685.42, 0.000, 0.000, 0.000, 16:33:19.609
56, -75800.95, -86164.88, -98255.52, -127117.02, -119656.44, -136969.11, 132334.95, -187500.02, -132321.39, -103593.16, -88615.01, -89686.69, -87850.11, -107120.53, -72803.20, -163693.80, 0.000, 0.000, 0.000, 16:33:19.610
57, -71086.55, -85297.49, -96770.98, -126458.32, -120091.90, -136732.92, 132385.44, -187500.02, -132321.39, -103593.16, -88615.01, -89686.69, -87850.11, -107120.53, -72803.20, -163693.80, 0.016, 0.528, 0.234, 16:33:19.610
58, -71086.55, -85297.49, -96770.98, -126458.32, -120091.90, -136732.92, 132385.44, -187500.02, -132425.19, -103567.32, -87910.75, -89537.30, -87202.83, -107104.84, -72488.25, -163579.09, 0.000, 0.000, 0.000, 16:33:19.611
59, -61390.50, -83485.46, -91509.27, -124325.49, -119611.67, -136223.47, 132474.81, -187500.02, -132425.19, -103567.32, -87910.75, -89537.30, -87202.83, -107104.84, -72488.25, -163579.09, 0.000, 0.000, 0.000, 16:33:19.611
60, -61390.50, -83485.46, -91509.27, -124325.49, -119611.67, -136223.47, 132474.81, -187500.02, -132435.22, -103490.25, -87544.18, -89470.27, -86518.19, -107073.86, -72304.41, -163549.39, 0.000, 0.000, 0.000, 16:33:19.614
61, -59946.59, -83253.65, -93588.12, -125907.23, -120326.88, -136800.03, 132424.88, -187500.02, -132435.22, -103490.25, -87544.18, -89470.27, -86518.19, -107073.86, -72304.41, -163549.39, 0.000, 0.000, 0.000, 16:33:19.614
62, -59946.59, -83253.65, -93588.12, -125907.23, -120326.88, -136800.03, 132424.88, -187500.02, -132387.30, -103334.97, -87204.92, -89399.69, -86021.34, -107076.32, -72171.50, -163493.89, 0.000, 0.000, 0.000, 16:33:19.615
63, -55853.92, -81450.20, -89652.11, -125352.34, -119073.55, -136847.41, 132388.95, -187500.02, -132387.30, -103334.97, -87204.92, -89399.69, -86021.34, -107076.32, -72171.50, -163493.89, 0.000, 0.000, 0.000, 16:33:19.615
64, -55853.92, -81450.20, -89652.11, -125352.34, -119073.55, -136847.41, 132388.95, -187500.02, -132351.11, -103108.70, -86503.70, -89263.86, -85288.87, -106968.13, -71935.98, -163305.89, 0.000, 0.000, 0.000, 16:33:19.616
65, -58354.43, -80729.67, -90297.71, -126557.90, -119086.23, -138361.77, 132375.72, -187500.02, -132351.11, -103108.70, -86503.70, -89263.86, -85288.87, -106968.13, -71935.98, -163305.89, 0.000, 0.000, 0.000, 16:33:19.616
66, -58354.43, -80729.67, -90297.71, -126557.90, -119086.23, -138361.77, 132375.72, -187500.02, -132356.75, -103219.66, -86707.55, -89454.80, -85516.09, -107218.97, -71981.60, -163368.67, 0.000, 0.000, 0.000, 16:33:19.617
67, -61882.93, -81176.50, -92907.95, -128327.98, -118974.82, -138690.77, 132405.58, -187500.02, -132356.75, -103219.66, -86707.55, -89454.80, -85516.09, -107218.97, -71981.60, -163368.67, -0.094, 0.470, -0.622, 16:33:19.617
68, -61882.93, -81176.50, -92907.95, -128327.98, -118974.82, -138690.77, 132405.58, -187500.02, -132420.77, -103257.57, -86419.84, -89422.40, -85322.17, -107368.43, -71662.77, -163192.73, 0.000, 0.000, 0.000, 16:33:19.618
69, -58769.42, -80316.01, -91399.41, -128027.44, -118174.92, -142388.97, 132443.00, -187500.02, -132420.77, -103257.57, -86419.84, -89422.40, -85322.17, -107368.43, -71662.77, -163192.73, 0.000, 0.000, 0.000, 16:33:19.618
70, -58769.42, -80316.01, -91399.41, -128027.44, -118174.92, -142388.97, 132443.00, -187500.02, -132376.92, -103143.48, -86369.26, -89381.27, -84962.46, -107014.23, -71425.63, -163149.27, 0.000, 0.000, 0.000, 16:33:19.619
71, -65156.20, -80695.20, -96319.03, -130339.50, -118365.49, -139964.86, 132363.05, -187500.02, -132376.92, -103143.48, -86369.26, -89381.27, -84962.46, -107014.23, -71425.63, -163149.27, 0.000, 0.000, 0.000, 16:33:19.619
72, -65156.20, -80695.20, -96319.03, -130339.50, -118365.49, -139964.86, 132363.05, -187500.02, -132356.67, -103119.79, -86453.26, -89430.24, -84957.01, -106842.16, -70975.23, -163266.56, 0.000, 0.000, 0.000, 16:33:19.620
73, -64034.50, -80638.34, -94896.12, -129818.55, -117625.83, -137795.86, 132412.44, -187500.02, -132356.67, -103119.79, -86453.26, -89430.24, -84957.01, -106842.16, -70975.23, -163266.56, 0.000, 0.000, 0.000, 16:33:19.620
74, -64034.50, -80638.34, -94896.12, -129818.55, -117625.83, -137795.86, 132412.44, -187500.02, -132400.98, -103099.25, -86197.89, -89375.34, -84751.66, -106790.93, -70090.58, -163254.30, 0.000, 0.000, 0.000, 16:33:19.621
75, -66736.41, -80889.10, -98080.05, -131323.92, -118167.99, -137372.83, 132402.25, -187500.02, -132400.98, -103099.25, -86197.89, -89375.34, -84751.66, -106790.93, -70090.58, -163254.30, 0.000, 0.000, 0.000, 16:33:19.621
76, -66736.41, -80889.10, -98080.05, -131323.92, -118167.99, -137372.83, 132402.25, -187500.02, -132361.23, -103098.83, -86596.69, -89508.20, -85114.21, -106846.52, -69463.07, -163334.61, 0.000, 0.000, 0.000, 16:33:19.622
77, -69956.38, -81531.20, -101718.88, -133016.48, -119151.70, -137268.97, 132397.92, -187500.02, -132361.23, -103098.83, -86596.69, -89508.20, -85114.21, -106846.52, -69463.07, -163334.61, 0.042, 0.650, -0.156, 16:33:19.622
78, -69956.38, -81531.20, -101718.88, -133016.48, -119151.70, -137268.97, 132397.92, -187500.02, -132408.33, -103115.52, -86485.84, -89507.24, -85100.69, -106957.72, -68491.76, -163293.23, 0.000, 0.000, 0.000, 16:33:19.623
79, -70135.19, -81308.49, -102443.72, -133157.31, -119326.68, -136542.67, 132436.81, -187500.02, -132408.33, -103115.52, -86485.84, -89507.24, -85100.69, -106957.72, -68491.76, -163293.23, 0.000, 0.000, 0.000, 16:33:19.623
80, -70135.19, -81308.49, -102443.72, -133157.31, -119326.68, -136542.67, 132436.81, -187500.02, -132388.73, -103095.34, -86827.34, -89582.41, -85414.84, -106949.85, -67786.67, -163354.55, 0.000, 0.000, 0.000, 16:33:19.623
81, -77407.27, -82359.47, -110205.27, -136109.22, -121268.34, -136677.42, 132376.39, -187500.02, -132388.73, -103095.34, -86827.34, -89582.41, -85414.84, -106949.85, -67786.67, -163354.55, 0.000, 0.000, 0.000, 16:33:19.624
82, -77407.27, -82359.47, -110205.27, -136109.22, -121268.34, -136677.42, 132376.39, -187500.02, -132354.64, -103083.11, -87237.38, -89651.15, -85784.70, -106924.46, -67423.48, -163434.14, 0.000, 0.000, 0.000, 16:33:19.624
83, -79105.84, -82250.55, -111762.14, -135667.16, -121864.66, -136534.11, 132394.31, -187500.02, -132354.64, -103083.11, -87237.38, -89651.15, -85784.70, -106924.46, -67423.48, -163434.14, 0.000, 0.000, 0.000, 16:33:19.626
84, -79105.84, -82250.55, -111762.14, -135667.16, -121864.66, -136534.11, 132394.31, -187500.02, -132367.16, -103040.63, -87286.55, -89628.08, -85859.93, -106890.80, -66965.18, -163422.05, 0.000, 0.000, 0.000, 16:33:19.626
85, -84771.54, -82685.96, -117770.38, -137039.44, -123293.31, -136320.16, 132348.58, -187500.02, -132367.16, -103040.63, -87286.55, -89628.08, -85859.93, -106890.80, -66965.18, -163422.05, 0.000, 0.000, 0.000, 16:33:19.627
86, -84771.54, -82685.96, -117770.38, -137039.44, -123293.31, -136320.16, 132348.58, -187500.02, -132283.78, -102998.11, -88002.93, -89786.24, -86441.81, -106853.63, -67150.47, -163515.52, 0.000, 0.000, 0.000, 16:33:19.627
87, -91558.55, -83556.20, -124668.66, -138796.70, -125230.78, -136198.00, 132296.55, -187500.02, -132283.78, -102998.11, -88002.93, -89786.24, -86441.81, -106853.63, -67150.47, -163515.52, 0.092, 0.784, 0.028, 16:33:19.628
88, -91558.55, -83556.20, -124668.66, -138796.70, -125230.78, -136198.00, 132296.55, -187500.02, -132293.95, -102982.95, -88121.30, -89783.76, -86494.19, -106848.91, -66966.88, -163525.06, 0.000, 0.000, 0.000, 16:33:19.630
89, -93004.13, -83363.71, -125976.55, -138352.94, -125824.56, -135834.34, 132311.92, -187500.02, -132293.95, -102982.95, -88121.30, -89783.76, -86494.19, -106848.91, -66966.88, -163525.06, 0.000, 0.000, 0.000, 16:33:19.633
90, -93004.13, -83363.71, -125976.55, -138352.94, -125824.56, -135834.34, 132311.92, -187500.02, -132249.80, -102938.79, -88479.49, -89855.28, -86796.85, -106810.31, -67046.34, -163592.19, 0.000, 0.000, 0.000, 16:33:19.633
91, -101587.87, -84516.26, -134337.52, -141090.33, -128172.09, -135886.05, 132222.67, -187500.02, -132249.80, -102938.79, -88479.49, -89855.28, -86796.85, -106810.31, -67046.34, -163592.19, 0.000, 0.000, 0.000, 16:33:19.633
92, -101587.87, -84516.26, -134337.52, -141090.33, -128172.09, -135886.05, 132222.67, -187500.02, -132194.31, -102917.22, -88931.55, -89951.59, -87195.25, -106785.74, -67307.56, -163659.89, 0.000, 0.000, 0.000, 16:33:19.634
93, -102946.01, -84515.27, -135131.98, -140657.33, -128919.76, -135801.69, 132235.70, -187500.02, -132194.31, -102917.22, -88931.55, -89951.59, -87195.25, -106785.74, -67307.56, -163659.89, 0.000, 0.000, 0.000, 16:33:19.634
94, -102946.01, -84515.27, -135131.98, -140657.33, -128919.76, -135801.69, 132235.70, -187500.02, -132214.59, -102892.14, -88897.53, -89916.04, -87129.94, -106769.95, -67101.50, -163641.83, 0.000, 0.000, 0.000, 16:33:19.635
95, -106769.16, -84816.44, -138814.72, -141577.63, -130064.98, -135708.66, 132199.67, -187500.02, -132214.59, -102892.14, -88897.53, -89916.04, -87129.94, -106769.95, -67101.50, -163641.83, 0.000, 0.000, 0.000, 16:33:19.635
96, -106769.16, -84816.44, -138814.72, -141577.63, -130064.98, -135708.66, 132199.67, -187500.02, -132140.17, -102863.06, -89452.35, -90033.41, -87534.66, -106738.45, -67390.38, -163728.31, 0.000, 0.000, 0.000, 16:33:19.635
97, -111081.20, -85483.17, -142558.58, -142731.38, -131532.53, -135765.47, 132160.00, -187500.02, -132140.17, -102863.06, -89452.35, -90033.41, -87534.66, -106738.45, -67390.38, -163728.31, 0.096, 0.878, 0.142, 16:33:19.636
98, -111081.20, -85483.17, -142558.58, -142731.38, -131532.53, -135765.47, 132160.00, -187500.02, -132160.23, -102854.34, -89404.70, -89997.33, -87512.04, -106736.10, -67231.81, -163701.11, 0.000, 0.000, 0.000, 16:33:19.636
99, -110892.45, -85041.34, -141634.06, -141765.89, -131815.92, -135655.77, 132177.69, -187500.02, -132160.23, -102854.34, -89404.70, -89997.33, -87512.04, -106736.10, -67231.81, -163701.11, 0.000, 0.000, 0.000, 16:33:19.637
100, -110892.45, -85041.34, -141634.06, -141765.89, -131815.92, -135655.77, 132177.69, -187500.02, -132118.00, -102809.21, -89705.28, -90042.19, -87758.71, -106695.73, -67352.98, -163734.55, 0.000, 0.000, 0.000, 16:33:19.637
101, -117649.79, -85950.14, -143944.56, -143407.41, -133754.17, -135741.72, 132097.83, -187500.02, -132118.00, -102809.21, -89705.28, -90042.19, -87758.71, -106695.73, -67352.98, -163734.55, 0.000, 0.000, 0.000, 16:33:19.637
102, -117649.79, -85950.14, -143944.56, -143407.41, -133754.17, -135741.72, 132097.83, -187500.02, -132072.52, -102794.44, -90073.55, -90108.77, -88120.43, -106676.76, -67608.41, -163789.06, 0.000, 0.000, 0.000, 16:33:19.639
103, -117896.02, -85755.91, -143967.41, -143182.63, -134308.98, -135639.30, 132111.72, -187500.02, -132072.52, -102794.44, -90073.55, -90108.77, -88120.43, -106676.76, -67608.41, -163789.06, 0.000, 0.000, 0.000, 16:33:19.639
104, -117896.02, -85755.91, -143967.41, -143182.63, -134308.98, -135639.30, 132111.72, -187500.02, -132087.63, -102764.31, -89979.05, -90056.85, -88144.57, -106653.40, -67484.77, -163762.95, 0.000, 0.000, 0.000, 16:33:19.640
105, -121507.95, -86008.48, -144189.59, -143383.78, -135321.13, -135591.13, 132069.88, -187500.02, -132087.63, -102764.31, -89979.05, -90056.85, -88144.57, -106653.40, -67484.77, -163762.95, 0.000, 0.000, 0.000, 16:33:19.640
106, -121507.95, -86008.48, -144189.59, -143383.78, -135321.13, -135591.13, 132069.88, -187500.02, -132004.38, -102730.72, -90528.59, -90175.92, -88590.09, -106616.88, -67952.25, -163856.70, 0.076, 0.884, 0.258, 16:33:19.641
107, -126453.52, -86767.01, -144481.47, -143629.22, -136356.39, -135744.67, 132016.70, -187500.02, -132004.38, -102730.72, -90528.59, -90175.92, -88590.09, -106616.88, -67952.25, -163856.70, 0.000, 0.000, 0.000, 16:33:19.641
108, -126453.52, -86767.01, -144481.47, -143629.22, -136356.39, -135744.67, 132016.70, -187500.02, -132012.77, -102719.72, -90498.86, -90140.91, -88588.45, -106611.78, -67953.97, -163832.61, 0.000, 0.000, 0.000, 16:33:19.642
109, -125758.33, -86368.08, -144395.06, -143564.73, -135927.84, -135575.27, 132031.55, -187500.02, -132012.77, -102719.72, -90498.86, -90140.91, -88588.45, -106611.78, -67953.97, -163832.61, 0.000, 0.000, 0.000, 16:33:19.642
110, -125758.33, -86368.08, -144395.06, -143564.73, -135927.84, -135575.27, 132031.55, -187500.02, -131976.63, -102688.56, -90694.86, -90172.59, -88731.23, -106584.67, -68116.83, -163859.41, 0.000, 0.000, 0.000, 16:33:19.642
111, -131303.95, -87232.53, -144722.63, -143644.31, -136921.16, -135763.73, 131962.55, -187500.02, -131976.63, -102688.56, -90694.86, -90172.59, -88731.23, -106584.67, -68116.83, -163859.41, 0.000, 0.000, 0.000, 16:33:19.643
112, -131303.95, -87232.53, -144722.63, -143644.31, -136921.16, -135763.73, 131962.55, -187500.02, -131942.83, -102689.37, -90913.62, -90220.00, -88905.83, -106581.12, -68367.03, -163893.88, 0.000, 0.000, 0.000, 16:33:19.643
113, -129904.73, -86920.88, -144582.91, -143570.91, -136463.05, -135707.52, 131987.11, -187500.02, -131942.83, -102689.37, -90913.62, -90220.00, -88905.83, -106581.12, -68367.03, -163893.88, 0.000, 0.000, 0.000, 16:33:19.644
114, -129904.73, -86920.88, -144582.91, -143570.91, -136463.05, -135707.52, 131987.11, -187500.02, -131970.08, -102671.39, -90717.37, -90149.86, -88764.83, -106570.12, -68184.80, -163847.98, 0.000, 0.000, 0.000, 16:33:19.644
115, -132100.28, -87055.57, -144693.03, -143581.64, -136579.19, -135672.80, 131962.73, -187500.02, -131970.08, -102671.39, -90717.37, -90149.86, -88764.83, -106570.12, -68184.80, -163847.98, 0.000, 0.000, 0.000, 16:33:19.644
116, -132100.28, -87055.57, -144693.03, -143581.64, -136579.19, -135672.80, 131962.73, -187500.02, -131910.80, -102660.64, -91095.25, -90241.39, -89036.63, -106554.14, -68521.46, -163916.09, 0.058, 0.884, 0.298, 16:33:19.645
117, -134325.00, -87542.05, -144790.30, -143594.67, -136889.77, -135842.20, 131939.89, -187500.02, -131910.80, -102660.64, -91095.25, -90241.39, -89036.63, -106554.14, -68521.46, -163916.09, 0.000, 0.000, 0.000, 16:33:19.645
118, -134325.00, -87542.05, -144790.30, -143594.67, -136889.77, -135842.20, 131939.89, -187500.02, -131950.36, -102673.18, -90850.02, -90175.38, -88876.91, -106569.09, -68310.02, -163863.88, 0.000, 0.000, 0.000, 16:33:19.646
119, -131748.11, -86908.50, -144606.66, -143508.16, -136072.66, -135663.63, 131974.81, -187500.02, -131950.36, -102673.18, -90850.02, -90175.38, -88876.91, -106569.09, -68310.02, -163863.88, 0.000, 0.000, 0.000, 16:33:19.646
120, -131748.11, -86908.50, -144606.66, -143508.16, -136072.66, -135663.63, 131974.81, -187500.02, -131919.14, -102639.88, -91014.09, -90198.05, -89003.19, -106539.81, -68406.98, -163882.25, 0.000, 0.000, 0.000, 16:33:19.646
121, -137618.92, -87769.28, -144930.81, -143585.17, -136999.02, -135832.89, 131902.94, -187500.02, -131919.14, -102639.88, -91014.09, -90198.05, -89003.19, -106539.81, -68406.98, -163882.25, 0.000, 0.000, 0.000, 16:33:20.057
122, -137618.92, -87769.28, -144930.81, -143585.17, -136999.02, -135832.89, 131902.94, -187500.02, -131882.70, -102639.38, -91258.52, -90247.27, -89206.91, -106535.45, -68644.28, -163922.97, 0.000, 0.000, 0.000, 16:33:20.058
123, -135657.16, -87521.45, -144792.34, -143512.14, -136549.03, -135786.02, 131926.05, -187500.02, -131882.70, -102639.38, -91258.52, -90247.27, -89206.91, -106535.45, -68644.28, -163922.97, 0.000, 0.000, 0.000, 16:33:20.058
124, -135657.16, -87521.45, -144792.34, -143512.14, -136549.03, -135786.02, 131926.05, -187500.02, -131905.34, -102617.93, -91046.77, -90172.03, -89075.07, -106520.19, -68431.95, -163862.84, 0.000, 0.000, 0.000, 16:33:20.058
125, -137592.73, -87668.86, -144891.83, -143513.38, -136654.38, -135800.66, 131893.95, -187500.02, -131905.34, -102617.93, -91046.77, -90172.03, -89075.07, -106520.19, -68431.95, -163862.84, 0.000, 0.000, 0.000, 16:33:20.059
126, -137592.73, -87668.86, -144891.83, -143513.38, -136654.38, -135800.66, 131893.95, -187500.02, -131838.34, -102601.52, -91458.71, -90265.44, -89367.63, -106498.75, -68803.41, -163935.27, 0.050, 0.896, 0.308, 16:33:20.059
127, -140117.52, -88257.96, -145025.33, -143533.11, -137122.34, -136007.25, 131860.63, -187500.02, -131838.34, -102601.52, -91458.71, -90265.44, -89367.63, -106498.75, -68803.41, -163935.27, 0.000, 0.000, 0.000, 16:33:20.059
128, -140117.52, -88257.96, -145025.33, -143533.11, -137122.34, -136007.25, 131860.63, -187500.02, -131864.06, -102605.45, -91243.35, -90197.35, -89238.46, -106504.29, -68632.91, -163886.09, 0.000, 0.000, 0.000, 16:33:20.060
129, -137172.97, -87709.72, -144832.03, -143440.69, -136353.58, -135846.34, 131887.20, -187500.02, -131864.06, -102605.45, -91243.35, -90197.35, -89238.46, -106504.29, -68632.91, -163886.09, 0.000, 0.000, 0.000, 16:33:20.060
130, -137172.97, -87709.72, -144832.03, -143440.69, -136353.58, -135846.34, 131887.20, -187500.02, -131836.06, -102580.06, -91358.17, -90215.62, -89311.84, -106479.57, -68715.61, -163896.81, 0.000, 0.000, 0.000, 16:33:20.061
131, -141627.58, -88561.77, -145111.59, -143510.00, -137146.08, -136108.70, 131822.63, -187500.02, -131836.06, -102580.06, -91358.17, -90215.62, -89311.84, -106479.57, -68715.61, -163896.81, 0.000, 0.000, 0.000, 16:33:20.061
132, -141627.58, -88561.77, -145111.59, -143510.00, -137146.08, -136108.70, 131822.63, -187500.02, -131804.36, -102585.52, -91541.95, -90256.61, -89445.13, -106478.34, -68939.82, -163929.86, 0.000, 0.000, 0.000, 16:33:20.062
133, -139015.91, -88251.52, -144925.59, -143427.56, -136534.16, -136088.95, 131853.52, -187500.02, -131804.36, -102585.52, -91541.95, -90256.61, -89445.13, -106478.34, -68939.82, -163929.86, 0.000, 0.000, 0.000, 16:33:20.062
134, -139015.91, -88251.52, -144925.59, -143427.56, -136534.16, -136088.95, 131853.52, -187500.02, -131839.72, -102577.12, -91247.04, -90171.16, -89242.89, -106475.46, -68646.66, -163869.81, 0.000, 0.000, 0.000, 16:33:20.063
135, -139619.81, -88346.34, -144964.47, -143418.95, -136425.80, -136097.58, 131833.20, -187500.02, -131839.72, -102577.12, -91247.04, -90171.16, -89242.89, -106475.46, -68646.66, -163869.81, 0.000, 0.000, 0.000, 16:33:20.064
136, -139619.81, -88346.34, -144964.47, -143418.95, -136425.80, -136097.58, 131833.20, -187500.02, -131780.67, -102567.81, -91582.67, -90259.38, -89459.91, -106461.11, -68955.95, -163925.23, 0.048, 0.892, 0.318, 16:33:20.064
137, -141514.34, -88881.89, -145068.22, -143434.73, -136769.69, -136317.58, 131806.47, -187500.02, -131780.67, -102567.81, -91582.67, -90259.38, -89459.91, -106461.11, -68955.95, -163925.23, 0.000, 0.000, 0.000, 16:33:20.065
138, -141514.34, -88881.89, -145068.22, -143434.73, -136769.69, -136317.58, 131806.47, -187500.02, -131814.58, -102578.48, -91350.19, -90193.33, -89306.10, -106472.98, -68753.94, -163882.36, 0.000, 0.000, 0.000, 16:33:20.065
139, -138593.47, -88310.71, -144880.73, -143347.91, -135991.97, -136150.64, 131840.17, -187500.02, -131814.58, -102578.48, -91350.19, -90193.33, -89306.10, -106472.98, -68753.94, -163882.36, 0.000, 0.000, 0.000, 16:33:20.066
140, -138593.47, -88310.71, -144880.73, -143347.91, -135991.97, -136150.64, 131840.17, -187500.02, -131786.48, -102552.02, -91488.55, -90215.30, -89383.51, -106449.02, -68837.72, -163900.42, 0.000, 0.000, 0.000, 16:33:20.066
141, -142548.09, -89200.84, -145190.02, -143425.39, -136873.11, -136399.11, 131768.64, -187500.02, -131786.48, -102552.02, -91488.55, -90215.30, -89383.51, -106449.02, -68837.72, -163900.42, 0.000, 0.000, 0.000, 16:33:20.066
142, -142548.09, -89200.84, -145190.02, -143425.39, -136873.11, -136399.11, 131768.64, -187500.02, -131744.16, -102548.15, -91752.43, -90268.70, -89561.80, -106442.34, -69140.49, -163938.66, 0.000, 0.000, 0.000, 16:33:20.067
143, -142013.59, -89006.30, -145082.11, -143360.27, -136545.64, -136392.91, 131782.84, -187500.02, -131744.16, -102548.15, -91752.43, -90268.70, -89561.80, -106442.34, -69140.49, -163938.66, 0.000, 0.000, 0.000, 16:33:20.067
144, -142013.59, -89006.30, -145082.11, -143360.27, -136545.64, -136392.91, 131782.84, -187500.02, -131757.67, -102521.03, -91616.87, -90202.70, -89458.25, -106425.30, -69015.01, -163898.91, 0.000, 0.000, 0.000, 16:33:20.068
145, -142792.38, -89296.63, -145253.48, -143383.33, -136917.55, -136407.91, 131738.83, -187500.02, -131757.67, -102521.03, -91616.87, -90202.70, -89458.25, -106425.30, -69015.01, -163898.91, 0.000, 0.000, 0.000, 16:33:20.068
146, -142792.38, -89296.63, -145253.48, -143383.33, -136917.55, -136407.91, 131738.83, -187500.02, -131675.55, -102494.88, -92152.98, -90316.80, -89814.09, -106398.44, -69572.55, -163987.03, 0.034, 0.886, 0.314, 16:33:20.068
147, -143402.00, -90007.48, -145458.95, -143423.22, -137660.64, -136667.61, 131691.53, -187500.02, -131675.55, -102494.88, -92152.98, -90316.80, -89814.09, -106398.44, -69572.55, -163987.03, 0.000, 0.000, 0.000, 16:33:20.069
148, -143402.00, -90007.48, -145458.95, -143423.22, -137660.64, -136667.61, 131691.53, -187500.02, -131690.78, -102493.25, -92044.16, -90264.95, -89735.63, -106399.98, -69562.16, -163950.86, 0.000, 0.000, 0.000, 16:33:20.069
149, -143253.83, -89523.30, -145320.00, -143347.28, -137118.53, -136550.95, 131710.72, -187500.02, -131690.78, -102493.25, -92044.16, -90264.95, -89735.63, -106399.98, -69562.16, -163950.86, 0.000, 0.000, 0.000, 16:33:20.070
150, -143253.83, -89523.30, -145320.00, -143347.28, -137118.53, -136550.95, 131710.72, -187500.02, -131654.75, -102463.09, -92242.45, -90290.56, -89851.57, -106373.78, -69778.12, -163979.66, 0.000, 0.000, 0.000, 16:33:20.070
151, -143595.78, -90414.84, -145632.11, -143423.30, -138062.97, -136813.75, 131635.83, -187500.02, -131654.75, -102463.09, -92242.45, -90290.56, -89851.57, -106373.78, -69778.12, -163979.66, 0.000, 0.000, 0.000, 16:33:20.070
152, -143595.78, -90414.84, -145632.11, -143423.30, -138062.97, -136813.75, 131635.83, -187500.02, -131611.50, -102460.35, -92494.00, -90339.18, -90019.57, -106368.51, -70133.49, -164013.83, 0.000, 0.000, 0.000, 16:33:20.071
153, -143453.25, -90148.34, -145483.66, -143347.50, -137632.47, -136818.53, 131652.48, -187500.02, -131611.50, -102460.35, -92494.00, -90339.18, -90019.57, -106368.51, -70133.49, -164013.83, 0.000, 0.000, 0.000, 16:33:20.071
154, -143453.25, -90148.34, -145483.66, -143347.50, -137632.47, -136818.53, 131652.48, -187500.02, -131631.97, -102439.85, -92281.23, -90261.98, -89866.21, -106356.05, -69994.87, -163959.36, 0.000, 0.000, 0.000, 16:33:20.071
155, -143559.44, -90321.25, -145585.58, -143352.34, -137784.28, -136855.28, 131617.59, -187500.02, -131631.97, -102439.85, -92281.23, -90261.98, -89866.21, -106356.05, -69994.87, -163959.36, 0.000, 0.000, 0.000, 16:33:20.072
156, -143559.44, -90321.25, -145585.58, -143352.34, -137784.28, -136855.28, 131617.59, -187500.02, -131556.55, -102418.51, -92713.42, -90360.27, -90161.86, -106331.72, -70504.13, -164036.47, 0.032, 0.884, 0.314, 16:33:20.072
157, -143760.52, -90974.57, -145755.16, -143382.28, -138387.33, -137108.39, 131573.11, -187500.02, -131556.55, -102418.51, -92713.42, -90360.27, -90161.86, -106331.72, -70504.13, -164036.47, 0.000, 0.000, 0.000, 16:33:20.073
158, -143760.52, -90974.57, -145755.16, -143382.28, -138387.33, -137108.39, 131573.11, -187500.02, -131574.09, -102419.04, -92570.06, -90308.48, -90069.97, -106335.60, -70501.31, -163996.59, 0.000, 0.000, 0.000, 16:33:20.073
159, -143594.47, -90481.34, -145599.77, -143302.81, -137771.81, -136995.14, 131593.50, -187500.02, -131574.09, -102419.04, -92570.06, -90308.48, -90069.97, -106335.60, -70501.31, -163996.59, 0.000, 0.000, 0.000, 16:33:20.074
160, -143594.47, -90481.34, -145599.77, -143302.81, -137771.81, -136995.14, 131593.50, -187500.02, -131536.77, -102387.28, -92733.65, -90330.70, -90167.41, -106307.82, -70724.60, -164017.91, 0.000, 0.000, 0.000, 16:33:20.074
161, -143932.83, -91384.05, -145905.70, -143376.52, -138682.31, -137248.69, 131517.44, -187500.02, -131536.77, -102387.28, -92733.65, -90330.70, -90167.41, -106307.82, -70724.60, -164017.91, 0.000, 0.000, 0.000, 16:33:20.074
162, -143932.83, -91384.05, -145905.70, -143376.52, -138682.31, -137248.69, 131517.44, -187500.02, -131493.52, -102385.11, -92978.13, -90383.21, -90336.52, -106303.02, -71134.47, -164055.09, 0.000, 0.000, 0.000, 16:33:20.077
163, -143793.45, -91145.45, -145762.92, -143305.08, -138250.67, -137256.61, 131535.92, -187500.02, -131493.52, -102385.11, -92978.13, -90383.21, -90336.52, -106303.02, -71134.47, -164055.09, 0.000, 0.000, 0.000, 16:33:20.077
164, -143793.45, -91145.45, -145762.92, -143305.08, -138250.67, -137256.61, 131535.92, -187500.02, -131516.97, -102368.48, -92762.80, -90311.80, -90186.94, -106293.83, -71036.34, -164000.84, 0.000, 0.000, 0.000, 16:33:20.078
165, -143897.00, -91314.18, -145860.45, -143310.27, -138415.78, -137304.58, 131503.17, -187500.02, -131516.97, -102368.48, -92762.80, -90311.80, -90186.94, -106293.83, -71036.34, -164000.84, 0.000, 0.000, 0.000, 16:33:20.078
166, -143897.00, -91314.18, -145860.45, -143310.27, -138415.78, -137304.58, 131503.17, -187500.02, -131443.11, -102349.23, -93191.28, -90410.70, -90469.33, -106270.98, -71586.35, -164078.92, 0.030, 0.888, 0.322, 16:33:20.079
167, -144088.08, -91937.28, -146016.45, -143337.50, -138977.05, -137557.86, 131460.16, -187500.02, -131443.11, -102349.23, -93191.28, -90410.70, -90469.33, -106270.98, -71586.35, -164078.92, 0.000, 0.000, 0.000, 16:33:20.079
168, -144088.08, -91937.28, -146016.45, -143337.50, -138977.05, -137557.86, 131460.16, -187500.02, -131461.84, -102350.55, -93025.37, -90353.84, -90362.58, -106274.96, -71604.75, -164035.47, 0.000, 0.000, 0.000, 16:33:20.079
169, -143901.16, -91386.47, -145840.30, -143253.73, -138155.08, -137443.83, 131483.53, -187500.02, -131461.84, -102350.55, -93025.37, -90353.84, -90362.58, -106274.96, -71604.75, -164035.47, 0.000, 0.000, 0.000, 16:33:20.080
170, -143901.16, -91386.47, -145840.30, -143253.73, -138155.08, -137443.83, 131483.53, -187500.02, -131427.47, -102320.20, -93179.03, -90374.29, -90446.71, -106248.48, -71859.47, -164053.13, 0.000, 0.000, 0.000, 16:33:20.080
171, -144248.55, -92218.65, -146128.92, -143323.88, -138860.23, -137703.14, 131407.41, -187500.02, -131427.47, -102320.20, -93179.03, -90374.29, -90446.71, -106248.48, -71859.47, -164053.13, 0.000, 0.000, 0.000, 16:33:20.081
172, -144248.55, -92218.65, -146128.92, -143323.88, -138860.23, -137703.14, 131407.41, -187500.02, -131384.72, -102316.00, -93427.49, -90422.62, -90609.59, -106241.28, -72353.84, -164092.38, 0.000, 0.000, 0.000, 16:33:20.082
173, -144122.80, -91875.81, -145969.84, -143251.19, -138709.42, -137716.33, 131427.88, -187500.02, -131384.72, -102316.00, -93427.49, -90422.62, -90609.59, -106241.28, -72353.84, -164092.38, 0.000, 0.000, 0.000, 16:33:20.083
174, -144122.80, -91875.81, -145969.84, -143251.19, -138709.42, -137716.33, 131427.88, -187500.02, -131408.11, -102293.94, -93197.95, -90343.36, -90451.23, -106227.06, -72395.63, -164034.91, 0.000, 0.000, 0.000, 16:33:20.084
175, -144245.92, -91915.35, -146044.53, -143247.25, -138647.22, -137748.81, 131393.00, -187500.02, -131408.11, -102293.94, -93197.95, -90343.36, -90451.23, -106227.06, -72395.63, -164034.91, 0.000, 0.000, 0.000, 16:33:20.084
176, -144245.92, -91915.35, -146044.53, -143247.25, -138647.22, -137748.81, 131393.00, -187500.02, -131331.25, -102264.08, -93609.02, -90430.95, -90693.25, -106195.50, -73142.33, -164105.55, 0.010, 0.892, 0.324, 16:33:20.085
177, -144482.41, -92396.48, -146183.64, -143266.55, -138973.17, -137953.27, 131347.08, -187500.02, -131331.25, -102264.08, -93609.02, -90430.95, -90693.25, -106195.50, -73142.33, -164105.55, 0.000, 0.000, 0.000, 16:33:20.085
178, -144482.41, -92396.48, -146183.64, -143266.55, -138973.17, -137953.27, 131347.08, -187500.02, -131348.39, -102258.00, -93440.15, -90364.95, -90565.27, -106192.62, -73312.83, -164056.41, 0.000, 0.000, 0.000, 16:33:20.086
179, -144327.38, -91708.51, -145988.58, -143172.70, -138112.47, -137797.98, 131369.20, -187500.02, -131348.39, -102258.00, -93440.15, -90364.95, -90565.27, -106192.62, -73312.83, -164056.41, 0.000, 0.000, 0.000, 16:33:20.086
180, -144327.38, -91708.51, -145988.58, -143172.70, -138112.47, -137797.98, 131369.20, -187500.02, -131312.45, -102219.22, -93563.13, -90372.73, -90610.28, -106160.55, -73585.80, -164065.17, 0.000, 0.000, 0.000, 16:33:20.086
181, -144832.44, -92383.11, -146265.97, -143232.03, -138912.47, -138010.89, 131290.39, -187500.02, -131312.45, -102219.22, -93563.13, -90372.73, -90610.28, -106160.55, -73585.80, -164065.17, 0.000, 0.000, 0.000, 16:33:20.087
182, -144832.44, -92383.11, -146265.97, -143232.03, -138912.47, -138010.89, 131290.39, -187500.02, -131266.20, -102204.58, -93780.59, -90410.79, -90727.34, -106145.23, -74168.20, -164094.36, 0.000, 0.000, 0.000, 16:33:20.087
183, -144751.13, -91930.09, -146107.69, -143153.44, -138363.89, -137986.25, 131311.33, -187500.02, -131266.20, -102204.58, -93780.59, -90410.79, -90727.34, -106145.23, -74168.20, -164094.36, 0.000, 0.000, 0.000, 16:33:20.088
184, -144751.13, -91930.09, -146107.69, -143153.44, -138363.89, -137986.25, 131311.33, -187500.02, -131294.98, -102188.48, -93550.14, -90328.25, -90572.53, -106138.51, -74087.42, -164041.72, 0.000, 0.000, 0.000, 16:33:20.088
185, -144891.45, -91911.35, -146180.56, -143146.52, -138395.20, -138006.80, 131280.02, -187500.02, -131294.98, -102188.48, -93550.14, -90328.25, -90572.53, -106138.51, -74087.42, -164041.72, 0.000, 0.000, 0.000, 16:33:20.089
186, -144891.45, -91911.35, -146180.56, -143146.52, -138395.20, -138006.80, 131280.02, -187500.02, -131217.45, -102157.57, -93939.66, -90412.47, -90789.84, -106106.92, -74717.70, -164105.14, 0.006, 0.886, 0.328, 16:33:20.089
187, -145222.50, -92323.12, -146313.38, -143159.95, -138815.73, -138221.34, 131232.72, -187500.02, -131217.45, -102157.57, -93939.66, -90412.47, -90789.84, -106106.92, -74717.70, -164105.14, 0.000, 0.000, 0.000, 16:33:20.089
188, -145222.50, -92323.12, -146313.38, -143159.95, -138815.73, -138221.34, 131232.72, -187500.02, -131234.69, -102150.87, -93757.72, -90339.73, -90672.44, -106104.40, -74810.52, -164056.77, 0.000, 0.000, 0.000, 16:33:20.090
189, -145013.48, -91604.40, -146111.09, -143063.13, -138063.19, -138073.22, 131257.89, -187500.02, -131234.69, -102150.87, -93757.72, -90339.73, -90672.44, -106104.40, -74810.52, -164056.77, 0.000, 0.000, 0.000, 16:33:20.090
190, -145013.48, -91604.40, -146111.09, -143063.13, -138063.19, -138073.22, 131257.89, -187500.02, -131204.02, -102119.46, -93873.55, -90349.08, -90720.50, -106078.78, -75012.12, -164068.11, 0.000, 0.000, 0.000, 16:33:20.090
191, -145509.61, -92320.41, -146376.45, -143124.50, -139045.14, -138291.59, 131184.11, -187500.02, -131204.02, -102119.46, -93873.55, -90349.08, -90720.50, -106078.78, -75012.12, -164068.11, 0.000, 0.000, 0.000, 16:33:20.091
192, -145509.61, -92320.41, -146376.45, -143124.50, -139045.14, -138291.59, 131184.11, -187500.02, -131161.22, -102109.78, -94106.61, -90388.88, -90836.21, -106066.38, -75484.34, -164100.83, 0.000, 0.000, 0.000, 16:33:20.091
193, -145399.70, -91867.81, -146197.14, -143040.56, -138615.25, -138261.30, 131205.19, -187500.02, -131161.22, -102109.78, -94106.61, -90388.88, -90836.21, -106066.38, -75484.34, -164100.83, 0.000, 0.000, 0.000, 16:33:20.091
194, -145399.70, -91867.81, -146197.14, -143040.56, -138615.25, -138261.30, 131205.19, -187500.02, -131189.31, -102091.01, -93883.60, -90300.95, -90683.55, -106056.03, -75389.73, -164040.55, 0.000, 0.000, 0.000, 16:33:20.092
195, -145533.56, -91837.73, -146253.78, -143029.80, -138742.19, -138269.98, 131177.42, -187500.02, -131189.31, -102091.01, -93883.60, -90300.95, -90683.55, -106056.03, -75389.73, -164040.55, 0.024, 0.894, 0.330, 16:33:20.092
196, -145533.56, -91837.73, -146253.78, -143029.80, -138742.19, -138269.98, 131177.42, -187500.02, -131118.81, -102066.78, -94288.71, -90386.65, -90883.02, -106030.86, -75933.61, -164112.69, 0.000, 0.000, 0.000, 16:33:20.093
197, -145887.03, -92251.37, -146373.81, -143044.36, -139269.45, -138469.14, 131136.25, -187500.02, -131118.81, -102066.78, -94288.71, -90386.65, -90883.02, -106030.86, -75933.61, -164112.69, 0.000, 0.000, 0.000, 16:33:20.094
198, -145887.03, -92251.37, -146373.81, -143044.36, -139269.45, -138469.14, 131136.25, -187500.02, -131140.61, -102063.96, -94119.08, -90313.92, -90764.33, -106026.05, -75985.91, -164060.86, 0.000, 0.000, 0.000, 16:33:20.094
199, -145641.34, -91465.30, -146154.47, -142940.56, -138527.34, -138371.47, 131165.83, -187500.02, -131140.61, -102063.96, -94119.08, -90313.92, -90764.33, -106026.05, -75985.91, -164060.86, 0.000, 0.000, 0.000, 16:33:20.094
200, -145641.34, -91465.30, -146154.47, -142940.56, -138527.34, -138371.47, 131165.83, -187500.02, -131113.27, -102033.34, -94231.87, -90316.20, -90794.23, -105992.28, -76185.09, -164066.16, 0.000, 0.000, 0.000, 16:33:20.095
201, -146145.77, -92133.13, -146415.97, -142994.92, -139363.38, -138640.95, 131094.63, -187500.02, -131113.27, -102033.34, -94231.87, -90316.20, -90794.23, -105992.28, -76185.09, -164066.16, 0.000, 0.000, 0.000, 16:33:20.095
202, -146145.77, -92133.13, -146415.97, -142994.92, -139363.38, -138640.95, 131094.63, -187500.02, -131073.64, -102026.41, -94433.55, -90353.30, -90894.82, -105981.46, -76673.14, -164096.52, 0.000, 0.000, 0.000, 16:33:20.096
203, -146018.52, -91602.23, -146251.91, -142908.73, -138823.50, -138595.45, 131121.08, -187500.02, -131073.64, -102026.41, -94433.55, -90353.30, -90894.82, -105981.46, -76673.14, -164096.52, 0.000, 0.000, 0.000, 16:33:20.096
204, -146018.52, -91602.23, -146251.91, -142908.73, -138823.50, -138595.45, 131121.08, -187500.02, -131107.94, -102012.46, -94152.34, -90263.43, -90752.69, -105974.94, -76580.25, -164035.17, 0.000, 0.000, 0.000, 16:33:20.097
205, -146145.94, -91481.57, -146328.34, -142890.83, -138969.94, -138590.91, 131095.69, -187500.02, -131107.94, -102012.46, -94152.34, -90263.43, -90752.69, -105974.94, -76580.25, -164035.17, 0.018, 0.896, 0.334, 16:33:20.097
206, -146145.94, -91481.57, -146328.34, -142890.83, -138969.94, -138590.91, 131095.69, -187500.02, -131037.09, -101987.59, -94451.96, -90342.57, -90940.10, -105948.52, -77146.80, -164101.58, 0.000, 0.000, 0.000, 16:33:20.098
207, -146501.05, -91857.35, -146486.88, -142902.59, -139598.38, -138800.48, 131056.25, -187500.02, -131037.09, -101987.59, -94451.96, -90342.57, -90940.10, -105948.52, -77146.80, -164101.58, 0.000, 0.000, 0.000, 16:33:20.098
208, -146501.05, -91857.35, -146486.88, -142902.59, -139598.38, -138800.48, 131056.25, -187500.02, -131062.73, -101989.06, -94154.15, -90269.41, -90842.65, -105952.95, -77200.38, -164054.83, 0.000, 0.000, 0.000, 16:33:20.099
209, -146244.86, -91090.42, -146304.05, -142799.66, -138705.22, -138633.47, 131088.42, -187500.02, -131062.73, -101989.06, -94154.15, -90269.41, -90842.65, -105952.95, -77200.38, -164054.83, 0.000, 0.000, 0.000, 16:33:20.099
210, -146244.86, -91090.42, -146304.05, -142799.66, -138705.22, -138633.47, 131088.42, -187500.02, -131036.88, -101963.34, -94160.41, -90277.53, -90874.10, -105930.13, -77345.93, -164060.41, 0.000, 0.000, 0.000, 16:33:20.100
211, -146751.27, -91933.41, -146604.33, -142864.20, -139412.27, -138856.30, 131019.77, -187500.02, -131036.88, -101963.34, -94160.41, -90277.53, -90874.10, -105930.13, -77345.93, -164060.41, 0.000, 0.000, 0.000, 16:33:20.100
212, -146751.27, -91933.41, -146604.33, -142864.20, -139412.27, -138856.30, 131019.77, -187500.02, -130998.85, -101964.61, -94252.41, -90325.56, -90973.20, -105927.82, -77751.55, -164095.97, 0.000, 0.000, 0.000, 16:33:20.101
213, -146630.36, -91525.83, -146477.50, -142782.00, -138692.53, -138829.92, 131044.59, -187500.02, -130998.85, -101964.61, -94252.41, -90325.56, -90973.20, -105927.82, -77751.55, -164095.97, 0.000, 0.000, 0.000, 16:33:20.101
214, -146630.36, -91525.83, -146477.50, -142782.00, -138692.53, -138829.92, 131044.59, -187500.02, -131029.77, -101951.20, -93893.13, -90238.48, -90833.98, -105921.96, -77648.04, -164028.61, 0.000, 0.000, 0.000, 16:33:20.101
215, -146749.80, -91634.64, -146570.39, -142773.17, -138666.11, -138903.86, 131019.64, -187500.02, -131029.77, -101951.20, -93893.13, -90238.48, -90833.98, -105921.96, -77648.04, -164028.61, 0.020, 0.886, 0.320, 16:33:20.102
216, -146749.80, -91634.64, -146570.39, -142773.17, -138666.11, -138903.86, 131019.64, -187500.02, -130961.57, -101940.67, -94123.66, -90332.67, -91015.67, -105908.75, -78075.52, -164100.22, 0.000, 0.000, 0.000, 16:33:20.102
217, -147107.20, -92250.25, -146742.64, -142793.91, -139163.98, -139149.06, 130979.07, -187500.02, -130961.57, -101940.67, -94123.66, -90332.67, -91015.67, -105908.75, -78075.52, -164100.22, 0.000, 0.000, 0.000, 16:33:20.103
218, -147107.20, -92250.25, -146742.64, -142793.91, -139163.98, -139149.06, 130979.07, -187500.02, -130985.11, -101942.91, -93808.62, -90265.02, -90923.74, -105913.58, -78085.46, -164048.77, 0.000, 0.000, 0.000, 16:33:20.103
219, -146826.19, -91551.02, -146590.38, -142692.45, -138268.28, -139007.78, 131011.91, -187500.02, -130985.11, -101942.91, -93808.62, -90265.02, -90923.74, -105913.58, -78085.46, -164048.77, 0.000, 0.000, 0.000, 16:33:20.103
220, -146826.19, -91551.02, -146590.38, -142692.45, -138268.28, -139007.78, 131011.91, -187500.02, -130963.11, -101926.39, -93653.56, -90279.05, -90964.65, -105900.17, -78215.88, -164054.84, 0.000, 0.000, 0.000, 16:33:20.104
221, -147259.55, -92504.70, -146972.73, -142760.78, -139281.58, -139310.81, 130948.20, -187500.02, -130963.11, -101926.39, -93653.56, -90279.05, -90964.65, -105900.17, -78215.88, -164054.84, 0.000, 0.000, 0.000, 16:33:20.104
222, -147259.55, -92504.70, -146972.73, -142760.78, -139281.58, -139310.81, 130948.20, -187500.02, -130927.55, -101936.24, -93563.05, -90329.84, -91079.27, -105906.79, -78514.16, -164095.23, 0.000, 0.000, 0.000, 16:33:20.104
223, -147171.86, -92113.95, -146920.83, -142676.86, -138643.95, -139284.73, 130972.84, -187500.02, -130927.55, -101936.24, -93563.05, -90329.84, -91079.27, -105906.79, -78514.16, -164095.23, 0.000, 0.000, 0.000, 16:33:20.105
224, -147171.86, -92113.95, -146920.83, -142676.86, -138643.95, -139284.73, 130972.84, -187500.02, -130958.95, -101920.91, -93044.38, -90240.56, -90969.59, -105898.45, -78402.41, -164027.25, 0.000, 0.000, 0.000, 16:33:20.105
225, -147408.72, -92224.37, -147059.41, -142666.94, -138879.41, -139333.02, 130949.39, -187500.02, -130958.95, -101920.91, -93044.38, -90240.56, -90969.59, -105898.45, -78402.41, -164027.25, 0.032, 0.878, 0.338, 16:33:20.106
226, -147408.72, -92224.37, -147059.41, -142666.94, -138879.41, -139333.02, 130949.39, -187500.02, -130892.84, -101917.02, -93146.63, -90337.77, -91134.12, -105889.58, -78715.71, -164099.69, 0.000, 0.000, 0.000, 16:33:20.106
227, -147899.70, -92883.66, -147275.80, -142691.47, -140011.17, -139598.53, 130911.34, -187500.02, -130892.84, -101917.02, -93146.63, -90337.77, -91134.12, -105889.58, -78715.71, -164099.69, 0.000, 0.000, 0.000, 16:33:20.106
228, -147899.70, -92883.66, -147275.80, -142691.47, -140011.17, -139598.53, 130911.34, -187500.02, -130916.82, -101922.54, -92775.27, -90269.91, -91058.88, -105894.98, -78645.41, -164046.52, 0.000, 0.000, 0.000, 16:33:20.107
229, -147644.78, -92155.86, -147138.44, -142587.27, -139688.47, -139455.13, 130942.84, -187500.02, -130916.82, -101922.54, -92775.27, -90269.91, -91058.88, -105894.98, -78645.41, -164046.52, 0.000, 0.000, 0.000, 16:33:20.107
230, -147644.78, -92155.86, -147138.44, -142587.27, -139688.47, -139455.13, 130942.84, -187500.02, -130893.95, -101910.72, -92640.42, -90277.27, -91082.08, -105882.47, -78739.45, -164054.72, 0.000, 0.000, 0.000, 16:33:20.107
231, -148176.75, -93170.45, -147465.34, -142657.13, -140827.56, -139774.30, 130879.20, -187500.02, -130893.95, -101910.72, -92640.42, -90277.27, -91082.08, -105882.47, -78739.45, -164054.72, 0.000, 0.000, 0.000, 16:33:20.108
232, -148176.75, -93170.45, -147465.34, -142657.13, -140827.56, -139774.30, 130879.20, -187500.02, -130858.22, -101925.47, -92650.80, -90328.78, -91181.77, -105890.38, -78967.62, -164093.11, 0.000, 0.000, 0.000, 16:33:20.108
233, -148192.64, -92731.44, -147352.53, -142571.77, -140191.41, -139722.84, 130900.98, -187500.02, -130858.22, -101925.47, -92650.80, -90328.78, -91181.77, -105890.38, -78967.62, -164093.11, 0.000, 0.000, 0.000, 16:33:20.109
234, -148192.64, -92731.44, -147352.53, -142571.77, -140191.41, -139722.84, 130900.98, -187500.02, -130885.80, -101904.08, -92250.32, -90231.84, -91071.80, -105874.82, -78847.43, -164018.06, 0.000, 0.000, 0.000, 16:33:20.109
235, -148363.70, -92827.77, -147435.45, -142559.75, -140322.69, -139762.23, 130876.37, -187500.02, -130885.80, -101904.08, -92250.32, -90231.84, -91071.80, -105874.82, -78847.43, -164018.06, 0.052, 0.874, 0.334, 16:33:20.109
236, -148363.70, -92827.77, -147435.45, -142559.75, -140322.69, -139762.23, 130876.37, -187500.02, -130821.80, -101903.45, -92426.18, -90329.01, -91207.32, -105869.57, -79129.53, -164093.69, 0.000, 0.000, 0.000, 16:33:20.110
237, -148835.33, -93479.95, -147599.92, -142589.78, -141030.19, -140022.50, 130841.54, -187500.02, -130821.80, -101903.45, -92426.18, -90329.01, -91207.32, -105869.57, -79129.53, -164093.69, 0.000, 0.000, 0.000, 16:33:20.110
238, -148835.33, -93479.95, -147599.92, -142589.78, -141030.19, -140022.50, 130841.54, -187500.02, -130845.41, -101898.36, -92187.35, -90259.16, -91132.15, -105868.74, -79087.40, -164043.00, 0.000, 0.000, 0.000, 16:33:20.111
239, -148732.03, -92645.16, -147387.44, -142483.83, -140174.36, -139814.61, 130869.99, -187500.02, -130845.41, -101898.36, -92187.35, -90259.16, -91132.15, -105868.74, -79087.40, -164043.00, 0.000, 0.000, 0.000, 16:33:20.111
240, -148732.03, -92645.16, -147387.44, -142483.83, -140174.36, -139814.61, 130869.99, -187500.02, -130822.43, -101877.33, -92211.70, -90268.27, -91155.69, -105851.02, -79171.91, -164049.80, 0.000, 0.000, 0.000, 16:33:20.111
241, -149250.81, -93651.15, -147645.53, -142557.56, -141147.06, -140142.33, 130806.38, -187500.02, -130822.43, -101877.33, -92211.70, -90268.27, -91155.69, -105851.02, -79171.91, -164049.80, 0.000, 0.000, 0.000, 16:33:20.537
242, -149250.81, -93651.15, -147645.53, -142557.56, -141147.06, -140142.33, 130806.38, -187500.02, -130782.96, -101883.70, -92363.35, -90321.09, -91251.09, -105854.39, -79374.33, -164088.63, 0.000, 0.000, 0.000, 16:33:20.538
243, -149305.64, -93160.52, -147477.67, -142472.08, -140517.41, -140110.63, 130824.13, -187500.02, -130782.96, -101883.70, -92363.35, -90321.09, -91251.09, -105854.39, -79374.33, -164088.63, 0.000, 0.000, 0.000, 16:33:20.538
244, -149305.64, -93160.52, -147477.67, -142472.08, -140517.41, -140110.63, 130824.13, -187500.02, -130809.60, -101857.92, -92103.29, -90223.57, -91141.54, -105836.40, -79267.20, -164015.67, 0.000, 0.000, 0.000, 16:33:20.538
245, -149488.42, -93246.53, -147511.31, -142461.66, -140464.86, -140170.47, 130800.82, -187500.02, -130809.60, -101857.92, -92103.29, -90223.57, -91141.54, -105836.40, -79267.20, -164015.67, 0.048, 0.894, 0.346, 16:33:20.539
246, -149488.42, -93246.53, -147511.31, -142461.66, -140464.86, -140170.47, 130800.82, -187500.02, -130744.55, -101860.27, -92400.41, -90322.68, -91271.36, -105833.05, -79542.08, -164089.14, 0.000, 0.000, 0.000, 16:33:20.539
247, -149938.89, -93923.52, -147640.27, -142488.23, -141040.38, -140483.06, 130759.73, -187500.02, -130744.55, -101860.27, -92400.41, -90322.68, -91271.36, -105833.05, -79542.08, -164089.14, 0.000, 0.000, 0.000, 16:33:20.539
248, -149938.89, -93923.52, -147640.27, -142488.23, -141040.38, -140483.06, 130759.73, -187500.02, -130763.24, -101856.59, -92216.30, -90251.91, -91196.05, -105831.59, -79504.55, -164034.81, 0.000, 0.000, 0.000, 16:33:20.540
249, -149851.59, -93092.38, -147422.78, -142383.73, -140031.84, -140310.48, 130788.84, -187500.02, -130763.24, -101856.59, -92216.30, -90251.91, -91196.05, -105831.59, -79504.55, -164034.81, 0.000, 0.000, 0.000, 16:33:20.540
250, -149851.59, -93092.38, -147422.78, -142383.73, -140031.84, -140310.48, 130788.84, -187500.02, -130741.49, -101840.31, -92268.45, -90260.03, -91209.30, -105816.55, -79585.35, -164040.47, 0.000, 0.000, 0.000, 16:33:20.541
251, -150323.08, -94099.12, -147671.28, -142455.48, -140967.89, -140671.08, 130724.84, -187500.02, -130741.49, -101840.31, -92268.45, -90260.03, -91209.30, -105816.55, -79585.35, -164040.47, 0.000, 0.000, 0.000, 16:33:20.541
252, -150323.08, -94099.12, -147671.28, -142455.48, -140967.89, -140671.08, 130724.84, -187500.02, -130701.53, -101848.58, -92439.88, -90312.27, -91288.41, -105821.05, -79780.77, -164079.23, 0.000, 0.000, 0.000, 16:33:20.542
253, -150361.44, -93605.77, -147506.44, -142370.92, -140396.23, -140640.92, 130742.79, -187500.02, -130701.53, -101848.58, -92439.88, -90312.27, -91288.41, -105821.05, -79780.77, -164079.23, 0.000, 0.000, 0.000, 16:33:20.542
254, -150361.44, -93605.77, -147506.44, -142370.92, -140396.23, -140640.92, 130742.79, -187500.02, -130729.25, -101820.95, -92179.20, -90214.30, -91174.93, -105802.11, -79665.59, -164005.83, 0.000, 0.000, 0.000, 16:33:20.543
255, -150532.13, -93668.67, -147540.19, -142361.31, -140455.83, -140683.08, 130722.70, -187500.02, -130729.25, -101820.95, -92179.20, -90214.30, -91174.93, -105802.11, -79665.59, -164005.83, 0.030, 0.894, 0.340, 16:33:20.544
0, -150532.13, -93668.67, -147540.19, -142361.31, -140455.83, -140683.08, 130722.70, -187500.02, -130670.08, -101826.79, -92343.66, -90317.96, -91309.22, -105804.62, -79911.10, -164085.95, 0.000, 0.000, 0.000, 16:33:20.544
1, -150926.69, -94368.95, -147677.92, -142393.86, -141449.03, -141013.08, 130687.43, -187500.02, -130670.08, -101826.79, -92343.66, -90317.96, -91309.22, -105804.62, -79911.10, -164085.95, 0.000, 0.000, 0.000, 16:33:20.545
2, -150926.69, -94368.95, -147677.92, -142393.86, -141449.03, -141013.08, 130687.43, -187500.02, -130691.72, -101821.65, -92070.84, -90249.57, -91237.67, -105804.23, -79844.23, -164034.63, 0.000, 0.000, 0.000, 16:33:20.546
3, -150832.83, -93509.46, -147459.70, -142287.84, -140639.20, -140806.22, 130716.55, -187500.02, -130691.72, -101821.65, -92070.84, -90249.57, -91237.67, -105804.23, -79844.23, -164034.63, 0.000, 0.000, 0.000, 16:33:20.547
4, -150832.83, -93509.46, -147459.70, -142287.84, -140639.20, -140806.22, 130716.55, -187500.02, -130670.64, -101804.64, -92054.59, -90256.88, -91249.12, -105790.20, -79874.41, -164041.80, 0.000, 0.000, 0.000, 16:33:20.547
5, -151317.28, -94568.38, -147708.28, -142362.33, -141572.03, -141232.42, 130654.28, -187500.02, -130670.64, -101804.64, -92054.59, -90256.88, -91249.12, -105790.20, -79874.41, -164041.80, 0.000, 0.000, 0.000, 16:33:20.548
6, -151317.28, -94568.38, -147708.28, -142362.33, -141572.03, -141232.42, 130654.28, -187500.02, -130630.88, -101816.30, -92166.27, -90312.06, -91329.80, -105798.45, -79975.26, -164083.59, 0.000, 0.000, 0.000, 16:33:20.549
7, -151411.69, -94076.99, -147545.61, -142277.97, -141181.70, -141220.95, 130671.69, -187500.02, -130630.88, -101816.30, -92166.27, -90312.06, -91329.80, -105798.45, -79975.26, -164083.59, 0.000, 0.000, 0.000, 16:33:20.549
8, -151411.69, -94076.99, -147545.61, -142277.97, -141181.70, -141220.95, 130671.69, -187500.02, -130659.45, -101788.52, -91952.30, -90213.38, -91217.65, -105779.25, -79822.81, -164010.41, 0.000, 0.000, 0.000, 16:33:20.550
9, -151620.66, -94114.90, -147573.70, -142265.67, -141132.70, -141226.61, 130651.82, -187500.02, -130659.45, -101788.52, -91952.30, -90213.38, -91217.65, -105779.25, -79822.81, -164010.41, 0.032, 0.908, 0.340, 16:33:20.550
10, -151620.66, -94114.90, -147573.70, -142265.67, -141132.70, -141226.61, 130651.82, -187500.02, -130597.73, -101789.95, -92169.63, -90312.38, -91341.38, -105777.03, -79989.34, -164084.69, 0.000, 0.000, 0.000, 16:33:20.550
11, -152084.19, -94778.08, -147707.34, -142296.25, -141688.03, -141543.11, 130614.91, -187500.02, -130597.73, -101789.95, -92169.63, -90312.38, -91341.38, -105777.03, -79989.34, -164084.69, 0.000, 0.000, 0.000, 16:33:20.551
12, -152084.19, -94778.08, -147707.34, -142296.25, -141688.03, -141543.11, 130614.91, -187500.02, -130619.84, -101781.21, -92019.73, -90244.45, -91273.10, -105774.35, -79885.78, -164034.58, 0.000, 0.000, 0.000, 16:33:20.551
13, -152035.08, -93854.50, -147490.11, -142190.13, -140976.09, -141330.97, 130644.66, -187500.02, -130619.84, -101781.21, -92019.73, -90244.45, -91273.10, -105774.35, -79885.78, -164034.58, 0.000, 0.000, 0.000, 16:33:20.552
14, -152035.08, -93854.50, -147490.11, -142190.13, -140976.09, -141330.97, 130644.66, -187500.02, -130599.67, -101757.79, -92043.66, -90250.24, -91282.22, -105756.67, -79905.49, -164041.09, 0.000, 0.000, 0.000, 16:33:20.552
15, -152521.22, -94852.09, -147735.75, -142265.92, -141662.48, -141660.70, 130585.48, -187500.02, -130599.67, -101757.79, -92043.66, -90250.24, -91282.22, -105756.67, -79905.49, -164041.09, 0.000, 0.000, 0.000, 16:33:20.552
16, -152521.22, -94852.09, -147735.75, -142265.92, -141662.48, -141660.70, 130585.48, -187500.02, -130565.16, -101765.03, -92166.81, -90309.90, -91367.05, -105764.63, -80003.82, -164087.34, 0.000, 0.000, 0.000, 16:33:20.553
17, -152625.39, -94291.95, -147580.45, -142186.50, -141374.52, -141651.53, 130607.05, -187500.02, -130565.16, -101765.03, -92166.81, -90309.90, -91367.05, -105764.63, -80003.82, -164087.34, 0.000, 0.000, 0.000, 16:33:20.554
18, -152625.39, -94291.95, -147580.45, -142186.50, -141374.52, -141651.53, 130607.05, -187500.02, -130595.12, -101727.88, -91974.30, -90212.45, -91258.77, -105740.40, -79867.32, -164013.83, 0.000, 0.000, 0.000, 16:33:20.554
19, -152811.98, -94292.55, -147605.02, -142173.11, -141296.80, -141588.81, 130586.93, -187500.02, -130595.12, -101727.88, -91974.30, -90212.45, -91258.77, -105740.40, -79867.32, -164013.83, 0.102, 0.836, 0.202, 16:33:20.554
20, -152811.98, -94292.55, -147605.02, -142173.11, -141296.80, -141588.81, 130586.93, -187500.02, -130534.81, -101726.81, -92195.45, -90312.27, -91382.94, -105735.35, -80033.13, -164093.81, 0.000, 0.000, 0.000, 16:33:20.555
21, -153255.89, -95001.57, -147740.98, -142206.53, -141696.42, -141802.81, 130549.94, -187500.02, -130534.81, -101726.81, -92195.45, -90312.27, -91382.94, -105735.35, -80033.13, -164093.81, 0.000, 0.000, 0.000, 16:33:20.555
22, -153255.89, -95001.57, -147740.98, -142206.53, -141696.42, -141802.81, 130549.94, -187500.02, -130550.81, -101716.23, -92051.37, -90245.14, -91309.96, -105729.78, -79939.47, -164029.86, 0.000, 0.000, 0.000, 16:33:20.555
23, -153204.34, -94070.30, -147517.17, -142096.66, -141034.88, -141668.30, 130575.27, -187500.02, -130550.81, -101716.23, -92051.37, -90245.14, -91309.96, -105729.78, -79939.47, -164029.86, 0.000, 0.000, 0.000, 16:33:20.556
24, -153204.34, -94070.30, -147517.17, -142096.66, -141034.88, -141668.30, 130575.27, -187500.02, -130530.88, -101699.31, -92073.05, -90248.16, -91311.88, -105716.38, -79967.41, -164033.80, 0.000, 0.000, 0.000, 16:33:20.556
25, -153685.22, -95077.37, -147758.92, -142170.17, -141617.81, -141819.36, 130515.54, -187500.02, -130530.88, -101699.31, -92073.05, -90248.16, -91311.88, -105716.38, -79967.41, -164033.80, 0.000, 0.000, 0.000, 16:33:20.556
26, -153685.22, -95077.37, -147758.92, -142170.17, -141617.81, -141819.36, 130515.54, -187500.02, -130493.50, -101715.23, -92200.77, -90301.52, -91389.48, -105729.00, -80073.34, -164093.20, 0.000, 0.000, 0.000, 16:33:20.557
27, -153785.45, -94599.80, -147596.41, -142088.41, -141448.83, -141854.97, 130531.10, -187500.02, -130493.50, -101715.23, -92200.77, -90301.52, -91389.48, -105729.00, -80073.34, -164093.20, 0.000, 0.000, 0.000, 16:33:20.557
28, -153785.45, -94599.80, -147596.41, -142088.41, -141448.83, -141854.97, 130531.10, -187500.02, -130516.08, -101685.08, -92000.78, -90203.52, -91271.71, -105707.97, -79940.12, -164006.17, 0.000, 0.000, 0.000, 16:33:20.558
29, -153965.78, -94650.07, -147612.17, -142073.97, -141458.84, -141841.34, 130507.56, -187500.02, -130516.08, -101685.08, -92000.78, -90203.52, -91271.71, -105707.97, -79940.12, -164006.17, 0.082, 0.864, 0.276, 16:33:20.558
30, -153965.78, -94650.07, -147612.17, -142073.97, -141458.84, -141841.34, 130507.56, -187500.02, -130453.85, -101690.06, -92202.33, -90304.51, -91393.46, -105708.91, -80119.45, -164081.45, 0.000, 0.000, 0.000, 16:33:20.558
31, -154416.19, -95390.31, -147747.55, -142108.00, -141726.44, -141832.88, 130467.77, -187500.02, -130453.85, -101690.06, -92202.33, -90304.51, -91393.46, -105708.91, -80119.45, -164081.45, 0.000, 0.000, 0.000, 16:33:20.559
32, -154416.19, -95390.31, -147747.55, -142108.00, -141726.44, -141832.88, 130467.77, -187500.02, -130470.80, -101684.05, -92060.10, -90234.95, -91328.13, -105706.16, -80036.95, -164037.55, 0.000, 0.000, 0.000, 16:33:20.559
33, -154384.20, -94506.86, -147520.09, -141999.64, -141550.11, -141838.33, 130494.15, -187500.02, -130470.80, -101684.05, -92060.10, -90234.95, -91328.13, -105706.16, -80036.95, -164037.55, 0.000, 0.000, 0.000, 16:33:20.559
34, -154384.20, -94506.86, -147520.09, -141999.64, -141550.11, -141838.33, 130494.15, -187500.02, -130446.90, -101660.20, -92058.49, -90239.38, -91330.86, -105685.10, -80072.77, -164032.39, 0.000, 0.000, 0.000, 16:33:20.560
35, -154901.09, -95525.45, -147754.39, -142071.38, -141712.02, -141805.91, 130430.20, -187500.02, -130446.90, -101660.20, -92058.49, -90239.38, -91330.86, -105685.10, -80072.77, -164032.39, 0.000, 0.000, 0.000, 16:33:20.560
36, -154901.09, -95525.45, -147754.39, -142071.38, -141712.02, -141805.91, 130430.20, -187500.02, -130407.67, -101670.84, -92161.70, -90297.06, -91414.32, -105691.27, -80188.18, -164077.64, 0.000, 0.000, 0.000, 16:33:20.560
37, -155048.61, -95038.85, -147595.42, -141990.06, -141702.98, -141818.48, 130446.20, -187500.02, -130407.67, -101670.84, -92161.70, -90297.06, -91414.32, -105691.27, -80188.18, -164077.64, 0.000, 0.000, 0.000, 16:33:20.561
38, -155048.61, -95038.85, -147595.42, -141990.06, -141702.98, -141818.48, 130446.20, -187500.02, -130432.20, -101639.52, -91956.77, -90195.19, -91306.43, -105666.98, -80056.57, -164000.31, 0.072, 0.882, 0.308, 16:33:20.561
39, -155244.44, -95055.53, -147602.98, -141974.61, -141711.59, -141797.23, 130425.24, -187500.02, -130432.20, -101639.52, -91956.77, -90195.19, -91306.43, -105666.98, -80056.57, -164000.31, 0.000, 0.000, 0.000, 16:33:20.562
40, -155244.44, -95055.53, -147602.98, -141974.61, -141711.59, -141797.23, 130425.24, -187500.02, -130374.77, -101640.64, -92144.51, -90297.09, -91432.52, -105663.09, -80238.31, -164076.13, 0.000, 0.000, 0.000, 16:33:20.562
41, -155732.20, -95720.34, -147735.13, -142010.73, -141754.61, -141781.05, 130390.30, -187500.02, -130374.77, -101640.64, -92144.51, -90297.09, -91432.52, -105663.09, -80238.31, -164076.13, 0.000, 0.000, 0.000, 16:33:20.562
42, -155732.20, -95720.34, -147735.13, -142010.73, -141754.61, -141781.05, 130390.30, -187500.02, -130392.85, -101626.98, -92002.19, -90227.75, -91366.75, -105652.47, -80147.25, -164022.64, 0.000, 0.000, 0.000, 16:33:20.563
43, -155726.05, -94788.23, -147508.34, -141899.67, -141716.53, -141787.17, 130418.22, -187500.02, -130392.85, -101626.98, -92002.19, -90227.75, -91366.75, -105652.47, -80147.25, -164022.64, 0.000, 0.000, 0.000, 16:33:20.564
44, -155726.05, -94788.23, -147508.34, -141899.67, -141716.53, -141787.17, 130418.22, -187500.02, -130375.69, -101602.69, -92016.77, -90231.28, -91376.81, -105629.91, -80170.92, -164023.17, 0.000, 0.000, 0.000, 16:33:20.565
45, -156250.84, -95764.80, -147751.33, -141973.05, -141740.31, -141749.69, 130359.64, -187500.02, -130375.69, -101602.69, -92016.77, -90231.28, -91376.81, -105629.91, -80170.92, -164023.17, 0.000, 0.000, 0.000, 16:33:20.565
46, -156250.84, -95764.80, -147751.33, -141973.05, -141740.31, -141749.69, 130359.64, -187500.02, -130335.48, -101603.72, -92132.23, -90285.71, -91460.83, -105626.77, -80275.39, -164066.47, 0.000, 0.000, 0.000, 16:33:20.566
47, -156399.05, -95254.80, -147592.39, -141889.00, -141719.31, -141756.53, 130374.44, -187500.02, -130335.48, -101603.72, -92132.23, -90285.71, -91460.83, -105626.77, -80275.39, -164066.47, 0.000, 0.000, 0.000, 16:33:20.567
48, -156399.05, -95254.80, -147592.39, -141889.00, -141719.31, -141756.53, 130374.44, -187500.02, -130363.86, -101571.22, -91940.79, -90185.89, -91355.80, -105601.10, -80142.02, -163988.91, 0.076, 0.894, 0.326, 16:33:20.567
49, -156555.72, -95246.01, -147612.56, -141874.55, -141713.78, -141736.63, 130357.91, -187500.02, -130363.86, -101571.22, -91940.79, -90185.89, -91355.80, -105601.10, -80142.02, -163988.91, 0.000, 0.000, 0.000, 16:33:20.567
50, -156555.72, -95246.01, -147612.56, -141874.55, -141713.78, -141736.63, 130357.91, -187500.02, -130306.77, -101568.42, -92144.62, -90285.20, -91488.39, -105591.83, -80323.96, -164063.92, 0.000, 0.000, 0.000, 16:33:20.568
51, -157001.06, -95940.99, -147758.55, -141909.34, -141743.97, -141719.89, 130321.82, -187500.02, -130306.77, -101568.42, -92144.62, -90285.20, -91488.39, -105591.83, -80323.96, -164063.92, 0.000, 0.000, 0.000, 16:33:20.568
52, -157001.06, -95940.99, -147758.55, -141909.34, -141743.97, -141719.89, 130321.82, -187500.02, -130328.10, -101566.08, -92010.98, -90221.23, -91438.75, -105590.66, -80242.78, -164013.55, 0.000, 0.000, 0.000, 16:33:20.568
53, -156944.33, -95124.66, -147540.02, -141803.34, -141722.48, -141740.88, 130356.91, -187500.02, -130328.10, -101566.08, -92010.98, -90221.23, -91438.75, -105590.66, -80242.78, -164013.55, 0.000, 0.000, 0.000, 16:33:20.569
54, -156944.33, -95124.66, -147540.02, -141803.34, -141722.48, -141740.88, 130356.91, -187500.02, -130316.99, -101557.34, -92026.58, -90227.98, -91467.34, -105579.80, -80279.04, -164014.33, 0.000, 0.000, 0.000, 16:33:20.569
55, -157394.45, -96209.28, -147786.44, -141876.23, -141776.13, -141708.88, 130303.02, -187500.02, -130316.99, -101557.34, -92026.58, -90227.98, -91467.34, -105579.80, -80279.04, -164014.33, 0.000, 0.000, 0.000, 16:33:20.570
56, -157394.45, -96209.28, -147786.44, -141876.23, -141776.13, -141708.88, 130303.02, -187500.02, -130281.07, -101573.90, -92143.23, -90286.72, -91571.36, -105587.34, -80395.18, -164054.94, 0.000, 0.000, 0.000, 16:33:20.570
57, -157469.44, -95790.37, -147617.59, -141794.17, -141776.17, -141720.36, 130320.75, -187500.02, -130281.07, -101573.90, -92143.23, -90286.72, -91571.36, -105587.34, -80395.18, -164054.94, 0.000, 0.000, 0.000, 16:33:20.570
58, -157469.44, -95790.37, -147617.59, -141794.17, -141776.17, -141720.36, 130320.75, -187500.02, -130310.69, -101551.77, -91937.23, -90187.16, -91467.05, -105569.12, -80253.98, -163979.91, 0.058, 0.906, 0.328, 16:33:20.571
59, -157605.08, -95798.21, -147620.39, -141777.20, -141777.56, -141696.94, 130304.32, -187500.02, -130310.69, -101551.77, -91937.23, -90187.16, -91467.05, -105569.12, -80253.98, -163979.91, 0.000, 0.000, 0.000, 16:33:20.571
60, -157605.08, -95798.21, -147620.39, -141777.20, -141777.56, -141696.94, 130304.32, -187500.02, -130252.66, -101552.27, -92143.09, -90283.45, -91599.10, -105559.30, -80423.01, -164054.02, 0.000, 0.000, 0.000, 16:33:20.571
61, -158016.59, -96512.41, -147750.33, -141812.00, -141838.23, -141680.48, 130268.29, -187500.02, -130252.66, -101552.27, -92143.09, -90283.45, -91599.10, -105559.30, -80423.01, -164054.02, 0.000, 0.000, 0.000, 16:33:20.572
62, -158016.59, -96512.41, -147750.33, -141812.00, -141838.23, -141680.48, 130268.29, -187500.02, -130274.66, -101555.62, -91987.39, -90221.45, -91544.74, -105562.30, -80344.46, -164006.91, 0.000, 0.000, 0.000, 16:33:20.572
63, -157940.81, -95649.57, -147502.20, -141704.22, -141829.95, -141700.17, 130300.61, -187500.02, -130274.66, -101555.62, -91987.39, -90221.45, -91544.74, -105562.30, -80344.46, -164006.91, 0.000, 0.000, 0.000, 16:33:20.572
64, -157940.81, -95649.57, -147502.20, -141704.22, -141829.95, -141700.17, 130300.61, -187500.02, -130259.03, -101540.66, -91985.63, -90221.23, -91561.08, -105544.22, -80369.38, -164006.75, 0.000, 0.000, 0.000, 16:33:20.573
65, -158373.03, -96641.50, -147729.42, -141776.13, -141888.91, -141662.09, 130244.57, -187500.02, -130259.03, -101540.66, -91985.63, -90221.23, -91561.08, -105544.22, -80369.38, -164006.75, 0.000, 0.000, 0.000, 16:33:20.573
66, -158373.03, -96641.50, -147729.42, -141776.13, -141888.91, -141662.09, 130244.57, -187500.02, -130224.08, -101555.30, -92110.77, -90281.82, -91659.34, -105549.59, -80483.24, -164052.14, 0.000, 0.000, 0.000, 16:33:20.573
67, -158447.20, -96201.23, -147561.70, -141697.72, -141890.72, -141678.81, 130263.21, -187500.02, -130224.08, -101555.30, -92110.77, -90281.82, -91659.34, -105549.59, -80483.24, -164052.14, 0.000, 0.000, 0.000, 16:33:20.574
68, -158447.20, -96201.23, -147561.70, -141697.72, -141890.72, -141678.81, 130263.21, -187500.02, -130253.02, -101535.34, -91899.98, -90181.71, -91544.54, -105533.76, -80342.90, -163975.88, 0.050, 0.892, 0.312, 16:33:20.574
69, -158579.05, -96198.87, -147562.59, -141680.84, -141906.80, -141660.03, 130247.92, -187500.02, -130253.02, -101535.34, -91899.98, -90181.71, -91544.54, -105533.76, -80342.90, -163975.88, 0.000, 0.000, 0.000, 16:33:20.575
70, -158579.05, -96198.87, -147562.59, -141680.84, -141906.80, -141660.03, 130247.92, -187500.02, -130197.16, -101535.91, -92116.34, -90278.00, -91679.63, -105523.05, -80518.40, -164047.47, 0.000, 0.000, 0.000, 16:33:20.575
71, -158990.03, -96915.53, -147699.77, -141716.41, -141942.80, -141639.06, 130210.69, -187500.02, -130197.16, -101535.91, -92116.34, -90278.00, -91679.63, -105523.05, -80518.40, -164047.47, 0.000, 0.000, 0.000, 16:33:20.575
72, -158990.03, -96915.53, -147699.77, -141716.41, -141942.80, -141639.06, 130210.69, -187500.02, -130216.70, -101536.51, -91977.70, -90216.13, -91615.13, -105524.41, -80427.74, -164000.08, 0.000, 0.000, 0.000, 16:33:20.576
73, -158902.33, -96033.84, -147462.81, -141610.23, -141897.70, -141658.33, 130243.45, -187500.02, -130216.70, -101536.51, -91977.70, -90216.13, -91615.13, -105524.41, -80427.74, -164000.08, 0.000, 0.000, 0.000, 16:33:20.576
74, -158902.33, -96033.84, -147462.81, -141610.23, -141897.70, -141658.33, 130243.45, -187500.02, -130204.25, -101519.59, -91996.13, -90218.08, -91619.80, -105505.75, -80443.86, -164000.23, 0.000, 0.000, 0.000, 16:33:20.577
75, -159330.61, -96978.83, -147703.31, -141685.33, -141925.92, -141619.44, 130190.68, -187500.02, -130204.25, -101519.59, -91996.13, -90218.08, -91619.80, -105505.75, -80443.86, -164000.23, 0.000, 0.000, 0.000, 16:33:20.577
76, -159330.61, -96978.83, -147703.31, -141685.33, -141925.92, -141619.44, 130190.68, -187500.02, -130169.85, -101530.72, -92138.24, -90279.54, -91713.01, -105508.95, -80552.16, -164046.00, 0.000, 0.000, 0.000, 16:33:20.577
77, -159380.56, -96534.99, -147540.11, -141607.64, -141892.67, -141637.56, 130208.18, -187500.02, -130169.85, -101530.72, -92138.24, -90279.54, -91713.01, -105508.95, -80552.16, -164046.00, 0.000, 0.000, 0.000, 16:33:20.578
78, -159380.56, -96534.99, -147540.11, -141607.64, -141892.67, -141637.56, 130208.18, -187500.02, -130197.97, -101511.23, -91925.32, -90179.61, -91586.94, -105496.41, -80401.91, -163970.17, 0.036, 0.872, 0.300, 16:33:20.579
79, -159494.13, -96502.55, -147538.52, -141588.34, -141867.97, -141618.84, 130191.62, -187500.02, -130197.97, -101511.23, -91925.32, -90179.61, -91586.94, -105496.41, -80401.91, -163970.17, 0.000, 0.000, 0.000, 16:33:20.579
80, -159494.13, -96502.55, -147538.52, -141588.34, -141867.97, -141618.84, 130191.62, -187500.02, -130143.05, -101512.30, -92157.52, -90275.88, -91713.74, -105487.16, -80567.38, -164039.92, 0.000, 0.000, 0.000, 16:33:20.580
81, -159874.47, -97214.08, -147683.16, -141629.77, -141883.27, -141603.58, 130159.37, -187500.02, -130143.05, -101512.30, -92157.52, -90275.88, -91713.74, -105487.16, -80567.38, -164039.92, 0.000, 0.000, 0.000, 16:33:20.580
82, -159874.47, -97214.08, -147683.16, -141629.77, -141883.27, -141603.58, 130159.37, -187500.02, -130164.44, -101520.93, -92021.08, -90217.90, -91642.06, -105497.93, -80474.21, -163994.55, 0.000, 0.000, 0.000, 16:33:20.581
83, -159752.03, -96334.74, -147435.70, -141518.48, -141818.08, -141623.31, 130188.65, -187500.02, -130164.44, -101520.93, -92021.08, -90217.90, -91642.06, -105497.93, -80474.21, -163994.55, 0.000, 0.000, 0.000, 16:33:20.581
84, -159752.03, -96334.74, -147435.70, -141518.48, -141818.08, -141623.31, 130188.65, -187500.02, -130147.43, -101507.16, -92034.22, -90214.19, -91629.66, -105482.66, -80478.28, -163989.30, 0.000, 0.000, 0.000, 16:33:20.582
85, -160158.77, -97295.22, -147670.33, -141591.25, -141825.72, -141583.30, 130132.03, -187500.02, -130147.43, -101507.16, -92034.22, -90214.19, -91629.66, -105482.66, -80478.28, -163989.30, 0.000, 0.000, 0.000, 16:33:20.582
86, -160158.77, -97295.22, -147670.33, -141591.25, -141825.72, -141583.30, 130132.03, -187500.02, -130112.63, -101530.38, -92186.62, -90278.49, -91714.81, -105496.48, -80581.73, -164034.38, 0.000, 0.000, 0.000, 16:33:20.583
87, -160191.22, -96901.52, -147509.39, -141515.97, -141769.06, -141609.00, 130151.61, -187500.02, -130112.63, -101530.38, -92186.62, -90278.49, -91714.81, -105496.48, -80581.73, -164034.38, 0.000, 0.000, 0.000, 16:33:20.584
88, -160191.22, -96901.52, -147509.39, -141515.97, -141769.06, -141609.00, 130151.61, -187500.02, -130142.36, -101526.52, -91974.23, -90181.46, -91580.70, -105497.91, -80423.97, -163961.28, 0.034, 0.878, 0.300, 16:33:20.584
89, -160296.52, -96923.38, -147508.50, -141497.98, -141702.92, -141598.23, 130136.81, -187500.02, -130142.36, -101526.52, -91974.23, -90181.46, -91580.70, -105497.91, -80423.97, -163961.28, 0.000, 0.000, 0.000, 16:33:20.584
90, -160296.52, -96923.38, -147508.50, -141497.98, -141702.92, -141598.23, 130136.81, -187500.02, -130089.25, -101549.67, -92206.28, -90282.45, -91700.33, -105508.16, -80581.57, -164037.34, 0.000, 0.000, 0.000, 16:33:20.585
91, -160671.63, -97729.42, -147658.91, -141545.09, -141698.70, -141592.33, 130104.94, -187500.02, -130089.25, -101549.67, -92206.28, -90282.45, -91700.33, -105508.16, -80581.57, -164037.34, 0.000, 0.000, 0.000, 16:33:20.585
92, -160671.63, -97729.42, -147658.91, -141545.09, -141698.70, -141592.33, 130104.94, -187500.02, -130111.45, -101576.29, -92067.26, -90228.42, -91623.62, -105534.25, -80483.66, -163995.75, 0.000, 0.000, 0.000, 16:33:20.586
93, -160552.75, -96894.01, -147414.56, -141413.78, -141607.55, -141622.80, 130137.44, -187500.02, -130111.45, -101576.29, -92067.26, -90228.42, -91623.62, -105534.25, -80483.66, -163995.75, 0.000, 0.000, 0.000, 16:33:20.586
94, -160552.75, -96894.01, -147414.56, -141413.78, -141607.55, -141622.80, 130137.44, -187500.02, -130097.25, -101581.77, -92071.46, -90228.54, -91606.14, -105538.01, -80479.02, -163997.98, 0.000, 0.000, 0.000, 16:33:20.587
95, -160964.00, -97925.94, -147646.41, -141511.75, -141601.30, -141595.72, 130081.13, -187500.02, -130097.25, -101581.77, -92071.46, -90228.54, -91606.14, -105538.01, -80479.02, -163997.98, 0.000, 0.000, 0.000, 16:33:20.587
96, -160964.00, -97925.94, -147646.41, -141511.75, -141601.30, -141595.72, 130081.13, -187500.02, -130061.45, -101618.49, -92209.93, -90294.34, -91686.14, -105569.23, -80574.86, -164052.70, 0.000, 0.000, 0.000, 16:33:20.588
97, -160993.80, -97508.12, -147485.36, -141410.00, -141554.75, -141633.83, 130103.15, -187500.02, -130061.45, -101618.49, -92209.93, -90294.34, -91686.14, -105569.23, -80574.86, -164052.70, 0.000, 0.000, 0.000, 16:33:20.588
98, -160993.80, -97508.12, -147485.36, -141410.00, -141554.75, -141633.83, 130103.15, -187500.02, -130098.41, -101621.27, -91994.77, -90201.18, -91555.89, -105581.05, -80420.73, -163984.53, 0.020, 0.892, 0.280, 16:33:20.588
99, -161135.27, -97466.08, -147482.77, -141372.03, -141521.16, -141635.98, 130095.27, -187500.02, -130098.41, -101621.27, -91994.77, -90201.18, -91555.89, -105581.05, -80420.73, -163984.53, 0.000, 0.000, 0.000, 16:33:20.589
100, -161135.27, -97466.08, -147482.77, -141372.03, -141521.16, -141635.98, 130095.27, -187500.02, -130046.80, -101645.41, -92216.48, -90299.99, -91669.30, -105597.80, -80570.01, -164071.44, 0.000, 0.000, 0.000, 16:33:20.589
101, -161478.97, -98220.11, -147629.98, -141467.58, -141523.44, -141628.50, 130059.30, -187500.02, -130046.80, -101645.41, -92216.48, -90299.99, -91669.30, -105597.80, -80570.01, -164071.44, 0.000, 0.000, 0.000, 16:33:20.589
102, -161478.97, -98220.11, -147629.98, -141467.58, -141523.44, -141628.50, 130059.30, -187500.02, -130064.95, -101652.20, -92072.63, -90242.80, -91591.99, -105609.42, -80467.23, -164016.95, 0.000, 0.000, 0.000, 16:33:20.590
103, -161420.84, -97188.33, -147379.22, -141164.72, -141456.55, -141654.91, 130092.18, -187500.02, -130064.95, -101652.20, -92072.63, -90242.80, -91591.99, -105609.42, -80467.23, -164016.95, 0.000, 0.000, 0.000, 16:33:20.590
104, -161420.84, -97188.33, -147379.22, -141164.72, -141456.55, -141654.91, 130092.18, -187500.02, -130053.98, -101638.30, -92073.76, -90237.34, -91574.47, -105598.91, -80453.49, -164019.58, 0.000, 0.000, 0.000, 16:33:20.591
105, -161828.77, -98113.59, -147613.13, -141420.72, -141459.72, -141624.56, 130038.94, -187500.02, -130053.98, -101638.30, -92073.76, -90237.34, -91574.47, -105598.91, -80453.49, -164019.58, 0.000, 0.000, 0.000, 16:33:21.019
106, -161828.77, -98113.59, -147613.13, -141420.72, -141459.72, -141624.56, 130038.94, -187500.02, -130017.59, -101650.55, -92212.56, -90300.62, -91654.13, -105608.62, -80535.08, -164066.17, 0.000, 0.000, 0.000, 16:33:21.019
107, -162096.23, -97510.69, -147451.03, -141196.56, -141417.09, -141639.73, 130055.63, -187500.02, -130017.59, -101650.55, -92212.56, -90300.62, -91654.13, -105608.62, -80535.08, -164066.17, 0.000, 0.000, 0.000, 16:33:21.019
108, -162096.23, -97510.69, -147451.03, -141196.56, -141417.09, -141639.73, 130055.63, -187500.02, -130048.01, -101614.00, -91993.05, -90196.93, -91521.02, -105584.85, -80379.55, -163984.11, 0.036, 0.902, 0.302, 16:33:21.020
109, -162373.06, -97307.71, -147446.19, -141102.84, -141386.52, -141622.08, 130042.11, -187500.02, -130048.01, -101614.00, -91993.05, -90196.93, -91521.02, -105584.85, -80379.55, -163984.11, 0.000, 0.000, 0.000, 16:33:21.020
110, -162373.06, -97307.71, -147446.19, -141102.84, -141386.52, -141622.08, 130042.11, -187500.02, -129991.91, -101604.61, -92216.41, -90289.16, -91630.34, -105573.14, -80515.25, -164053.48, 0.000, 0.000, 0.000, 16:33:21.020
111, -163034.38, -97897.20, -147598.16, -141351.98, -141392.55, -141600.84, 130003.58, -187500.02, -129991.91, -101604.61, -92216.41, -90289.16, -91630.34, -105573.14, -80515.25, -164053.48, 0.000, 0.000, 0.000, 16:33:21.021
112, -163034.38, -97897.20, -147598.16, -141351.98, -141392.55, -141600.84, 130003.58, -187500.02, -130008.09, -101586.22, -92081.36, -90225.23, -91559.31, -105563.28, -80426.65, -164003.22, 0.000, 0.000, 0.000, 16:33:21.021
113, -162899.83, -96840.07, -147351.09, -140745.11, -141343.13, -141615.47, 130034.48, -187500.02, -130008.09, -101586.22, -92081.36, -90225.23, -91559.31, -105563.28, -80426.65, -164003.22, 0.000, 0.000, 0.000, 16:33:21.022
114, -162899.83, -96840.07, -147351.09, -140745.11, -141343.13, -141615.47, 130034.48, -187500.02, -129996.80, -101558.79, -92093.54, -90220.71, -91554.09, -105541.60, -80427.70, -163999.69, 0.000, 0.000, 0.000, 16:33:21.022
115, -163225.52, -97720.77, -147588.31, -141282.89, -141358.55, -141579.03, 129979.66, -187500.02, -129996.80, -101558.79, -92093.54, -90220.71, -91554.09, -105541.60, -80427.70, -163999.69, 0.000, 0.000, 0.000, 16:33:21.022
116, -163225.52, -97720.77, -147588.31, -141282.89, -141358.55, -141579.03, 129979.66, -187500.02, -129956.75, -101560.80, -92242.59, -90282.47, -91641.39, -105541.67, -80520.39, -164042.06, 0.000, 0.000, 0.000, 16:33:21.022
117, -163216.72, -97201.77, -147429.63, -140909.64, -141330.81, -141595.38, 129995.55, -187500.02, -129956.75, -101560.80, -92242.59, -90282.47, -91641.39, -105541.67, -80520.39, -164042.06, 0.000, 0.000, 0.000, 16:33:21.023
118, -163216.72, -97201.77, -147429.63, -140909.64, -141330.81, -141595.38, 129995.55, -187500.02, -129990.21, -101532.37, -92017.19, -90181.46, -91520.73, -105525.27, -80383.48, -163966.22, 0.034, 0.894, 0.308, 16:33:21.023
119, -163280.45, -97047.02, -147420.88, -140786.84, -141309.52, -141585.02, 129986.48, -187500.02, -129990.21, -101532.37, -92017.19, -90181.46, -91520.73, -105525.27, -80383.48, -163966.22, 0.000, 0.000, 0.000, 16:33:21.023
120, -163280.45, -97047.02, -147420.88, -140786.84, -141309.52, -141585.02, 129986.48, -187500.02, -129938.89, -101534.92, -92242.77, -90279.09, -91640.88, -105523.37, -80525.51, -164040.52, 0.000, 0.000, 0.000, 16:33:21.024
121, -163649.36, -97738.34, -147573.34, -141220.69, -141324.98, -141574.16, 129953.95, -187500.02, -129938.89, -101534.92, -92242.77, -90279.09, -91640.88, -105523.37, -80525.51, -164040.52, 0.000, 0.000, 0.000, 16:33:21.024
122, -163649.36, -97738.34, -147573.34, -141220.69, -141324.98, -141574.16, 129953.95, -187500.02, -129961.73, -101535.41, -92105.48, -90223.57, -91578.89, -105529.80, -80443.81, -163998.52, 0.000, 0.000, 0.000, 16:33:21.024
123, -163557.03, -96731.44, -147318.31, -140273.48, -141271.95, -141594.72, 129988.02, -187500.02, -129961.73, -101535.41, -92105.48, -90223.57, -91578.89, -105529.80, -80443.81, -163998.52, 0.000, 0.000, 0.000, 16:33:21.025
124, -163557.03, -96731.44, -147318.31, -140273.48, -141271.95, -141594.72, 129988.02, -187500.02, -129949.71, -101512.77, -92105.63, -90214.99, -91562.06, -105510.98, -80432.13, -163992.08, 0.000, 0.000, 0.000, 16:33:21.025
125, -164137.03, -97571.77, -147541.92, -141119.13, -141277.39, -141557.17, 129933.37, -187500.02, -129949.71, -101512.77, -92105.63, -90214.99, -91562.06, -105510.98, -80432.13, -163992.08, 0.000, 0.000, 0.000, 16:33:21.025
126, -164137.03, -97571.77, -147541.92, -141119.13, -141277.39, -141557.17, 129933.37, -187500.02, -129910.86, -101515.80, -92259.99, -90275.67, -91637.23, -105511.12, -80512.70, -164035.45, 0.000, 0.000, 0.000, 16:33:21.026
127, -164378.48, -97037.75, -147380.89, -140530.70, -141245.81, -141574.20, 129951.09, -187500.02, -129910.86, -101515.80, -92259.99, -90275.67, -91637.23, -105511.12, -80512.70, -164035.45, 0.000, 0.000, 0.000, 16:33:21.026
128, -164378.48, -97037.75, -147380.89, -140530.70, -141245.81, -141574.20, 129951.09, -187500.02, -129945.69, -101491.11, -92054.96, -90175.61, -91516.06, -105497.44, -80373.74, -163959.86, 0.036, 0.902, 0.316, 16:33:21.027
129, -164531.41, -96862.48, -147360.20, -140367.75, -141217.80, -141560.13, 129940.74, -187500.02, -129945.69, -101491.11, -92054.96, -90175.61, -91516.06, -105497.44, -80373.74, -163959.86, 0.000, 0.000, 0.000, 16:33:21.027
130, -164531.41, -96862.48, -147360.20, -140367.75, -141217.80, -141560.13, 129940.74, -187500.02, -129889.29, -101478.34, -92309.57, -90265.59, -91620.34, -105481.34, -80491.58, -164024.31, 0.000, 0.000, 0.000, 16:33:21.027
131, -165225.59, -97465.74, -147498.89, -141024.89, -141207.39, -141535.75, 129899.70, -187500.02, -129889.29, -101478.34, -92309.57, -90265.59, -91620.34, -105481.34, -80491.58, -164024.31, 0.000, 0.000, 0.000, 16:33:21.028
132, -165225.59, -97465.74, -147498.89, -141024.89, -141207.39, -141535.75, 129899.70, -187500.02, -129906.13, -101467.59, -92199.18, -90205.16, -91554.87, -105477.86, -80403.45, -163976.80, 0.000, 0.000, 0.000, 16:33:21.028
133, -164976.30, -96494.71, -147247.41, -139692.56, -141143.58, -141556.75, 129933.81, -187500.02, -129906.13, -101467.59, -92199.18, -90205.16, -91554.87, -105477.86, -80403.45, -163976.80, 0.000, 0.000, 0.000, 16:33:21.029
134, -164976.30, -96494.71, -147247.41, -139692.56, -141143.58, -141556.75, 129933.81, -187500.02, -129895.77, -101438.36, -92231.01, -90196.86, -91543.17, -105455.02, -80382.97, -163969.84, 0.000, 0.000, 0.000, 16:33:21.029
135, -165619.61, -97265.38, -147461.56, -140871.91, -141116.92, -141515.45, 129879.57, -187500.02, -129895.77, -101438.36, -92231.01, -90196.86, -91543.17, -105455.02, -80382.97, -163969.84, 0.000, 0.000, 0.000, 16:33:21.030
136, -165619.61, -97265.38, -147461.56, -140871.91, -141116.92, -141515.45, 129879.57, -187500.02, -129859.16, -101429.93, -92423.52, -90257.68, -91616.94, -105447.84, -80438.25, -164015.48, 0.000, 0.000, 0.000, 16:33:21.030
137, -165798.91, -96703.91, -147282.97, -140032.80, -141074.97, -141530.77, 129899.62, -187500.02, -129859.16, -101429.93, -92423.52, -90257.68, -91616.94, -105447.84, -80438.25, -164015.48, 0.034, 0.892, 0.330, 16:33:21.031
138, -165798.91, -96703.91, -147282.97, -140032.80, -141074.97, -141530.77, 129899.62, -187500.02, -129894.52, -101391.96, -92208.32, -90154.84, -91495.97, -105431.19, -80296.34, -163938.06, 0.000, 0.000, 0.000, 16:33:21.031
139, -165764.78, -96468.67, -147272.06, -139819.41, -141034.41, -141514.09, 129893.07, -187500.02, -129894.52, -101391.96, -92208.32, -90154.84, -91495.97, -105431.19, -80296.34, -163938.06, 0.000, 0.000, 0.000, 16:33:21.032
140, -165764.78, -96468.67, -147272.06, -139819.41, -141034.41, -141514.09, 129893.07, -187500.02, -129848.16, -101375.15, -92512.73, -90252.67, -91624.02, -105433.22, -80422.18, -164010.23, 0.000, 0.000, 0.000, 16:33:21.033
141, -165874.72, -97101.92, -147429.20, -140708.67, -141104.39, -141490.03, 129862.49, -187500.02, -129848.16, -101375.15, -92512.73, -90252.67, -91624.02, -105433.22, -80422.18, -164010.23, 0.000, 0.000, 0.000, 16:33:21.033
142, -165874.72, -97101.92, -147429.20, -140708.67, -141104.39, -141490.03, 129862.49, -187500.02, -129868.30, -101354.61, -92427.74, -90201.55, -91574.34, -105445.36, -80351.16, -163972.77, 0.000, 0.000, 0.000, 16:33:21.033
143, -165646.69, -95992.73, -147175.06, -139013.14, -141018.45, -141500.69, 129895.95, -187500.02, -129868.30, -101354.61, -92427.74, -90201.55, -91574.34, -105445.36, -80351.16, -163972.77, 0.000, 0.000, 0.000, 16:33:21.034
144, -165646.69, -95992.73, -147175.06, -139013.14, -141018.45, -141500.69, 129895.95, -187500.02, -129860.52, -101335.30, -92459.09, -90194.92, -91561.62, -105439.77, -80343.32, -163956.36, 0.000, 0.000, 0.000, 16:33:21.034
145, -165797.80, -96894.79, -147412.19, -140454.47, -141073.80, -141482.41, 129848.68, -187500.02, -129860.52, -101335.30, -92459.09, -90194.92, -91561.62, -105439.77, -80343.32, -163956.36, 0.000, 0.000, 0.000, 16:33:21.034
146, -165797.80, -96894.79, -147412.19, -140454.47, -141073.80, -141482.41, 129848.68, -187500.02, -129829.97, -101355.61, -92636.45, -90258.82, -91652.70, -105455.17, -80431.63, -164021.14, 0.000, 0.000, 0.000, 16:33:21.034
147, -165668.73, -96455.44, -147264.06, -139330.16, -141009.84, -141503.48, 129870.31, -187500.02, -129829.97, -101355.61, -92636.45, -90258.82, -91652.70, -105455.17, -80431.63, -164021.14, 0.022, 0.980, 0.388, 16:33:21.035
148, -165668.73, -96455.44, -147264.06, -139330.16, -141009.84, -141503.48, 129870.31, -187500.02, -129866.52, -101338.98, -92401.23, -90155.80, -91533.70, -105441.60, -80312.59, -163942.06, 0.000, 0.000, 0.000, 16:33:21.035
149, -165639.91, -96269.61, -147252.19, -138968.09, -140929.91, -141493.42, 129863.50, -187500.02, -129866.52, -101338.98, -92401.23, -90155.80, -91533.70, -105441.60, -80312.59, -163942.06, 0.000, 0.000, 0.000, 16:33:21.035
150, -165639.91, -96269.61, -147252.19, -138968.09, -140929.91, -141493.42, 129863.50, -187500.02, -129814.48, -101341.48, -92698.20, -90248.02, -91653.08, -105432.23, -80433.64, -163998.75, 0.000, 0.000, 0.000, 16:33:21.036
151, -165762.83, -96939.94, -147407.22, -139861.08, -141044.64, -141482.80, 129827.64, -187500.02, -129814.48, -101341.48, -92698.20, -90248.02, -91653.08, -105432.23, -80433.64, -163998.75, 0.000, 0.000, 0.000, 16:33:21.036
152, -165762.83, -96939.94, -147407.22, -139861.08, -141044.64, -141482.80, 129827.64, -187500.02, -129834.71, -101346.13, -92604.13, -90183.20, -91602.34, -105435.37, -80370.59, -163960.02, 0.000, 0.000, 0.000, 16:33:21.036
153, -165565.78, -95895.55, -147158.78, -137849.58, -140811.73, -141501.05, 129864.39, -187500.02, -129834.71, -101346.13, -92604.13, -90183.20, -91602.34, -105435.37, -80370.59, -163960.02, 0.000, 0.000, 0.000, 16:33:21.037
154, -165565.78, -95895.55, -147158.78, -137849.58, -140811.73, -141501.05, 129864.39, -187500.02, -129829.27, -101326.65, -92738.03, -90168.05, -91595.37, -105410.11, -80370.68, -163948.45, 0.000, 0.000, 0.000, 16:33:21.037
155, -165750.34, -96591.52, -147390.23, -139106.05, -140993.92, -141471.50, 129814.16, -187500.02, -129829.27, -101326.65, -92738.03, -90168.05, -91595.37, -105410.11, -80370.68, -163948.45, 0.000, 0.000, 0.000, 16:33:21.037
156, -165750.34, -96591.52, -147390.23, -139106.05, -140993.92, -141471.50, 129814.16, -187500.02, -129792.26, -101331.79, -93200.45, -90217.05, -91685.24, -105399.52, -80455.30, -163985.59, 0.000, 0.000, 0.000, 16:33:21.038
157, -165639.83, -95914.73, -147234.05, -137629.44, -140902.63, -141488.50, 129833.99, -187500.02, -129792.26, -101331.79, -93200.45, -90217.05, -91685.24, -105399.52, -80455.30, -163985.59, 0.028, 0.940, 0.332, 16:33:21.038
158, -165639.83, -95914.73, -147234.05, -137629.44, -140902.63, -141488.50, 129833.99, -187500.02, -129832.67, -101312.84, -93051.07, -90097.58, -91571.74, -105384.60, -80342.25, -163902.50, 0.000, 0.000, 0.000, 16:33:21.038
159, -165619.98, -95435.40, -147219.06, -136891.38, -140818.33, -141481.02, 129834.48, -187500.02, -129832.67, -101312.84, -93051.07, -90097.58, -91571.74, -105384.60, -80342.25, -163902.50, 0.000, 0.000, 0.000, 16:33:21.038
160, -165619.98, -95435.40, -147219.06, -136891.38, -140818.33, -141481.02, 129834.48, -187500.02, -129789.67, -101313.62, -93411.45, -90170.45, -91694.90, -105375.46, -80467.53, -163962.44, 0.000, 0.000, 0.000, 16:33:21.039
161, -165762.14, -95768.51, -147376.20, -137204.75, -141017.38, -141467.66, 129805.59, -187500.02, -129789.67, -101313.62, -93411.45, -90170.45, -91694.90, -105375.46, -80467.53, -163962.44, 0.000, 0.000, 0.000, 16:33:21.039
162, -165762.14, -95768.51, -147376.20, -137204.75, -141017.38, -141467.66, 129805.59, -187500.02, -129813.52, -101310.09, -93325.26, -90082.40, -91648.54, -105372.38, -80405.86, -163905.09, 0.000, 0.000, 0.000, 16:33:21.039
163, -165571.17, -94348.21, -147122.63, -134650.39, -140845.36, -141482.83, 129844.56, -187500.02, -129813.52, -101310.09, -93325.26, -90082.40, -91648.54, -105372.38, -80405.86, -163905.09, 0.000, 0.000, 0.000, 16:33:21.040
164, -165571.17, -94348.21, -147122.63, -134650.39, -140845.36, -141482.83, 129844.56, -187500.02, -129811.69, -101281.85, -93421.21, -90041.92, -91646.69, -105344.33, -80404.45, -163878.16, 0.000, 0.000, 0.000, 16:33:21.040
165, -165800.63, -94746.41, -147359.69, -135311.59, -141006.80, -141448.27, 129800.51, -187500.02, -129811.69, -101281.85, -93421.21, -90041.92, -91646.69, -105344.33, -80404.45, -163878.16, 0.000, 0.000, 0.000, 16:33:21.040
166, -165800.63, -94746.41, -147359.69, -135311.59, -141006.80, -141448.27, 129800.51, -187500.02, -129781.55, -101285.65, -93733.09, -90079.09, -91749.35, -105340.13, -80491.40, -163903.58, 0.000, 0.000, 0.000, 16:33:21.041
167, -165702.39, -93880.20, -147221.89, -133377.23, -141011.56, -141464.25, 129824.25, -187500.02, -129781.55, -101285.65, -93733.09, -90079.09, -91749.35, -105340.13, -80491.40, -163903.58, 0.012, 0.920, 0.334, 16:33:21.041
168, -165702.39, -93880.20, -147221.89, -133377.23, -141011.56, -141464.25, 129824.25, -187500.02, -129820.80, -101256.93, -93465.72, -89939.98, -91640.20, -105318.20, -80375.98, -163807.25, 0.000, 0.000, 0.000, 16:33:21.041
169, -165683.86, -93212.72, -147217.33, -132711.80, -140994.69, -141444.11, 129821.07, -187500.02, -129820.80, -101256.93, -93465.72, -89939.98, -91640.20, -105318.20, -80375.98, -163807.25, 0.000, 0.000, 0.000, 16:33:21.042
170, -165683.86, -93212.72, -147217.33, -132711.80, -140994.69, -141444.11, 129821.07, -187500.02, -129775.16, -101245.84, -93799.05, -89997.17, -91759.79, -105297.43, -80486.28, -163849.50, 0.000, 0.000, 0.000, 16:33:21.042
171, -165846.50, -93474.91, -147397.28, -133064.72, -141031.66, -141424.00, 129790.63, -187500.02, -129775.16, -101245.84, -93799.05, -89997.17, -91759.79, -105297.43, -80486.28, -163849.50, 0.000, 0.000, 0.000, 16:33:21.042
172, -165846.50, -93474.91, -147397.28, -133064.72, -141031.66, -141424.00, 129790.63, -187500.02, -129800.84, -101238.49, -93651.33, -89904.44, -91721.43, -105291.45, -80425.93, -163783.27, 0.000, 0.000, 0.000, 16:33:21.042
173, -165658.31, -91929.16, -147164.23, -130594.11, -140999.14, -141439.53, 129836.56, -187500.02, -129800.84, -101238.49, -93651.33, -89904.44, -91721.43, -105291.45, -80425.93, -163783.27, 0.000, 0.000, 0.000, 16:33:21.043
174, -165658.31, -91929.16, -147164.23, -130594.11, -140999.14, -141439.53, 129836.56, -187500.02, -129804.04, -101203.35, -93665.56, -89849.85, -91723.33, -105256.57, -80416.86, -163743.42, 0.000, 0.000, 0.000, 16:33:21.043
175, -165953.61, -92178.75, -147418.09, -131786.38, -141021.38, -141395.98, 129796.11, -187500.02, -129804.04, -101203.35, -93665.56, -89849.85, -91723.33, -105256.57, -80416.86, -163743.42, 0.000, 0.000, 0.000, 16:33:21.043
176, -165953.61, -92178.75, -147418.09, -131786.38, -141021.38, -141395.98, 129796.11, -187500.02, -129781.87, -101203.33, -93930.16, -89883.94, -91832.43, -105247.97, -80496.67, -163759.77, 0.000, 0.000, 0.000, 16:33:21.044
177, -166026.47, -91267.40, -147290.97, -130638.21, -140983.09, -141410.30, 129828.31, -187500.02, -129781.87, -101203.33, -93930.16, -89883.94, -91832.43, -105247.97, -80496.67, -163759.77, -0.002, 0.902, 0.306, 16:33:21.044
178, -166026.47, -91267.40, -147290.97, -130638.21, -140983.09, -141410.30, 129828.31, -187500.02, -129826.62, -101170.74, -93640.02, -89750.16, -91722.21, -105223.38, -80384.47, -163660.34, 0.000, 0.000, 0.000, 16:33:21.044
179, -166269.41, -90718.53, -147283.39, -130593.52, -140879.94, -141389.13, 129828.45, -187500.02, -129826.62, -101170.74, -93640.02, -89750.16, -91722.21, -105223.38, -80384.47, -163660.34, 0.000, 0.000, 0.000, 16:33:21.045
180, -166269.41, -90718.53, -147283.39, -130593.52, -140879.94, -141389.13, 129828.45, -187500.02, -129781.48, -101161.60, -93964.63, -89821.58, -91828.27, -105207.09, -80483.60, -163704.39, 0.000, 0.000, 0.000, 16:33:21.045
181, -166662.88, -91248.36, -147455.09, -131911.09, -140944.75, -141372.86, 129796.60, -187500.02, -129781.48, -101161.60, -93964.63, -89821.58, -91828.27, -105207.09, -80483.60, -163704.39, 0.000, 0.000, 0.000, 16:33:21.045
182, -166662.88, -91248.36, -147455.09, -131911.09, -140944.75, -141372.86, 129796.60, -187500.02, -129805.00, -101167.59, -93814.23, -89753.16, -91770.85, -105217.75, -80423.45, -163655.33, 0.000, 0.000, 0.000, 16:33:21.046
183, -166513.52, -90217.45, -147198.56, -130609.24, -140314.09, -141396.30, 129837.48, -187500.02, -129805.00, -101167.59, -93814.23, -89753.16, -91770.85, -105217.75, -80423.45, -163655.33, 0.000, 0.000, 0.000, 16:33:21.046
184, -166513.52, -90217.45, -147198.56, -130609.24, -140314.09, -141396.30, 129837.48, -187500.02, -129801.88, -101155.84, -93823.99, -89732.48, -91743.16, -105209.08, -80410.53, -163646.45, 0.000, 0.000, 0.000, 16:33:21.046
185, -166823.78, -91086.73, -147433.78, -132821.28, -140620.97, -141371.09, 129791.84, -187500.02, -129801.88, -101155.84, -93823.99, -89732.48, -91743.16, -105209.08, -80410.53, -163646.45, 0.000, 0.000, 0.000, 16:33:21.047
186, -166823.78, -91086.73, -147433.78, -132821.28, -140620.97, -141371.09, 129791.84, -187500.02, -129771.66, -101186.37, -94105.83, -89805.73, -91824.65, -105233.38, -80489.39, -163697.94, 0.000, 0.000, 0.000, 16:33:21.047
187, -166776.19, -90804.67, -147282.44, -132036.98, -140047.94, -141400.55, 129814.30, -187500.02, -129771.66, -101186.37, -94105.83, -89805.73, -91824.65, -105233.38, -80489.39, -163697.94, 0.000, 0.892, 0.344, 16:33:21.048
188, -166776.19, -90804.67, -147282.44, -132036.98, -140047.94, -141400.55, 129814.30, -187500.02, -129810.92, -101184.35, -93856.13, -89708.03, -91697.36, -105240.84, -80385.14, -163630.45, 0.000, 0.000, 0.000, 16:33:21.049
189, -166788.67, -90757.20, -147253.06, -132698.14, -139473.03, -141397.72, 129811.62, -187500.02, -129810.92, -101184.35, -93856.13, -89708.03, -91697.36, -105240.84, -80385.14, -163630.45, 0.000, 0.000, 0.000, 16:33:21.049
190, -166788.67, -90757.20, -147253.06, -132698.14, -139473.03, -141397.72, 129811.62, -187500.02, -129762.31, -101204.67, -94242.22, -89810.13, -91786.09, -105254.47, -80486.48, -163704.11, 0.000, 0.000, 0.000, 16:33:21.050
191, -167028.45, -91740.05, -147407.58, -134247.64, -139686.39, -141393.16, 129775.27, -187500.02, -129762.31, -101204.67, -94242.22, -89810.13, -91786.09, -105254.47, -80486.48, -163704.11, 0.000, 0.000, 0.000, 16:33:21.050
192, -167028.45, -91740.05, -147407.58, -134247.64, -139686.39, -141393.16, 129775.27, -187500.02, -129780.41, -101230.16, -94134.80, -89769.01, -91716.09, -105283.17, -80431.52, -163674.08, 0.000, 0.000, 0.000, 16:33:21.050
193, -166806.61, -91055.37, -147137.45, -132794.97, -138548.05, -141424.72, 129811.93, -187500.02, -129780.41, -101230.16, -94134.80, -89769.01, -91716.09, -105283.17, -80431.52, -163674.08, 0.000, 0.000, 0.000, 16:33:21.051
194, -166806.61, -91055.37, -147137.45, -132794.97, -138548.05, -141424.72, 129811.93, -187500.02, -129775.14, -101229.95, -94215.75, -89765.25, -91680.86, -105286.26, -80423.63, -163684.95, 0.000, 0.000, 0.000, 16:33:21.051
195, -167099.31, -92124.08, -147357.38, -134782.69, -138962.31, -141400.70, 129760.97, -187500.02, -129775.14, -101229.95, -94215.75, -89765.25, -91680.86, -105286.26, -80423.63, -163684.95, 0.000, 0.000, 0.000, 16:33:21.051
196, -167099.31, -92124.08, -147357.38, -134782.69, -138962.31, -141400.70, 129760.97, -187500.02, -129736.13, -101249.30, -94596.63, -89848.98, -91755.36, -105303.09, -80499.27, -163741.41, 0.000, 0.000, 0.000, 16:33:21.052
197, -167048.53, -92078.74, -147181.88, -134303.48, -138528.28, -141417.50, 129774.91, -187500.02, -129736.13, -101249.30, -94596.63, -89848.98, -91755.36, -105303.09, -80499.27, -163741.41, 0.002, 0.868, 0.256, 16:33:21.052
198, -167048.53, -92078.74, -147181.88, -134303.48, -138528.28, -141417.50, 129774.91, -187500.02, -129765.30, -101235.25, -94408.91, -89771.04, -91628.25, -105296.98, -80394.87, -163679.89, 0.000, 0.000, 0.000, 16:33:21.052
199, -167058.11, -92413.22, -147119.67, -134905.98, -138207.63, -141400.91, 129761.22, -187500.02, -129765.30, -101235.25, -94408.91, -89771.04, -91628.25, -105296.98, -80394.87, -163679.89, 0.000, 0.000, 0.000, 16:33:21.053
200, -167058.11, -92413.22, -147119.67, -134905.98, -138207.63, -141400.91, 129761.22, -187500.02, -129708.64, -101250.00, -94855.66, -89902.24, -91711.69, -105306.82, -80494.51, -163766.83, 0.000, 0.000, 0.000, 16:33:21.053
201, -167298.55, -93848.94, -147242.80, -137046.63, -138582.86, -141396.53, 129719.69, -187500.02, -129708.64, -101250.00, -94855.66, -89902.24, -91711.69, -105306.82, -80494.51, -163766.83, 0.000, 0.000, 0.000, 16:33:21.053
202, -167298.55, -93848.94, -147242.80, -137046.63, -138582.86, -141396.53, 129719.69, -187500.02, -129722.08, -101273.96, -94831.59, -89898.73, -91637.01, -105337.71, -80444.77, -163759.95, 0.000, 0.000, 0.000, 16:33:21.054
203, -167059.77, -93682.91, -146949.81, -136603.44, -137677.53, -141427.70, 129749.28, -187500.02, -129722.08, -101273.96, -94831.59, -89898.73, -91637.01, -105337.71, -80444.77, -163759.95, 0.000, 0.000, 0.000, 16:33:21.054
204, -167059.77, -93682.91, -146949.81, -136603.44, -137677.53, -141427.70, 129749.28, -187500.02, -129708.40, -101274.14, -94972.45, -89929.07, -91589.82, -105344.05, -80436.57, -163790.69, 0.000, 0.000, 0.000, 16:33:21.055
205, -167331.52, -95214.45, -147152.53, -139193.16, -138117.17, -141403.45, 129693.63, -187500.02, -129708.40, -101274.14, -94972.45, -89929.07, -91589.82, -105344.05, -80436.57, -163790.69, 0.000, 0.000, 0.000, 16:33:21.055
206, -167331.52, -95214.45, -147152.53, -139193.16, -138117.17, -141403.45, 129693.63, -187500.02, -129666.91, -101307.98, -95341.92, -90043.42, -91660.45, -105373.80, -80515.97, -163863.77, 0.000, 0.000, 0.000, 16:33:21.055
207, -167221.48, -95475.88, -146996.75, -139206.14, -137716.94, -141429.73, 129706.86, -187500.02, -129666.91, -101307.98, -95341.92, -90043.42, -91660.45, -105373.80, -80515.97, -163863.77, 0.028, 0.884, 0.318, 16:33:21.055
208, -167221.48, -95475.88, -146996.75, -139206.14, -137716.94, -141429.73, 129706.86, -187500.02, -129699.84, -101309.50, -95099.18, -89985.02, -91534.64, -105386.57, -80418.40, -163816.06, 0.000, 0.000, 0.000, 16:33:21.056
209, -167196.42, -95883.23, -146962.89, -139754.56, -137437.45, -141428.05, 129696.71, -187500.02, -129699.84, -101309.50, -95099.18, -89985.02, -91534.64, -105386.57, -80418.40, -163816.06, 0.000, 0.000, 0.000, 16:33:21.056
210, -167196.42, -95883.23, -146962.89, -139754.56, -137437.45, -141428.05, 129696.71, -187500.02, -129640.67, -101323.27, -95528.54, -90106.00, -91616.84, -105396.45, -80515.77, -163903.13, 0.000, 0.000, 0.000, 16:33:21.056
211, -167423.30, -97056.97, -147108.61, -140916.95, -137862.83, -141414.20, 129651.78, -187500.02, -129640.67, -101323.27, -95528.54, -90106.00, -91616.84, -105396.45, -80515.77, -163903.13, 0.000, 0.000, 0.000, 16:33:21.057
212, -167423.30, -97056.97, -147108.61, -140916.95, -137862.83, -141414.20, 129651.78, -187500.02, -129656.16, -101337.84, -95529.25, -90078.91, -91550.80, -105415.80, -80468.98, -163881.31, 0.000, 0.000, 0.000, 16:33:21.057
213, -167165.77, -96420.73, -146836.20, -140402.98, -137067.67, -141437.75, 129685.55, -187500.02, -129656.16, -101337.84, -95529.25, -90078.91, -91550.80, -105415.80, -80468.98, -163881.31, 0.000, 0.000, 0.000, 16:33:21.057
214, -167165.77, -96420.73, -146836.20, -140402.98, -137067.67, -141437.75, 129685.55, -187500.02, -129643.87, -101326.11, -95647.11, -90086.94, -91513.09, -105408.12, -80460.35, -163878.09, 0.000, 0.000, 0.000, 16:33:21.057
215, -167431.91, -97570.08, -147051.00, -140953.25, -137587.14, -141404.97, 129627.22, -187500.02, -129643.87, -101326.11, -95647.11, -90086.94, -91513.09, -105408.12, -80460.35, -163878.09, 0.000, 0.000, 0.000, 16:33:21.058
216, -167431.91, -97570.08, -147051.00, -140953.25, -137587.14, -141404.97, 129627.22, -187500.02, -129601.09, -101346.83, -95989.79, -90175.36, -91585.91, -105423.98, -80538.56, -163935.00, 0.000, 0.000, 0.000, 16:33:21.058
217, -167317.98, -97450.48, -146906.67, -140953.94, -137241.72, -141427.22, 129644.49, -187500.02, -129601.09, -101346.83, -95989.79, -90175.36, -91585.91, -105423.98, -80538.56, -163935.00, 0.032, 0.888, 0.304, 16:33:21.058
218, -167317.98, -97450.48, -146906.67, -140953.94, -137241.72, -141427.22, 129644.49, -187500.02, -129638.99, -101340.93, -95754.53, -90095.12, -91468.66, -105427.59, -80445.02, -163875.61, 0.000, 0.000, 0.000, 16:33:21.059
219, -167269.28, -97453.45, -146874.53, -140956.59, -137023.78, -141419.44, 129638.64, -187500.02, -129638.99, -101340.93, -95754.53, -90095.12, -91468.66, -105427.59, -80445.02, -163875.61, 0.000, 0.000, 0.000, 16:33:21.059
220, -167269.28, -97453.45, -146874.53, -140956.59, -137023.78, -141419.44, 129638.64, -187500.02, -129587.79, -101350.05, -96218.40, -90204.73, -91557.80, -105431.55, -80546.41, -163948.50, 0.000, 0.000, 0.000, 16:33:21.059
221, -167491.94, -98366.83, -147040.55, -141033.47, -137538.33, -141407.59, 129600.87, -187500.02, -129587.79, -101350.05, -96218.40, -90204.73, -91557.80, -105431.55, -80546.41, -163948.50, 0.000, 0.000, 0.000, 16:33:21.060
222, -167491.94, -98366.83, -147040.55, -141033.47, -137538.33, -141407.59, 129600.87, -187500.02, -129602.27, -101357.09, -96195.04, -90166.60, -91497.00, -105442.49, -80494.53, -163915.16, 0.000, 0.000, 0.000, 16:33:21.060
223, -167228.48, -97537.29, -146778.77, -140945.02, -136720.03, -141424.16, 129631.84, -187500.02, -129602.27, -101357.09, -96195.04, -90166.60, -91497.00, -105442.49, -80494.53, -163915.16, 0.000, 0.000, 0.000, 16:33:21.060
224, -167228.48, -97537.29, -146778.77, -140945.02, -136720.03, -141424.16, 129631.84, -187500.02, -129591.90, -101338.41, -96335.73, -90161.08, -91465.05, -105427.59, -80486.33, -163909.63, 0.000, 0.000, 0.000, 16:33:21.061
225, -167506.19, -98401.27, -146999.19, -141026.53, -137330.34, -141387.56, 129575.80, -187500.02, -129591.90, -101338.41, -96335.73, -90161.08, -91465.05, -105427.59, -80486.33, -163909.63, 0.000, 0.000, 0.000, 16:33:21.061
226, -167506.19, -98401.27, -146999.19, -141026.53, -137330.34, -141387.56, 129575.80, -187500.02, -129547.45, -101347.84, -96821.79, -90233.48, -91539.13, -105432.13, -80561.34, -163957.66, 0.014, 0.886, 0.322, 16:33:21.499
227, -167399.61, -98041.32, -146847.36, -140970.23, -136901.19, -141403.03, 129587.43, -187500.02, -129547.45, -101347.84, -96821.79, -90233.48, -91539.13, -105432.13, -80561.34, -163957.66, 0.000, 0.000, 0.000, 16:33:21.499
228, -167399.61, -98041.32, -146847.36, -140970.23, -136901.19, -141403.03, 129587.43, -187500.02, -129580.37, -101331.97, -96597.59, -90133.90, -91415.59, -105425.35, -80454.88, -163886.30, 0.000, 0.000, 0.000, 16:33:21.500
229, -167374.11, -97821.04, -146816.95, -140953.73, -136604.84, -141392.09, 129579.07, -187500.02, -129580.37, -101331.97, -96597.59, -90133.90, -91415.59, -105425.35, -80454.88, -163886.30, 0.000, 0.000, 0.000, 16:33:21.500
230, -167374.11, -97821.04, -146816.95, -140953.73, -136604.84, -141392.09, 129579.07, -187500.02, -129523.02, -101326.87, -97193.14, -90225.95, -91501.11, -105419.23, -80564.67, -163953.06, 0.000, 0.000, 0.000, 16:33:21.500
231, -167616.69, -98538.53, -146979.59, -141006.41, -137156.11, -141370.05, 129533.30, -187500.02, -129523.02, -101326.87, -97193.14, -90225.95, -91501.11, -105419.23, -80564.67, -163953.06, 0.000, 0.000, 0.000, 16:33:21.500
232, -167616.69, -98538.53, -146979.59, -141006.41, -137156.11, -141370.05, 129533.30, -187500.02, -129536.76, -101332.14, -97172.10, -90177.55, -91440.47, -105430.56, -80516.97, -163918.50, 0.000, 0.000, 0.000, 16:33:21.501
233, -167369.08, -97614.53, -146699.48, -140908.59, -136056.34, -141391.31, 129569.80, -187500.02, -129536.76, -101332.14, -97172.10, -90177.55, -91440.47, -105430.56, -80516.97, -163918.50, 0.000, 0.000, 0.000, 16:33:21.501
234, -167369.08, -97614.53, -146699.48, -140908.59, -136056.34, -141391.31, 129569.80, -187500.02, -129530.77, -101315.16, -97298.02, -90167.27, -91412.20, -105419.49, -80515.72, -163911.53, 0.000, 0.000, 0.000, 16:33:21.501
235, -167631.02, -98422.20, -146919.06, -140982.23, -136676.31, -141353.13, 129516.44, -187500.02, -129530.77, -101315.16, -97298.02, -90167.27, -91412.20, -105419.49, -80515.72, -163911.53, 0.000, 0.000, 0.000, 16:33:21.501
236, -167631.02, -98422.20, -146919.06, -140982.23, -136676.31, -141353.13, 129516.44, -187500.02, -129491.45, -101329.95, -97707.25, -90241.88, -91500.93, -105431.61, -80612.99, -163966.92, 0.012, 0.906, 0.286, 16:33:21.502
237, -167495.30, -98082.91, -146761.55, -140925.91, -136119.39, -141370.28, 129535.22, -187500.02, -129491.45, -101329.95, -97707.25, -90241.88, -91500.93, -105431.61, -80612.99, -163966.92, 0.000, 0.000, 0.000, 16:33:21.502
238, -167495.30, -98082.91, -146761.55, -140925.91, -136119.39, -141370.28, 129535.22, -187500.02, -129530.63, -101320.37, -97349.00, -90144.49, -91383.52, -105432.39, -80507.85, -163895.92, 0.000, 0.000, 0.000, 16:33:21.502
239, -167454.81, -97883.47, -146718.50, -140903.20, -135800.17, -141360.92, 129532.13, -187500.02, -129530.63, -101320.37, -97349.00, -90144.49, -91383.52, -105432.39, -80507.85, -163895.92, 0.000, 0.000, 0.000, 16:33:21.502
240, -167454.81, -97883.47, -146718.50, -140903.20, -135800.17, -141360.92, 129532.13, -187500.02, -129481.55, -101326.02, -97660.71, -90239.80, -91487.85, -105432.57, -80634.27, -163967.41, 0.000, 0.000, 0.000, 16:33:21.503
241, -167641.28, -98660.66, -146893.14, -140957.50, -136460.66, -141347.16, 129496.08, -187500.02, -129481.55, -101326.02, -97660.71, -90239.80, -91487.85, -105432.57, -80634.27, -163967.41, 0.000, 0.000, 0.000, 16:33:21.503
242, -167641.28, -98660.66, -146893.14, -140957.50, -136460.66, -141347.16, 129496.08, -187500.02, -129502.05, -101337.71, -97445.60, -90192.70, -91444.80, -105448.33, -80590.11, -163937.30, 0.000, 0.000, 0.000, 16:33:21.503
243, -167373.66, -97718.09, -146632.00, -140855.45, -135495.72, -141369.70, 129538.91, -187500.02, -129502.05, -101337.71, -97445.60, -90192.70, -91444.80, -105448.33, -80590.11, -163937.30, 0.000, 0.000, 0.000, 16:33:21.504
244, -167373.66, -97718.09, -146632.00, -140855.45, -135495.72, -141369.70, 129538.91, -187500.02, -129504.51, -101330.78, -97404.07, -90187.54, -91434.30, -105450.61, -80596.95, -163934.81, 0.000, 0.000, 0.000, 16:33:21.504
245, -167638.44, -98577.31, -146878.06, -140933.48, -136301.61, -141337.63, 129492.86, -187500.02, -129504.51, -101330.78, -97404.07, -90187.54, -91434.30, -105450.61, -80596.95, -163934.81, 0.000, 0.000, 0.000, 16:33:21.504
246, -167638.44, -98577.31, -146878.06, -140933.48, -136301.61, -141337.63, 129492.86, -187500.02, -129468.20, -101351.27, -97685.03, -90265.88, -91536.90, -105472.05, -80707.72, -163996.02, 0.084, 0.892, 0.310, 16:33:21.504
247, -167523.61, -98213.67, -146743.09, -140875.22, -135954.06, -141357.20, 129512.04, -187500.02, -129468.20, -101351.27, -97685.03, -90265.88, -91536.90, -105472.05, -80707.72, -163996.02, 0.000, 0.000, 0.000, 16:33:21.505
248, -167523.61, -98213.67, -146743.09, -140875.22, -135954.06, -141357.20, 129512.04, -187500.02, -129505.80, -101333.53, -97338.80, -90161.21, -91428.69, -105467.15, -80602.38, -163928.50, 0.000, 0.000, 0.000, 16:33:21.505
249, -167497.28, -97965.08, -146707.44, -140846.52, -135798.67, -141344.09, 129504.88, -187500.02, -129505.80, -101333.53, -97338.80, -90161.21, -91428.69, -105467.15, -80602.38, -163928.50, 0.000, 0.000, 0.000, 16:33:21.506
250, -167497.28, -97965.08, -146707.44, -140846.52, -135798.67, -141344.09, 129504.88, -187500.02, -129450.48, -101326.63, -97721.29, -90252.27, -91536.07, -105455.13, -80735.17, -163991.30, 0.000, 0.000, 0.000, 16:33:21.506
251, -167720.16, -98726.84, -146888.27, -140898.55, -136561.48, -141322.94, 129464.34, -187500.02, -129450.48, -101326.63, -97721.29, -90252.27, -91536.07, -105455.13, -80735.17, -163991.30, 0.000, 0.000, 0.000, 16:33:21.506
252, -167720.16, -98726.84, -146888.27, -140898.55, -136561.48, -141322.94, 129464.34, -187500.02, -129470.33, -101333.87, -97583.02, -90207.23, -91497.65, -105464.45, -80693.02, -163955.05, 0.000, 0.000, 0.000, 16:33:21.507
253, -167440.27, -97751.48, -146631.48, -140790.64, -135652.23, -141343.67, 129504.30, -187500.02, -129470.33, -101333.87, -97583.02, -90207.23, -91497.65, -105464.45, -80693.02, -163955.05, 0.000, 0.000, 0.000, 16:33:21.507
254, -167440.27, -97751.48, -146631.48, -140790.64, -135652.23, -141343.67, 129504.30, -187500.02, -129467.20, -101317.33, -97547.86, -90194.88, -91483.45, -105451.99, -80693.26, -163946.02, 0.000, 0.000, 0.000, 16:33:21.507
255, -167702.72, -98578.68, -146880.11, -140864.83, -136433.13, -141310.36, 129454.46, -187500.02, -129467.20, -101317.33, -97547.86, -90194.88, -91483.45, -105451.99, -80693.26, -163946.02, 0.000, 0.000, 0.000, 16:33:21.508
0, -167702.72, -98578.68, -146880.11, -140864.83, -136433.13, -141310.36, 129454.46, -187500.02, -129429.02, -101331.38, -97855.38, -90270.94, -91584.99, -105461.41, -80799.66, -164001.00, 0.082, 0.904, 0.332, 16:33:21.508
1, -167564.94, -98198.88, -146750.53, -140800.94, -136015.64, -141327.58, 129473.19, -187500.02, -129429.02, -101331.38, -97855.38, -90270.94, -91584.99, -105461.41, -80799.66, -164001.00, 0.000, 0.000, 0.000, 16:33:21.509
2, -167564.94, -98198.88, -146750.53, -140800.94, -136015.64, -141327.58, 129473.19, -187500.02, -129467.70, -101316.14, -97510.42, -90166.46, -91475.00, -105452.71, -80676.02, -163925.20, 0.000, 0.000, 0.000, 16:33:21.509
3, -167508.28, -97948.54, -146722.52, -140766.70, -135764.38, -141314.88, 129467.13, -187500.02, -129467.70, -101316.14, -97510.42, -90166.46, -91475.00, -105452.71, -80676.02, -163925.20, 0.000, 0.000, 0.000, 16:33:21.510
4, -167508.28, -97948.54, -146722.52, -140766.70, -135764.38, -141314.88, 129467.13, -187500.02, -129414.96, -101314.48, -97806.96, -90259.52, -91588.05, -105444.38, -80797.35, -163984.84, 0.000, 0.000, 0.000, 16:33:21.510
5, -167710.44, -98714.95, -146917.41, -140818.44, -136440.56, -141299.31, 129429.63, -187500.02, -129414.96, -101314.48, -97806.96, -90259.52, -91588.05, -105444.38, -80797.35, -163984.84, 0.000, 0.000, 0.000, 16:33:21.510
6, -167710.44, -98714.95, -146917.41, -140818.44, -136440.56, -141299.31, 129429.63, -187500.02, -129435.53, -101323.78, -97600.03, -90211.13, -91552.90, -105454.12, -80738.32, -163951.38, 0.000, 0.000, 0.000, 16:33:21.510
7, -167414.72, -97718.70, -146659.88, -140634.42, -135442.84, -141323.45, 129469.77, -187500.02, -129435.53, -101323.78, -97600.03, -90211.13, -91552.90, -105454.12, -80738.32, -163951.38, 0.000, 0.000, 0.000, 16:33:21.511
8, -167414.72, -97718.70, -146659.88, -140634.42, -135442.84, -141323.45, 129469.77, -187500.02, -129433.07, -101305.91, -97537.84, -90193.55, -91534.62, -105436.15, -80721.09, -163940.16, 0.000, 0.000, 0.000, 16:33:21.511
9, -167651.72, -98514.13, -146905.66, -140765.69, -136177.97, -141288.56, 129419.52, -187500.02, -129433.07, -101305.91, -97537.84, -90193.55, -91534.62, -105436.15, -80721.09, -163940.16, 0.000, 0.000, 0.000, 16:33:21.511
10, -167651.72, -98514.13, -146905.66, -140765.69, -136177.97, -141288.56, 129419.52, -187500.02, -129395.01, -101318.51, -97808.66, -90268.61, -91631.95, -105438.52, -80816.71, -163990.52, 0.088, 0.888, 0.336, 16:33:21.511
11, -167509.13, -98130.48, -146775.30, -140603.80, -135750.77, -141311.03, 129439.69, -187500.02, -129395.01, -101318.51, -97808.66, -90268.61, -91631.95, -105438.52, -80816.71, -163990.52, 0.000, 0.000, 0.000, 16:33:21.512
12, -167509.13, -98130.48, -146775.30, -140603.80, -135750.77, -141311.03, 129439.69, -187500.02, -129436.29, -101304.72, -97465.80, -90164.99, -91519.84, -105427.66, -80689.39, -163912.20, 0.000, 0.000, 0.000, 16:33:21.512
13, -167455.39, -97867.24, -146743.88, -140447.56, -135497.44, -141306.53, 129438.30, -187500.02, -129436.29, -101304.72, -97465.80, -90164.99, -91519.84, -105427.66, -80689.39, -163912.20, 0.000, 0.000, 0.000, 16:33:21.512
14, -167455.39, -97867.24, -146743.88, -140447.56, -135497.44, -141306.53, 129438.30, -187500.02, -129390.11, -101313.30, -97826.30, -90259.41, -91635.20, -105426.70, -80809.65, -163977.78, 0.000, 0.000, 0.000, 16:33:21.513
15, -167667.84, -98691.30, -146941.81, -140697.70, -136234.53, -141303.30, 129408.26, -187500.02, -129390.11, -101313.30, -97826.30, -90259.41, -91635.20, -105426.70, -80809.65, -163977.78, 0.000, 0.000, 0.000, 16:33:21.513
16, -167667.84, -98691.30, -146941.81, -140697.70, -136234.53, -141303.30, 129408.26, -187500.02, -129417.60, -101337.87, -97691.29, -90217.74, -91610.55, -105451.66, -80757.74, -163943.11, 0.000, 0.000, 0.000, 16:33:21.513
17, -167382.23, -97713.46, -146679.56, -139825.05, -135328.20, -141335.58, 129453.81, -187500.02, -129417.60, -101337.87, -97691.29, -90217.74, -91610.55, -105451.66, -80757.74, -163943.11, 0.000, 0.000, 0.000, 16:33:21.514
18, -167382.23, -97713.46, -146679.56, -139825.05, -135328.20, -141335.58, 129453.81, -187500.02, -129419.66, -101329.17, -97663.09, -90194.63, -91600.77, -105451.48, -80741.12, -163930.81, 0.000, 0.000, 0.000, 16:33:21.514
19, -167625.84, -98436.86, -146927.13, -140494.05, -136086.80, -141302.25, 129407.30, -187500.02, -129419.66, -101329.17, -97663.09, -90194.63, -91600.77, -105451.48, -80741.12, -163930.81, 0.000, 0.000, 0.000, 16:33:21.515
20, -167625.84, -98436.86, -146927.13, -140494.05, -136086.80, -141302.25, 129407.30, -187500.02, -129383.98, -101346.83, -97951.22, -90263.05, -91706.88, -105470.91, -80835.22, -163981.25, 0.038, 0.888, 0.316, 16:33:21.515
21, -167488.08, -97957.32, -146798.88, -139720.70, -135735.61, -141316.70, 129428.53, -187500.02, -129383.98, -101346.83, -97951.22, -90263.05, -91706.88, -105470.91, -80835.22, -163981.25, 0.000, 0.000, 0.000, 16:33:21.515
