%OpenBCI Raw EEG Data
%
%Sample Rate = 250.0 Hz
%First Column = SampleIndex
%Last Column = Timestamp 
%Other Columns = EEG data in microvolts followed by Accel Data (in G) interleaved with Aux Data
0, 0.00, 0.00, 0.00, 0.00, 0.00, 0.00, 0.00, 0.00, 41860.41, 16031.61, 92485.86, 3389.98, 8418.96, 2583.77, 69182.27, 2489.87, -0.100, 0.868, 0.222, 16:56:59.107
1, -33145.80, -32526.23, 60958.84, 57630.15, -16816.40, -36115.03, -40146.28, 68022.68, 41860.41, 16031.61, 92485.86, 3389.98, 8418.96, 2583.77, 69182.27, 2489.87, 0.000, 0.000, 0.000, 16:56:59.596
2, -33145.80, -32526.23, 60958.84, 57630.15, -16816.40, -36115.03, -40146.28, 68022.68, 88701.09, 39913.24, 187500.00, 8603.21, 20158.17, 7663.03, 150457.08, 9284.96, 0.000, 0.000, 0.000, 16:56:59.596
3, -66297.28, -65047.84, 121920.88, 115259.65, -33635.84, -72231.63, -80297.55, 136050.45, 88701.09, 39913.24, 187500.00, 8603.21, 20158.17, 7663.03, 150457.08, 9284.96, 0.000, 0.000, 0.000, 16:56:59.596
4, -66297.28, -65047.84, 121920.88, 115259.65, -33635.84, -72231.63, -80297.55, 136050.45, 88701.33, 39910.78, 187500.00, 8602.85, 20164.58, 7663.14, 150455.52, 9277.94, 0.000, 0.000, 0.000, 16:56:59.597
5, -66297.89, -65042.52, 121924.85, 115264.05, -33629.20, -72232.23, -80288.58, 136054.84, 88701.33, 39910.78, 187500.00, 8602.85, 20164.58, 7663.14, 150455.52, 9277.94, 0.000, 0.000, 0.000, 16:56:59.597
6, -66297.89, -65042.52, 121924.85, 115264.05, -33629.20, -72232.23, -80288.58, 136054.84, 88694.94, 39916.26, 187500.00, 8596.75, 20154.81, 7658.83, 150455.48, 9278.34, 0.000, 0.000, 0.000, 16:56:59.597
7, -66300.75, -65045.25, 121925.77, 115271.14, -33630.93, -72227.49, -80281.88, 136057.55, 88694.94, 39916.26, 187500.00, 8596.75, 20154.81, 7658.83, 150455.48, 9278.34, 0.000, 0.000, 0.000, 16:56:59.597
8, -66300.75, -65045.25, 121925.77, 115271.14, -33630.93, -72227.49, -80281.88, 136057.55, 88692.95, 39910.47, 187500.00, 8593.11, 20150.95, 7658.85, 150459.94, 9288.02, 0.052, 0.960, -0.056, 16:56:59.598
9, -66297.75, -65047.98, 121922.26, 115270.49, -33626.61, -72237.08, -80277.27, 136056.63, 88692.95, 39910.47, 187500.00, 8593.11, 20150.95, 7658.85, 150459.94, 9288.02, 0.000, 0.000, 0.000, 16:56:59.598
10, -66297.75, -65047.98, 121922.26, 115270.49, -33626.61, -72237.08, -80277.27, 136056.63, 88697.04, 39907.81, 187500.00, 8598.31, 20162.01, 7665.37, 150466.39, 9291.71, 0.000, 0.000, 0.000, 16:56:59.598
11, -66301.84, -65045.74, 121929.14, 115280.10, -33636.74, -72228.92, -80281.36, 136059.67, 88697.04, 39907.81, 187500.00, 8598.31, 20162.01, 7665.37, 150466.39, 9291.71, 0.000, 0.000, 0.000, 16:56:59.598
12, -66301.84, -65045.74, 121929.14, 115280.10, -33636.74, -72228.92, -80281.36, 136059.67, 88696.62, 39915.54, 187500.00, 8600.75, 20162.48, 7661.48, 150478.52, 9297.74, 0.000, 0.000, 0.000, 16:56:59.599
13, -66300.77, -65044.16, 121924.07, 115268.37, -33634.77, -72241.33, -80294.26, 136049.55, 88696.62, 39915.54, 187500.00, 8600.75, 20162.48, 7661.48, 150478.52, 9297.74, 0.000, 0.000, 0.000, 16:56:59.599
14, -66300.77, -65044.16, 121924.07, 115268.37, -33634.77, -72241.33, -80294.26, 136049.55, 88699.34, 39912.73, 187500.00, 8593.24, 20155.66, 7653.64, 150489.13, 9291.37, 0.000, 0.000, 0.000, 16:56:59.599
15, -66303.92, -65043.73, 121925.95, 115264.32, -33643.78, -72234.80, -80297.77, 136047.63, 88699.34, 39912.73, 187500.00, 8593.24, 20155.66, 7653.64, 150489.13, 9291.37, 0.000, 0.000, 0.000, 16:56:59.599
16, -66303.92, -65043.73, 121925.95, 115264.32, -33643.78, -72234.80, -80297.77, 136047.63, 88698.80, 39918.92, 187500.00, 8590.31, 20163.08, 7654.60, 150492.59, 9283.51, 0.000, 0.000, 0.000, 16:56:59.599
17, -66299.20, -65041.34, 121927.66, 115266.16, -33635.69, -72239.18, -80292.67, 136048.42, 88698.80, 39918.92, 187500.00, 8590.31, 20163.08, 7654.60, 150492.59, 9283.51, 0.000, 0.000, 0.000, 16:56:59.600
18, -66299.20, -65041.34, 121927.66, 115266.16, -33635.69, -72239.18, -80292.67, 136048.42, 88703.23, 39919.88, 187500.00, 8585.66, 20163.57, 7658.40, 150499.13, 9282.34, 0.054, 0.954, -0.038, 16:56:59.600
19, -66303.66, -65051.78, 121928.45, 115267.45, -33634.37, -72235.25, -80293.54, 136050.92, 88703.23, 39919.88, 187500.00, 8585.66, 20163.57, 7658.40, 150499.13, 9282.34, 0.000, 0.000, 0.000, 16:56:59.600
20, -66303.66, -65051.78, 121928.45, 115267.45, -33634.37, -72235.25, -80293.54, 136050.92, 88693.44, 39920.82, 187500.00, 8580.72, 20153.49, 7649.30, 150505.73, 9278.21, 0.000, 0.000, 0.000, 16:56:59.600
21, -66310.18, -65057.05, 121929.23, 115274.29, -33632.67, -72230.64, -80293.74, 136056.89, 88693.44, 39920.82, 187500.00, 8580.72, 20153.49, 7649.30, 150505.73, 9278.21, 0.000, 0.000, 0.000, 16:56:59.601
22, -66310.18, -65057.05, 121929.23, 115274.29, -33632.67, -72230.64, -80293.74, 136056.89, 88705.66, 39922.67, 187500.00, 8591.07, 20170.33, 7666.94, 150511.70, 9286.86, 0.000, 0.000, 0.000, 16:56:59.601
23, -66303.20, -65051.22, 121931.04, 115274.94, -33627.02, -72229.93, -80283.69, 136056.83, 88705.66, 39922.67, 187500.00, 8591.07, 20170.33, 7666.94, 150511.70, 9286.86, 0.000, 0.000, 0.000, 16:56:59.601
24, -66303.20, -65051.22, 121931.04, 115274.94, -33627.02, -72229.93, -80283.69, 136056.83, 88696.84, 39918.40, 187500.00, 8584.52, 20158.26, 7655.99, 150517.38, 9288.11, 0.000, 0.000, 0.000, 16:56:59.601
25, -66307.77, -65048.74, 121923.15, 115269.46, -33629.09, -72235.18, -80298.04, 136054.66, 88696.84, 39918.40, 187500.00, 8584.52, 20158.26, 7655.99, 150517.38, 9288.11, 0.000, 0.000, 0.000, 16:56:59.601
26, -66307.77, -65048.74, 121923.15, 115269.46, -33629.09, -72235.18, -80298.04, 136054.66, 88705.82, 39924.26, 187500.00, 8588.14, 20163.53, 7658.42, 150507.64, 9291.82, 0.000, 0.000, 0.000, 16:56:59.601
27, -66301.11, -65048.27, 121919.30, 115262.84, -33613.51, -72241.64, -80297.03, 136050.09, 88705.82, 39924.26, 187500.00, 8588.14, 20163.53, 7658.42, 150507.64, 9291.82, 0.050, 0.960, -0.034, 16:56:59.602
28, -66301.11, -65048.27, 121919.30, 115262.84, -33613.51, -72241.64, -80297.03, 136050.09, 88703.34, 39911.41, 187500.00, 8584.14, 20166.26, 7654.11, 150509.52, 9296.16, 0.000, 0.000, 0.000, 16:56:59.602
29, -66303.90, -65046.66, 121930.66, 115272.28, -33621.58, -72233.37, -80291.93, 136059.33, 88703.34, 39911.41, 187500.00, 8584.14, 20166.26, 7654.11, 150509.52, 9296.16, 0.000, 0.000, 0.000, 16:56:59.602
30, -66303.90, -65046.66, 121930.66, 115272.28, -33621.58, -72233.37, -80291.93, 136059.33, 88699.97, 39904.03, 187500.00, 8582.82, 20163.51, 7653.97, 150513.42, 9297.12, 0.000, 0.000, 0.000, 16:56:59.602
31, -66295.16, -65049.95, 121930.33, 115272.77, -33616.84, -72237.69, -80284.63, 136056.52, 88699.97, 39904.03, 187500.00, 8582.82, 20163.51, 7653.97, 150513.42, 9297.12, 0.000, 0.000, 0.000, 16:56:59.602
32, -66295.16, -65049.95, 121930.33, 115272.77, -33616.84, -72237.69, -80284.63, 136056.52, 88699.45, 39901.84, 187500.00, 8578.98, 20163.69, 7650.17, 150534.44, 9294.06, 0.000, 0.000, 0.000, 16:56:59.602
33, -66296.14, -65051.53, 121934.15, 115279.21, -33631.11, -72234.40, -80286.10, 136064.77, 88699.45, 39901.84, 187500.00, 8578.98, 20163.69, 7650.17, 150534.44, 9294.06, 0.000, 0.000, 0.000, 16:56:59.603
34, -66296.14, -65051.53, 121934.15, 115279.21, -33631.11, -72234.40, -80286.10, 136064.77, 88705.33, 39908.19, 187500.00, 8592.77, 20172.90, 7661.93, 150536.00, 9297.30, 0.000, 0.000, 0.000, 16:56:59.603
35, -66295.63, -65050.55, 121942.02, 115283.50, -33636.20, -72230.89, -80285.97, 136067.61, 88705.33, 39908.19, 187500.00, 8592.77, 20172.90, 7661.93, 150536.00, 9297.30, 0.000, 0.000, 0.000, 16:56:59.603
36, -66295.63, -65050.55, 121942.02, 115283.50, -33636.20, -72230.89, -80285.97, 136067.61, 88710.65, 39915.95, 187500.00, 8594.11, 20177.23, 7663.94, 150535.75, 9298.08, 0.000, 0.000, 0.000, 16:56:59.603
37, -66298.27, -65056.18, 121937.23, 115278.70, -33637.65, -72237.82, -80293.32, 136056.36, 88710.65, 39915.95, 187500.00, 8594.11, 20177.23, 7663.94, 150535.75, 9298.08, 0.048, 0.962, -0.032, 16:56:59.604
38, -66298.27, -65056.18, 121937.23, 115278.70, -33637.65, -72237.82, -80293.32, 136056.36, 88704.02, 39915.83, 187500.00, 8582.09, 20172.11, 7656.39, 150536.98, 9281.58, 0.000, 0.000, 0.000, 16:56:59.604
39, -66294.84, -65054.64, 121936.59, 115279.56, -33618.34, -72239.56, -80301.27, 136056.89, 88704.02, 39915.83, 187500.00, 8582.09, 20172.11, 7656.39, 150536.98, 9281.58, 0.000, 0.000, 0.000, 16:56:59.604
40, -66294.84, -65054.64, 121936.59, 115279.56, -33618.34, -72239.56, -80301.27, 136056.89, 88712.41, 39913.02, 187500.00, 8590.94, 20184.70, 7667.81, 150543.89, 9286.37, 0.000, 0.000, 0.000, 16:56:59.604
41, -66296.08, -65053.52, 121938.09, 115285.29, -33625.61, -72231.74, -80308.01, 136060.83, 88712.41, 39913.02, 187500.00, 8590.94, 20184.70, 7667.81, 150543.89, 9286.37, 0.000, 0.000, 0.000, 16:56:59.604
42, -66296.08, -65053.52, 121938.09, 115285.29, -33625.61, -72231.74, -80308.01, 136060.83, 88711.95, 39905.93, 187500.00, 8597.13, 20186.73, 7668.97, 150541.91, 9291.93, 0.000, 0.000, 0.000, 16:56:59.605
43, -66291.09, -65058.73, 121930.82, 115278.83, -33619.46, -72234.42, -80287.48, 136060.52, 88711.95, 39905.93, 187500.00, 8597.13, 20186.73, 7668.97, 150541.91, 9291.93, 0.000, 0.000, 0.000, 16:56:59.605
44, -66291.09, -65058.73, 121930.82, 115278.83, -33619.46, -72234.42, -80287.48, 136060.52, 88714.77, 39897.95, 187500.00, 8582.91, 20183.36, 7658.85, 150557.86, 9279.62, 0.000, 0.000, 0.000, 16:56:59.605
45, -66307.14, -65074.17, 121927.20, 115275.56, -33637.50, -72241.77, -80292.31, 136055.91, 88714.77, 39897.95, 187500.00, 8582.91, 20183.36, 7658.85, 150557.86, 9279.62, 0.000, 0.000, 0.000, 16:56:59.605
46, -66307.14, -65074.17, 121927.20, 115275.56, -33637.50, -72241.77, -80292.31, 136055.91, 88726.12, 39895.80, 187500.00, 8585.82, 20197.88, 7672.12, 150556.36, 9281.63, 0.000, 0.000, 0.000, 16:56:59.605
47, -66303.07, -65070.53, 121929.41, 115279.84, -33646.19, -72233.39, -80300.49, 136064.42, 88726.12, 39895.80, 187500.00, 8585.82, 20197.88, 7672.12, 150556.36, 9281.63, 0.044, 0.960, -0.028, 16:56:59.605
48, -66303.07, -65070.53, 121929.41, 115279.84, -33646.19, -72233.39, -80300.49, 136064.42, 88716.77, 39897.75, 187500.00, 8578.15, 20188.34, 7664.79, 150568.72, 9283.60, 0.000, 0.000, 0.000, 16:56:59.606
49, -66295.88, -65064.94, 121934.44, 115285.11, -33645.01, -72225.66, -80281.32, 136074.55, 88716.77, 39897.75, 187500.00, 8578.15, 20188.34, 7664.79, 150568.72, 9283.60, 0.000, 0.000, 0.000, 16:56:59.606
50, -66295.88, -65064.94, 121934.44, 115285.11, -33645.01, -72225.66, -80281.32, 136074.55, 88718.12, 39892.52, 187500.00, 8581.95, 20186.98, 7663.70, 150579.06, 9277.52, 0.000, 0.000, 0.000, 16:56:59.606
51, -66297.17, -65064.92, 121934.39, 115279.84, -33637.30, -72221.77, -80275.57, 136071.89, 88718.12, 39892.52, 187500.00, 8581.95, 20186.98, 7663.70, 150579.06, 9277.52, 0.000, 0.000, 0.000, 16:56:59.606
52, -66297.17, -65064.92, 121934.39, 115279.84, -33637.30, -72221.77, -80275.57, 136071.89, 88721.65, 39891.40, 187500.00, 8579.34, 20189.17, 7664.66, 150589.67, 9279.33, 0.000, 0.000, 0.000, 16:56:59.606
53, -66302.45, -65069.79, 121935.18, 115275.34, -33638.73, -72221.45, -80288.52, 136062.64, 88721.65, 39891.40, 187500.00, 8579.34, 20189.17, 7664.66, 150589.67, 9279.33, 0.000, 0.000, 0.000, 16:56:59.606
54, -66302.45, -65069.79, 121935.18, 115275.34, -33638.73, -72221.45, -80288.52, 136062.64, 88718.97, 39891.65, 187500.00, 8570.64, 20179.60, 7653.33, 150600.19, 9279.30, 0.000, 0.000, 0.000, 16:56:59.607
55, -66318.83, -65078.67, 121934.20, 115276.21, -33643.24, -72218.04, -80284.53, 136068.03, 88718.97, 39891.65, 187500.00, 8570.64, 20179.60, 7653.33, 150600.19, 9279.30, 0.000, 0.000, 0.000, 16:56:59.607
56, -66318.83, -65078.67, 121934.20, 115276.21, -33643.24, -72218.04, -80284.53, 136068.03, 88732.22, 39888.36, 187500.00, 8579.00, 20197.35, 7663.72, 150611.48, 9283.44, 0.000, 0.000, 0.000, 16:56:59.607
57, -66326.95, -65083.27, 121932.49, 115274.29, -33646.97, -72217.52, -80293.99, 136074.31, 88732.22, 39888.36, 187500.00, 8579.00, 20197.35, 7663.72, 150611.48, 9283.44, 0.036, 0.954, -0.010, 16:56:59.607
58, -66326.95, -65083.27, 121932.49, 115274.29, -33646.97, -72217.52, -80293.99, 136074.31, 88726.03, 39895.58, 187500.00, 8571.09, 20183.71, 7652.39, 150621.31, 9279.84, 0.000, 0.000, 0.000, 16:56:59.607
59, -66319.23, -65083.05, 121932.31, 115267.38, -33639.62, -72218.30, -80266.84, 136056.73, 88726.03, 39895.58, 187500.00, 8571.09, 20183.71, 7652.39, 150621.31, 9279.84, 0.000, 0.000, 0.000, 16:56:59.608
60, -66319.23, -65083.05, 121932.31, 115267.38, -33639.62, -72218.30, -80266.84, 136056.73, 88735.82, 39905.95, 187500.00, 8569.97, 20197.28, 7658.96, 150631.28, 9270.94, 0.000, 0.000, 0.000, 16:56:59.608
61, -66326.85, -65086.60, 121942.69, 115272.97, -33650.91, -72205.52, -80251.61, 136064.11, 88735.82, 39905.95, 187500.00, 8569.97, 20197.28, 7658.96, 150631.28, 9270.94, 0.000, 0.000, 0.000, 16:56:59.608
62, -66326.85, -65086.60, 121942.69, 115272.97, -33650.91, -72205.52, -80251.61, 136064.11, 88733.77, 39908.39, 187500.00, 8583.02, 20205.15, 7670.31, 150622.64, 9276.47, 0.000, 0.000, 0.000, 16:56:59.608
63, -66315.88, -65074.73, 121950.15, 115274.70, -33640.29, -72191.15, -80246.18, 136071.53, 88733.77, 39908.39, 187500.00, 8583.02, 20205.15, 7670.31, 150622.64, 9276.47, 0.000, 0.000, 0.000, 16:56:59.609
64, -66315.88, -65074.73, 121950.15, 115274.70, -33640.29, -72191.15, -80246.18, 136071.53, 88728.15, 39901.50, 187500.00, 8574.82, 20193.84, 7663.16, 150626.13, 9271.70, 0.000, 0.000, 0.000, 16:56:59.609
65, -66311.55, -65084.21, 121943.31, 115271.38, -33632.85, -72193.20, -80259.41, 136071.77, 88728.15, 39901.50, 187500.00, 8574.82, 20193.84, 7663.16, 150626.13, 9271.70, 0.000, 0.000, 0.000, 16:56:59.610
66, -66311.55, -65084.21, 121943.31, 115271.38, -33632.85, -72193.20, -80259.41, 136071.77, 88723.57, 39895.71, 187500.00, 8570.82, 20187.76, 7656.70, 150632.06, 9276.40, 0.000, 0.000, 0.000, 16:56:59.610
67, -66297.30, -65076.43, 121943.96, 115271.85, -33628.89, -72192.51, -80250.34, 136065.72, 88723.57, 39895.71, 187500.00, 8570.82, 20187.76, 7656.70, 150632.06, 9276.40, 0.024, 0.954, 0.010, 16:56:59.611
68, -66297.30, -65076.43, 121943.96, 115271.85, -33628.89, -72192.51, -80250.34, 136065.72, 88721.38, 39885.99, 187500.00, 8567.09, 20179.60, 7654.71, 150642.61, 9264.37, 0.000, 0.000, 0.000, 16:56:59.611
69, -66306.27, -65072.81, 121939.31, 115270.87, -33647.24, -72183.73, -80270.43, 136074.05, 88721.38, 39885.99, 187500.00, 8567.09, 20179.60, 7654.71, 150642.61, 9264.37, 0.000, 0.000, 0.000, 16:56:59.611
70, -66306.27, -65072.81, 121939.31, 115270.87, -33647.24, -72183.73, -80270.43, 136074.05, 88725.94, 39886.71, 187500.00, 8566.93, 20186.35, 7664.86, 150640.41, 9252.97, 0.000, 0.000, 0.000, 16:56:59.612
71, -66306.47, -65068.00, 121940.70, 115266.24, -33649.61, -72178.95, -80253.84, 136072.34, 88725.94, 39886.71, 187500.00, 8566.93, 20186.35, 7664.86, 150640.41, 9252.97, 0.000, 0.000, 0.000, 16:56:59.612
72, -66306.47, -65068.00, 121940.70, 115266.24, -33649.61, -72178.95, -80253.84, 136072.34, 88720.27, 39883.54, 187500.00, 8559.00, 20184.68, 7645.21, 150639.20, 9248.46, 0.000, 0.000, 0.000, 16:56:59.612
73, -66305.17, -65072.48, 121940.25, 115262.33, -33641.30, -72173.16, -80226.73, 136072.20, 88720.27, 39883.54, 187500.00, 8559.00, 20184.68, 7645.21, 150639.20, 9248.46, 0.000, 0.000, 0.000, 16:56:59.613
74, -66305.17, -65072.48, 121940.25, 115262.33, -33641.30, -72173.16, -80226.73, 136072.20, 88726.88, 39882.39, 187500.00, 8559.26, 20188.03, 7647.76, 150614.83, 9244.59, 0.000, 0.000, 0.000, 16:56:59.613
75, -66318.59, -65082.33, 121928.45, 115257.75, -33653.97, -72167.79, -80225.75, 136065.64, 88726.88, 39882.39, 187500.00, 8559.26, 20188.03, 7647.76, 150614.83, 9244.59, 0.000, 0.000, 0.000, 16:56:59.613
76, -66318.59, -65082.33, 121928.45, 115257.75, -33653.97, -72167.79, -80225.75, 136065.64, 88723.26, 39886.06, 187500.00, 8560.70, 20181.37, 7646.13, 150575.14, 9240.79, 0.000, 0.000, 0.000, 16:56:59.613
77, -66313.60, -65081.13, 121923.30, 115254.95, -33656.99, -72156.10, -80238.78, 136064.86, 88723.26, 39886.06, 187500.00, 8560.70, 20181.37, 7646.13, 150575.14, 9240.79, 0.018, 0.942, 0.024, 16:56:59.614
78, -66313.60, -65081.13, 121923.30, 115254.95, -33656.99, -72156.10, -80238.78, 136064.86, 88729.34, 39880.68, 187500.00, 8564.54, 20190.60, 7658.27, 150561.13, 9254.25, 0.000, 0.000, 0.000, 16:56:59.614
79, -66311.09, -65073.01, 121930.41, 115264.73, -33653.25, -72143.83, -80230.31, 136077.44, 88729.34, 39880.68, 187500.00, 8564.54, 20190.60, 7658.27, 150561.13, 9254.25, 0.000, 0.000, 0.000, 16:56:59.614
80, -66311.09, -65073.01, 121930.41, 115264.73, -33653.25, -72143.83, -80230.31, 136077.44, 88722.63, 39879.27, 187500.00, 8565.25, 20194.22, 7662.31, 150547.64, 9260.73, 0.000, 0.000, 0.000, 16:56:59.614
81, -66319.08, -65075.22, 121931.34, 115261.44, -33651.02, -72143.34, -80227.07, 136070.83, 88722.63, 39879.27, 187500.00, 8565.25, 20194.22, 7662.31, 150547.64, 9260.73, 0.000, 0.000, 0.000, 16:56:59.615
82, -66319.08, -65075.22, 121931.34, 115261.44, -33651.02, -72143.34, -80227.07, 136070.83, 88723.23, 39902.54, 187500.00, 8565.63, 20195.43, 7658.42, 150526.56, 9241.13, 0.000, 0.000, 0.000, 16:56:59.615
83, -66314.52, -65077.46, 121920.94, 115251.73, -33634.99, -72150.47, -80224.27, 136081.13, 88723.23, 39902.54, 187500.00, 8565.63, 20195.43, 7658.42, 150526.56, 9241.13, 0.000, 0.000, 0.000, 16:56:59.616
84, -66314.52, -65077.46, 121920.94, 115251.73, -33634.99, -72150.47, -80224.27, 136081.13, 88721.00, 39923.72, 187500.00, 8561.17, 20192.63, 7657.80, 150529.09, 9244.03, 0.000, 0.000, 0.000, 16:56:59.616
85, -66323.21, -65085.75, 121917.16, 115250.58, -33642.44, -72143.98, -80211.63, 136073.70, 88721.00, 39923.72, 187500.00, 8561.17, 20192.63, 7657.80, 150529.09, 9244.03, 0.000, 0.000, 0.000, 16:56:59.617
86, -66323.21, -65085.75, 121917.16, 115250.58, -33642.44, -72143.98, -80211.63, 136073.70, 88736.29, 39926.50, 187500.00, 8573.23, 20208.95, 7673.67, 150520.33, 9241.02, 0.000, 0.000, 0.000, 16:56:59.617
87, -66330.34, -65092.32, 121917.59, 115244.49, -33648.63, -72138.66, -80205.12, 136075.22, 88736.29, 39926.50, 187500.00, 8573.23, 20208.95, 7673.67, 150520.33, 9241.02, 0.010, 0.934, 0.040, 16:56:59.617
88, -66330.34, -65092.32, 121917.59, 115244.49, -33648.63, -72138.66, -80205.12, 136075.22, 88732.02, 39928.60, 187500.00, 8575.09, 20215.56, 7669.80, 150512.53, 9205.74, 0.000, 0.000, 0.000, 16:56:59.617
89, -66325.67, -65086.49, 121924.67, 115246.48, -33653.25, -72126.26, -80202.55, 136085.53, 88732.02, 39928.60, 187500.00, 8575.09, 20215.56, 7669.80, 150512.53, 9205.74, 0.000, 0.000, 0.000, 16:56:59.618
90, -66325.67, -65086.49, 121924.67, 115246.48, -33653.25, -72126.26, -80202.55, 136085.53, 88722.16, 39929.56, 187500.00, 8573.01, 20211.16, 7663.72, 150498.98, 9180.62, 0.000, 0.000, 0.000, 16:56:59.618
91, -66318.25, -65086.91, 121922.16, 115242.75, -33646.84, -72122.55, -80196.00, 136086.13, 88722.16, 39929.56, 187500.00, 8573.01, 20211.16, 7663.72, 150498.98, 9180.62, 0.000, 0.000, 0.000, 16:56:59.618
92, -66318.25, -65086.91, 121922.16, 115242.75, -33646.84, -72122.55, -80196.00, 136086.13, 88723.88, 39933.07, 187500.00, 8569.14, 20209.53, 7660.68, 150499.86, 9156.75, 0.000, 0.000, 0.000, 16:56:59.619
93, -66318.98, -65098.67, 121921.72, 115234.55, -33654.28, -72126.38, -80189.97, 136075.81, 88723.88, 39933.07, 187500.00, 8569.14, 20209.53, 7660.68, 150499.86, 9156.75, 0.000, 0.000, 0.000, 16:56:59.619
94, -66318.98, -65098.67, 121921.72, 115234.55, -33654.28, -72126.38, -80189.97, 136075.81, 88732.63, 39935.05, 187500.00, 8577.88, 20222.31, 7670.87, 150494.48, 9130.80, 0.000, 0.000, 0.000, 16:56:59.620
95, -66321.55, -65093.26, 121926.93, 115245.30, -33659.74, -72114.66, -80184.27, 136087.78, 88732.63, 39935.05, 187500.00, 8577.88, 20222.31, 7670.87, 150494.48, 9130.80, 0.000, 0.000, 0.000, 16:56:59.620
96, -66321.55, -65093.26, 121926.93, 115245.30, -33659.74, -72114.66, -80184.27, 136087.78, 88721.70, 39928.46, 187500.00, 8575.81, 20215.68, 7667.07, 150478.22, 9134.80, 0.000, 0.000, 0.000, 16:56:59.620
97, -66318.56, -65097.80, 121918.97, 115239.13, -33648.65, -72117.63, -80189.30, 136082.56, 88721.70, 39928.46, 187500.00, 8575.81, 20215.68, 7667.07, 150478.22, 9134.80, 0.008, 0.934, 0.072, 16:56:59.620
98, -66318.56, -65097.80, 121918.97, 115239.13, -33648.65, -72117.63, -80189.30, 136082.56, 88720.91, 39924.59, 187500.00, 8563.36, 20209.37, 7656.17, 150473.08, 9141.89, 0.000, 0.000, 0.000, 16:56:59.621
99, -66307.84, -65096.10, 121920.05, 115240.56, -33641.52, -72114.46, -80183.13, 136086.17, 88720.91, 39924.59, 187500.00, 8563.36, 20209.37, 7656.17, 150473.08, 9141.89, 0.000, 0.000, 0.000, 16:56:59.621
100, -66307.84, -65096.10, 121920.05, 115240.56, -33641.52, -72114.46, -80183.13, 136086.17, 88713.11, 39921.85, 187500.00, 8568.34, 20202.76, 7649.12, 150471.33, 9151.90, 0.000, 0.000, 0.000, 16:56:59.621
101, -66302.09, -65092.03, 121921.41, 115245.68, -33635.21, -72107.87, -80170.61, 136082.02, 88713.11, 39921.85, 187500.00, 8568.34, 20202.76, 7649.12, 150471.33, 9151.90, 0.000, 0.000, 0.000, 16:56:59.622
102, -66302.09, -65092.03, 121921.41, 115245.68, -33635.21, -72107.87, -80170.61, 136082.02, 88724.82, 39927.99, 187500.00, 8580.86, 20213.33, 7664.64, 150455.94, 9165.04, 0.000, 0.000, 0.000, 16:56:59.622
103, -66309.17, -65094.83, 121920.91, 115248.45, -33645.12, -72100.96, -80182.37, 136083.45, 88724.82, 39927.99, 187500.00, 8580.86, 20213.33, 7664.64, 150455.94, 9165.04, 0.000, 0.000, 0.000, 16:56:59.622
104, -66309.17, -65094.83, 121920.91, 115248.45, -33645.12, -72100.96, -80182.37, 136083.45, 88726.45, 39929.51, 187500.00, 8576.72, 20212.48, 7665.64, 150432.47, 9170.92, 0.000, 0.000, 0.000, 16:56:59.622
105, -66313.24, -65092.79, 121918.01, 115244.56, -33642.35, -72107.48, -80171.28, 136075.25, 88726.45, 39929.51, 187500.00, 8576.72, 20212.48, 7665.64, 150432.47, 9170.92, 0.000, 0.000, 0.000, 16:56:59.623
106, -66313.24, -65092.79, 121918.01, 115244.56, -33642.35, -72107.48, -80171.28, 136075.25, 88727.57, 39925.00, 187500.00, 8578.40, 20208.97, 7661.75, 150421.30, 9164.73, 0.000, 0.000, 0.000, 16:56:59.623
107, -66319.61, -65092.93, 121915.44, 115244.20, -33642.37, -72105.67, -80184.84, 136079.98, 88727.57, 39925.00, 187500.00, 8578.40, 20208.97, 7661.75, 150421.30, 9164.73, -0.002, 0.936, 0.078, 16:56:59.623
108, -66319.61, -65092.93, 121915.44, 115244.20, -33642.37, -72105.67, -80184.84, 136079.98, 88722.03, 39925.73, 187500.00, 8586.74, 20206.20, 7655.76, 150399.08, 9164.91, 0.000, 0.000, 0.000, 16:56:59.624
109, -66321.34, -65092.70, 121919.69, 115252.59, -33641.81, -72103.04, -80158.25, 136069.53, 88722.03, 39925.73, 187500.00, 8586.74, 20206.20, 7655.76, 150399.08, 9164.91, 0.000, 0.000, 0.000, 16:56:59.624
110, -66321.34, -65092.70, 121919.69, 115252.59, -33641.81, -72103.04, -80158.25, 136069.53, 88723.66, 39926.36, 187500.00, 8592.35, 20206.24, 7654.33, 150378.53, 9164.75, 0.000, 0.000, 0.000, 16:56:59.624
111, -66315.57, -65089.37, 121914.93, 115251.91, -33628.18, -72107.04, -80167.10, 136075.73, 88723.66, 39926.36, 187500.00, 8592.35, 20206.24, 7654.33, 150378.53, 9164.75, 0.000, 0.000, 0.000, 16:56:59.624
112, -66315.57, -65089.37, 121914.93, 115251.91, -33628.18, -72107.04, -80167.10, 136075.73, 88721.65, 39930.68, 187500.00, 8585.66, 20204.08, 7651.76, 150384.00, 9165.29, 0.000, 0.000, 0.000, 16:56:59.625
113, -66327.81, -65091.72, 121913.38, 115252.88, -33641.09, -72107.73, -80160.46, 136070.31, 88721.65, 39930.68, 187500.00, 8585.66, 20204.08, 7651.76, 150384.00, 9165.29, 0.000, 0.000, 0.000, 16:56:59.625
114, -66327.81, -65091.72, 121913.38, 115252.88, -33641.09, -72107.73, -80160.46, 136070.31, 88729.85, 39931.84, 187500.00, 8598.25, 20215.72, 7654.42, 150371.80, 9176.78, 0.000, 0.000, 0.000, 16:56:59.626
115, -66326.77, -65094.85, 121911.64, 115252.70, -33645.66, -72112.56, -80155.30, 136074.08, 88729.85, 39931.84, 187500.00, 8598.25, 20215.72, 7654.42, 150371.80, 9176.78, 0.000, 0.000, 0.000, 16:56:59.626
116, -66326.77, -65094.85, 121911.64, 115252.70, -33645.66, -72112.56, -80155.30, 136074.08, 88722.72, 39926.79, 187500.00, 8594.38, 20198.96, 7641.32, 150369.23, 9182.57, 0.000, 0.930, 0.088, 16:56:59.626
117, -66324.46, -65103.34, 121907.62, 115247.45, -33649.28, -72121.23, -80171.01, 136063.61, 88722.72, 39926.79, 187500.00, 8594.38, 20198.96, 7641.32, 150369.23, 9182.57, 0.000, 0.000, 0.000, 16:56:59.626
118, -66324.46, -65103.34, 121907.62, 115247.45, -33649.28, -72121.23, -80171.01, 136063.61, 88727.19, 39942.03, 187500.00, 8593.13, 20207.61, 7640.85, 150371.22, 9192.56, 0.000, 0.000, 0.000, 16:56:59.627
119, -66320.57, -65099.88, 121913.49, 115249.81, -33642.13, -72114.52, -80164.93, 136069.66, 88727.19, 39942.03, 187500.00, 8593.13, 20207.61, 7640.85, 150371.22, 9192.56, 0.000, 0.000, 0.000, 16:56:59.627
120, -66320.57, -65099.88, 121913.49, 115249.81, -33642.13, -72114.52, -80164.93, 136069.66, 88723.52, 39953.79, 187500.00, 8590.92, 20205.78, 7640.74, 150368.83, 9192.60, 0.000, 0.000, 0.000, 16:56:59.627
121, -66321.24, -65099.52, 121914.34, 115254.89, -33649.90, -72111.33, -80160.44, 136071.20, 88723.52, 39953.79, 187500.00, 8590.92, 20205.78, 7640.74, 150368.83, 9192.60, 0.000, 0.000, 0.000, 16:57:00.076
122, -66321.24, -65099.52, 121914.34, 115254.89, -33649.90, -72111.33, -80160.44, 136071.20, 88730.59, 39957.41, 187500.00, 8605.06, 20215.97, 7653.42, 150359.31, 9199.82, 0.000, 0.000, 0.000, 16:57:00.077
123, -66314.80, -65096.23, 121911.55, 115254.64, -33647.06, -72109.88, -80164.15, 136070.48, 88730.59, 39957.41, 187500.00, 8605.06, 20215.97, 7653.42, 150359.31, 9199.82, 0.000, 0.000, 0.000, 16:57:00.077
124, -66314.80, -65096.23, 121911.55, 115254.64, -33647.06, -72109.88, -80164.15, 136070.48, 88728.84, 39961.70, 187500.00, 8608.44, 20211.92, 7649.46, 150359.20, 9200.69, 0.000, 0.000, 0.000, 16:57:00.077
125, -66320.89, -65103.21, 121908.58, 115248.97, -33656.18, -72116.29, -80141.23, 136067.52, 88728.84, 39961.70, 187500.00, 8608.44, 20211.92, 7649.46, 150359.20, 9200.69, 0.000, 0.000, 0.000, 16:57:00.077
126, -66320.89, -65103.21, 121908.58, 115248.97, -33656.18, -72116.29, -80141.23, 136067.52, 88739.44, 39974.77, 187500.00, 8611.81, 20212.48, 7651.61, 150360.88, 9210.10, -0.002, 0.928, 0.096, 16:57:00.078
127, -66321.65, -65105.18, 121898.68, 115239.11, -33660.59, -72129.55, -80157.91, 136057.52, 88739.44, 39974.77, 187500.00, 8611.81, 20212.48, 7651.61, 150360.88, 9210.10, 0.000, 0.000, 0.000, 16:57:00.078
128, -66321.65, -65105.18, 121898.68, 115239.11, -33660.59, -72129.55, -80157.91, 136057.52, 88739.15, 39983.58, 187500.00, 8616.53, 20212.19, 7659.74, 150368.47, 9214.30, 0.000, 0.000, 0.000, 16:57:00.078
129, -66318.70, -65102.96, 121903.98, 115245.52, -33649.86, -72116.34, -80141.06, 136071.97, 88739.15, 39983.58, 187500.00, 8616.53, 20212.19, 7659.74, 150368.47, 9214.30, 0.000, 0.000, 0.000, 16:57:00.078
130, -66318.70, -65102.96, 121903.98, 115245.52, -33649.86, -72116.34, -80141.06, 136071.97, 88732.16, 39981.68, 187500.00, 8604.48, 20201.42, 7652.23, 150376.36, 9217.68, 0.000, 0.000, 0.000, 16:57:00.078
131, -66326.01, -65112.08, 121903.77, 115246.24, -33652.85, -72119.11, -80153.11, 136066.69, 88732.16, 39981.68, 187500.00, 8604.48, 20201.42, 7652.23, 150376.36, 9217.68, 0.000, 0.000, 0.000, 16:57:00.079
132, -66326.01, -65112.08, 121903.77, 115246.24, -33652.85, -72119.11, -80153.11, 136066.69, 88745.43, 39973.46, 187500.00, 8618.12, 20215.70, 7668.23, 150367.63, 9233.08, 0.000, 0.000, 0.000, 16:57:00.079
133, -66326.72, -65104.86, 121906.52, 115242.44, -33655.11, -72126.28, -80156.17, 136054.81, 88745.43, 39973.46, 187500.00, 8618.12, 20215.70, 7668.23, 150367.63, 9233.08, 0.000, 0.000, 0.000, 16:57:00.080
134, -66326.72, -65104.86, 121906.52, 115242.44, -33655.11, -72126.28, -80156.17, 136054.81, 88734.99, 39974.98, 187500.00, 8611.37, 20206.00, 7653.08, 150371.94, 9221.21, 0.000, 0.000, 0.000, 16:57:00.080
135, -66331.46, -65106.54, 121904.84, 115240.49, -33664.72, -72124.63, -80164.66, 136064.61, 88734.99, 39974.98, 187500.00, 8611.37, 20206.00, 7653.08, 150371.94, 9221.21, 0.000, 0.000, 0.000, 16:57:00.080
136, -66331.46, -65106.54, 121904.84, 115240.49, -33664.72, -72124.63, -80164.66, 136064.61, 88732.33, 39980.90, 187500.00, 8607.57, 20206.98, 7652.19, 150373.69, 9234.56, 0.000, 0.928, 0.084, 16:57:00.080
137, -66327.16, -65107.23, 121905.83, 115240.27, -33662.91, -72128.23, -80149.46, 136058.89, 88732.33, 39980.90, 187500.00, 8607.57, 20206.98, 7652.19, 150373.69, 9234.56, 0.000, 0.000, 0.000, 16:57:00.080
138, -66327.16, -65107.23, 121905.83, 115240.27, -33662.91, -72128.23, -80149.46, 136058.89, 88742.37, 39999.38, 187500.00, 8620.73, 20215.59, 7665.35, 150377.81, 9237.69, 0.000, 0.000, 0.000, 16:57:00.081
139, -66340.13, -65108.91, 121904.24, 115245.39, -33685.55, -72126.66, -80152.59, 136062.22, 88742.37, 39999.38, 187500.00, 8620.73, 20215.59, 7665.35, 150377.81, 9237.69, 0.000, 0.000, 0.000, 16:57:00.081
140, -66340.13, -65108.91, 121904.24, 115245.39, -33685.55, -72126.66, -80152.59, 136062.22, 88739.64, 39999.05, 187500.00, 8624.00, 20208.03, 7664.82, 150361.70, 9232.63, 0.000, 0.000, 0.000, 16:57:00.081
141, -66330.27, -65108.35, 121891.61, 115236.80, -33682.31, -72129.79, -80146.40, 136056.11, 88739.64, 39999.05, 187500.00, 8624.00, 20208.03, 7664.82, 150361.70, 9232.63, 0.000, 0.000, 0.000, 16:57:00.081
142, -66330.27, -65108.35, 121891.61, 115236.80, -33682.31, -72129.79, -80146.40, 136056.11, 88735.41, 39994.31, 187500.00, 8618.14, 20189.64, 7650.69, 150364.58, 9222.31, 0.000, 0.000, 0.000, 16:57:00.082
143, -66331.59, -65120.22, 121891.70, 115233.25, -33686.11, -72138.95, -80162.20, 136043.11, 88735.41, 39994.31, 187500.00, 8618.14, 20189.64, 7650.69, 150364.58, 9222.31, 0.000, 0.000, 0.000, 16:57:00.082
144, -66331.59, -65120.22, 121891.70, 115233.25, -33686.11, -72138.95, -80162.20, 136043.11, 88745.01, 39994.15, 187500.00, 8633.03, 20208.55, 7663.79, 150369.98, 9228.36, 0.000, 0.000, 0.000, 16:57:00.082
145, -66339.23, -65115.03, 121897.16, 115236.43, -33686.56, -72135.16, -80153.66, 136047.73, 88745.01, 39994.15, 187500.00, 8633.03, 20208.55, 7663.79, 150369.98, 9228.36, 0.000, 0.000, 0.000, 16:57:00.083
146, -66339.23, -65115.03, 121897.16, 115236.43, -33686.56, -72135.16, -80153.66, 136047.73, 88741.98, 39997.21, 187500.00, 8632.33, 20214.43, 7660.57, 150371.92, 9231.54, 0.000, 0.932, 0.072, 16:57:00.083
147, -66332.27, -65104.55, 121894.66, 115230.39, -33686.85, -72134.55, -80155.95, 136046.34, 88741.98, 39997.21, 187500.00, 8632.33, 20214.43, 7660.57, 150371.92, 9231.54, 0.000, 0.000, 0.000, 16:57:00.083
148, -66332.27, -65104.55, 121894.66, 115230.39, -33686.85, -72134.55, -80155.95, 136046.34, 88741.43, 39995.50, 187500.00, 8626.92, 20212.10, 7651.72, 150364.05, 9229.50, 0.000, 0.000, 0.000, 16:57:00.084
149, -66336.94, -65101.78, 121893.58, 115228.02, -33695.30, -72133.68, -80156.66, 136053.19, 88741.43, 39995.50, 187500.00, 8626.92, 20212.10, 7651.72, 150364.05, 9229.50, 0.000, 0.000, 0.000, 16:57:00.084
150, -66336.94, -65101.78, 121893.58, 115228.02, -33695.30, -72133.68, -80156.66, 136053.19, 88738.39, 39996.37, 187500.00, 8628.38, 20208.68, 7651.16, 150364.38, 9241.26, 0.000, 0.000, 0.000, 16:57:00.084
151, -66340.83, -65107.19, 121896.17, 115231.58, -33692.95, -72133.80, -80147.50, 136045.23, 88738.39, 39996.37, 187500.00, 8628.38, 20208.68, 7651.16, 150364.38, 9241.26, 0.000, 0.000, 0.000, 16:57:00.084
152, -66340.83, -65107.19, 121896.17, 115231.58, -33692.95, -72133.80, -80147.50, 136045.23, 88744.71, 40002.25, 187500.00, 8633.29, 20215.74, 7655.00, 150371.44, 9248.10, 0.000, 0.000, 0.000, 16:57:00.085
153, -66336.38, -65108.66, 121898.56, 115229.61, -33682.71, -72139.36, -80156.86, 136045.88, 88744.71, 40002.25, 187500.00, 8633.29, 20215.74, 7655.00, 150371.44, 9248.10, 0.000, 0.000, 0.000, 16:57:00.085
154, -66336.38, -65108.66, 121898.56, 115229.61, -33682.71, -72139.36, -80156.86, 136045.88, 88740.67, 40000.34, 187500.00, 8629.16, 20210.87, 7651.58, 150385.42, 9243.68, 0.000, 0.000, 0.000, 16:57:00.085
155, -66336.55, -65113.04, 121894.50, 115227.98, -33686.25, -72147.61, -80174.61, 136038.80, 88740.67, 40000.34, 187500.00, 8629.16, 20210.87, 7651.58, 150385.42, 9243.68, 0.000, 0.000, 0.000, 16:57:00.085
156, -66336.55, -65113.04, 121894.50, 115227.98, -33686.25, -72147.61, -80174.61, 136038.80, 88744.36, 39996.79, 187500.00, 8628.53, 20217.20, 7659.81, 150384.75, 9255.63, 0.002, 0.936, 0.060, 16:57:00.086
157, -66332.45, -65107.86, 121903.30, 115233.14, -33687.03, -72142.89, -80162.20, 136055.47, 88744.36, 39996.79, 187500.00, 8628.53, 20217.20, 7659.81, 150384.75, 9255.63, 0.000, 0.000, 0.000, 16:57:00.086
158, -66332.45, -65107.86, 121903.30, 115233.14, -33687.03, -72142.89, -80162.20, 136055.47, 88732.65, 39997.04, 187500.00, 8621.56, 20202.18, 7647.81, 150393.08, 9253.15, 0.000, 0.000, 0.000, 16:57:00.086
159, -66334.59, -65109.80, 121898.43, 115232.42, -33690.02, -72147.74, -80160.13, 136044.88, 88732.65, 39997.04, 187500.00, 8621.56, 20202.18, 7647.81, 150393.08, 9253.15, 0.000, 0.000, 0.000, 16:57:00.086
160, -66334.59, -65109.80, 121898.43, 115232.42, -33690.02, -72147.74, -80160.13, 136044.88, 88744.83, 40007.03, 187500.00, 8638.28, 20218.25, 7661.78, 150398.25, 9259.25, 0.000, 0.000, 0.000, 16:57:00.087
161, -66335.66, -65102.49, 121902.92, 115236.02, -33687.52, -72143.67, -80153.84, 136045.25, 88744.83, 40007.03, 187500.00, 8638.28, 20218.25, 7661.78, 150398.25, 9259.25, 0.000, 0.000, 0.000, 16:57:00.087
162, -66335.66, -65102.49, 121902.92, 115236.02, -33687.52, -72143.67, -80153.84, 136045.25, 88738.84, 40005.17, 187500.00, 8633.25, 20215.36, 7651.72, 150397.89, 9249.00, 0.000, 0.000, 0.000, 16:57:00.087
163, -66326.59, -65105.38, 121896.55, 115229.32, -33674.45, -72161.64, -80150.20, 136032.84, 88738.84, 40005.17, 187500.00, 8633.25, 20215.36, 7651.72, 150397.89, 9249.00, 0.000, 0.000, 0.000, 16:57:00.087
164, -66326.59, -65105.38, 121896.55, 115229.32, -33674.45, -72161.64, -80150.20, 136032.84, 88737.61, 39998.47, 187500.00, 8631.46, 20209.96, 7648.36, 150402.16, 9241.62, 0.000, 0.000, 0.000, 16:57:00.088
165, -66322.61, -65096.30, 121889.60, 115231.22, -33699.43, -72161.64, -80170.59, 136035.30, 88737.61, 39998.47, 187500.00, 8631.46, 20209.96, 7648.36, 150402.16, 9241.62, 0.000, 0.000, 0.000, 16:57:00.088
166, -66322.61, -65096.30, 121889.60, 115231.22, -33699.43, -72161.64, -80170.59, 136035.30, 88744.07, 40000.48, 187500.00, 8638.12, 20209.44, 7656.28, 150394.73, 9253.71, 0.004, 0.936, 0.052, 16:57:00.088
167, -66330.37, -65094.71, 121889.67, 115229.05, -33727.46, -72164.17, -80184.58, 136029.14, 88744.07, 40000.48, 187500.00, 8638.12, 20209.44, 7656.28, 150394.73, 9253.71, 0.000, 0.000, 0.000, 16:57:00.088
168, -66330.37, -65094.71, 121889.67, 115229.05, -33727.46, -72164.17, -80184.58, 136029.14, 88731.04, 40000.50, 187500.00, 8629.96, 20197.91, 7645.10, 150386.05, 9251.79, 0.000, 0.000, 0.000, 16:57:00.088
169, -66321.58, -65095.41, 121887.73, 115225.70, -33715.30, -72168.98, -80173.78, 136025.78, 88731.04, 40000.50, 187500.00, 8629.96, 20197.91, 7645.10, 150386.05, 9251.79, 0.000, 0.000, 0.000, 16:57:00.089
170, -66321.58, -65095.41, 121887.73, 115225.70, -33715.30, -72168.98, -80173.78, 136025.78, 88747.45, 40001.73, 187500.00, 8638.35, 20212.28, 7663.00, 150401.47, 9259.77, 0.000, 0.000, 0.000, 16:57:00.089
171, -66334.63, -65094.69, 121895.26, 115236.49, -33731.80, -72162.11, -80174.32, 136038.64, 88747.45, 40001.73, 187500.00, 8638.35, 20212.28, 7663.00, 150401.47, 9259.77, 0.000, 0.000, 0.000, 16:57:00.089
172, -66334.63, -65094.69, 121895.26, 115236.49, -33731.80, -72162.11, -80174.32, 136038.64, 88737.98, 40004.17, 187500.00, 8642.15, 20201.91, 7661.95, 150398.30, 9274.45, 0.000, 0.000, 0.000, 16:57:00.090
173, -66327.91, -65088.75, 121898.84, 115242.87, -33731.53, -72159.99, -80168.89, 136029.73, 88737.98, 40004.17, 187500.00, 8642.15, 20201.91, 7661.95, 150398.30, 9274.45, 0.000, 0.000, 0.000, 16:57:00.090
174, -66327.91, -65088.75, 121898.84, 115242.87, -33731.53, -72159.99, -80168.89, 136029.73, 88736.00, 40006.11, 187500.00, 8643.98, 20205.33, 7656.43, 150387.83, 9272.02, 0.000, 0.000, 0.000, 16:57:00.090
175, -66318.79, -65082.15, 121895.81, 115241.61, -33722.79, -72162.41, -80175.05, 136030.23, 88736.00, 40006.11, 187500.00, 8643.98, 20205.33, 7656.43, 150387.83, 9272.02, 0.000, 0.000, 0.000, 16:57:00.091
176, -66318.79, -65082.15, 121895.81, 115241.61, -33722.79, -72162.41, -80175.05, 136030.23, 88734.45, 40010.11, 187500.00, 8650.13, 20201.80, 7656.43, 150390.89, 9268.42, 0.002, 0.940, 0.044, 16:57:00.091
177, -66323.19, -65083.25, 121889.80, 115233.77, -33735.35, -72168.15, -80187.17, 136020.59, 88734.45, 40010.11, 187500.00, 8650.13, 20201.80, 7656.43, 150390.89, 9268.42, 0.000, 0.000, 0.000, 16:57:00.091
178, -66323.19, -65083.25, 121889.80, 115233.77, -33735.35, -72168.15, -80187.17, 136020.59, 88744.71, 40017.71, 187500.00, 8644.22, 20208.30, 7667.10, 150393.53, 9273.43, 0.000, 0.000, 0.000, 16:57:00.091
179, -66330.48, -65086.69, 121888.84, 115233.95, -33737.25, -72164.19, -80184.60, 136033.30, 88744.71, 40017.71, 187500.00, 8644.22, 20208.30, 7667.10, 150393.53, 9273.43, 0.000, 0.000, 0.000, 16:57:00.091
180, -66330.48, -65086.69, 121888.84, 115233.95, -33737.25, -72164.19, -80184.60, 136033.30, 88737.95, 40013.67, 187500.00, 8634.03, 20200.32, 7657.64, 150387.19, 9267.77, 0.000, 0.000, 0.000, 16:57:00.092
181, -66339.30, -65092.12, 121883.01, 115231.80, -33745.55, -72172.08, -80193.81, 136026.50, 88737.95, 40013.67, 187500.00, 8634.03, 20200.32, 7657.64, 150387.19, 9267.77, 0.000, 0.000, 0.000, 16:57:00.092
182, -66339.30, -65092.12, 121883.01, 115231.80, -33745.55, -72172.08, -80193.81, 136026.50, 88743.77, 40010.61, 187500.00, 8640.42, 20203.14, 7662.89, 150375.25, 9276.42, 0.000, 0.000, 0.000, 16:57:00.092
183, -66342.68, -65096.37, 121890.36, 115241.27, -33741.01, -72170.18, -80193.81, 136028.80, 88743.77, 40010.61, 187500.00, 8640.42, 20203.14, 7662.89, 150375.25, 9276.42, 0.000, 0.000, 0.000, 16:57:00.092
184, -66342.68, -65096.37, 121890.36, 115241.27, -33741.01, -72170.18, -80193.81, 136028.80, 88738.75, 40003.95, 187500.00, 8638.64, 20209.02, 7663.14, 150359.98, 9283.60, 0.000, 0.000, 0.000, 16:57:00.093
185, -66345.34, -65095.92, 121896.13, 115240.20, -33742.93, -72170.92, -80186.41, 136031.19, 88738.75, 40003.95, 187500.00, 8638.64, 20209.02, 7663.14, 150359.98, 9283.60, 0.000, 0.000, 0.000, 16:57:00.093
186, -66345.34, -65095.92, 121896.13, 115240.20, -33742.93, -72170.92, -80186.41, 136031.19, 88743.42, 40008.37, 187500.00, 8641.72, 20209.69, 7661.51, 150356.20, 9278.25, 0.002, 0.942, 0.028, 16:57:00.093
187, -66348.16, -65100.46, 121890.32, 115228.70, -33754.64, -72180.13, -80210.53, 136027.22, 88743.42, 40008.37, 187500.00, 8641.72, 20209.69, 7661.51, 150356.20, 9278.25, 0.000, 0.000, 0.000, 16:57:00.094
188, -66348.16, -65100.46, 121890.32, 115228.70, -33754.64, -72180.13, -80210.53, 136027.22, 88741.79, 40007.05, 187500.00, 8645.63, 20203.94, 7662.11, 150341.97, 9273.02, 0.000, 0.000, 0.000, 16:57:00.094
189, -66336.65, -65094.07, 121888.38, 115227.58, -33744.43, -72179.59, -80194.73, 136029.11, 88741.79, 40007.05, 187500.00, 8645.63, 20203.94, 7662.11, 150341.97, 9273.02, 0.000, 0.000, 0.000, 16:57:00.094
190, -66336.65, -65094.07, 121888.38, 115227.58, -33744.43, -72179.59, -80194.73, 136029.11, 88729.07, 40005.08, 187500.00, 8631.46, 20190.87, 7648.36, 150344.72, 9267.75, 0.000, 0.000, 0.000, 16:57:00.095
191, -66338.41, -65095.14, 121884.80, 115229.77, -33744.96, -72181.67, -80195.38, 136027.75, 88729.07, 40005.08, 187500.00, 8631.46, 20190.87, 7648.36, 150344.72, 9267.75, 0.000, 0.000, 0.000, 16:57:00.097
192, -66338.41, -65095.14, 121884.80, 115229.77, -33744.96, -72181.67, -80195.38, 136027.75, 88733.02, 40003.92, 187500.00, 8630.30, 20192.21, 7651.23, 150357.98, 9263.66, 0.000, 0.000, 0.000, 16:57:00.099
193, -66343.38, -65102.34, 121880.39, 115230.99, -33740.25, -72189.52, -80197.23, 136022.31, 88733.02, 40003.92, 187500.00, 8630.30, 20192.21, 7651.23, 150357.98, 9263.66, 0.000, 0.000, 0.000, 16:57:00.099
194, -66343.38, -65102.34, 121880.39, 115230.99, -33740.25, -72189.52, -80197.23, 136022.31, 88742.48, 40010.16, 187500.00, 8629.23, 20204.70, 7659.92, 150376.98, 9266.50, 0.000, 0.000, 0.000, 16:57:00.099
195, -66349.23, -65103.10, 121887.50, 115232.83, -33743.91, -72180.95, -80216.79, 136022.88, 88742.48, 40010.16, 187500.00, 8629.23, 20204.70, 7659.92, 150376.98, 9266.50, 0.000, 0.000, 0.000, 16:57:00.100
196, -66349.23, -65103.10, 121887.50, 115232.83, -33743.91, -72180.95, -80216.79, 136022.88, 88741.50, 40012.91, 187500.00, 8623.46, 20201.57, 7658.78, 150383.98, 9270.63, 0.008, 0.948, 0.020, 16:57:00.100
197, -66352.07, -65102.16, 121886.54, 115230.91, -33753.64, -72185.90, -80206.88, 136021.33, 88741.50, 40012.91, 187500.00, 8623.46, 20201.57, 7658.78, 150383.98, 9270.63, 0.000, 0.000, 0.000, 16:57:00.101
198, -66352.07, -65102.16, 121886.54, 115230.91, -33753.64, -72185.90, -80206.88, 136021.33, 88752.63, 40019.99, 187500.00, 8633.41, 20213.64, 7674.25, 150382.16, 9292.09, 0.000, 0.000, 0.000, 16:57:00.101
199, -66344.34, -65093.53, 121890.80, 115234.86, -33758.78, -72184.27, -80204.29, 136027.53, 88752.63, 40019.99, 187500.00, 8633.41, 20213.64, 7674.25, 150382.16, 9292.09, 0.000, 0.000, 0.000, 16:57:00.101
200, -66344.34, -65093.53, 121890.80, 115234.86, -33758.78, -72184.27, -80204.29, 136027.53, 88743.73, 40019.37, 187500.00, 8635.24, 20202.15, 7665.93, 150371.84, 9292.92, 0.000, 0.000, 0.000, 16:57:00.101
201, -66338.32, -65093.15, 121888.84, 115239.20, -33759.29, -72192.69, -80209.79, 136032.42, 88743.73, 40019.37, 187500.00, 8635.24, 20202.15, 7665.93, 150371.84, 9292.92, 0.000, 0.000, 0.000, 16:57:00.102
202, -66338.32, -65093.15, 121888.84, 115239.20, -33759.29, -72192.69, -80209.79, 136032.42, 88736.96, 40015.52, 187500.00, 8631.66, 20197.28, 7664.57, 150375.31, 9292.27, 0.000, 0.000, 0.000, 16:57:00.102
203, -66331.59, -65090.58, 121882.31, 115240.94, -33755.71, -72201.56, -80227.29, 136029.92, 88736.96, 40015.52, 187500.00, 8631.66, 20197.28, 7664.57, 150375.31, 9292.27, 0.000, 0.000, 0.000, 16:57:00.102
204, -66331.59, -65090.58, 121882.31, 115240.94, -33755.71, -72201.56, -80227.29, 136029.92, 88734.03, 40015.05, 187500.00, 8625.94, 20185.84, 7656.46, 150386.88, 9288.65, 0.000, 0.000, 0.000, 16:57:00.102
205, -66339.35, -65087.79, 121883.45, 115240.88, -33752.38, -72203.53, -80221.99, 136027.86, 88734.03, 40015.05, 187500.00, 8625.94, 20185.84, 7656.46, 150386.88, 9288.65, 0.006, 0.954, 0.012, 16:57:00.103
206, -66339.35, -65087.79, 121883.45, 115240.88, -33752.38, -72203.53, -80221.99, 136027.86, 88743.15, 40015.48, 187500.00, 8631.80, 20193.32, 7667.34, 150395.14, 9304.36, 0.000, 0.000, 0.000, 16:57:00.106
207, -66339.08, -65086.54, 121882.70, 115235.95, -33748.09, -72206.03, -80216.67, 136027.19, 88743.15, 40015.48, 187500.00, 8631.80, 20193.32, 7667.34, 150395.14, 9304.36, 0.000, 0.000, 0.000, 16:57:00.106
208, -66339.08, -65086.54, 121882.70, 115235.95, -33748.09, -72206.03, -80216.67, 136027.19, 88750.99, 40021.64, 187500.00, 8632.60, 20200.19, 7673.31, 150411.64, 9312.21, 0.000, 0.000, 0.000, 16:57:00.106
209, -66336.82, -65085.73, 121880.52, 115236.83, -33752.38, -72211.45, -80226.76, 136030.98, 88750.99, 40021.64, 187500.00, 8632.60, 20200.19, 7673.31, 150411.64, 9312.21, 0.000, 0.000, 0.000, 16:57:00.107
210, -66336.82, -65085.73, 121880.52, 115236.83, -33752.38, -72211.45, -80226.76, 136030.98, 88751.64, 40024.20, 187500.00, 8637.21, 20203.21, 7672.55, 150403.81, 9306.53, 0.000, 0.000, 0.000, 16:57:00.107
211, -66333.00, -65083.81, 121875.19, 115239.82, -33756.54, -72210.19, -80226.48, 136034.25, 88751.64, 40024.20, 187500.00, 8637.21, 20203.21, 7672.55, 150403.81, 9306.53, 0.000, 0.000, 0.000, 16:57:00.107
212, -66333.00, -65083.81, 121875.19, 115239.82, -33756.54, -72210.19, -80226.48, 136034.25, 88754.08, 40025.11, 187500.00, 8642.57, 20202.40, 7682.50, 150399.63, 9315.42, 0.000, 0.000, 0.000, 16:57:00.107
213, -66337.80, -65081.37, 121877.33, 115243.51, -33765.55, -72212.43, -80221.80, 136036.48, 88754.08, 40025.11, 187500.00, 8642.57, 20202.40, 7682.50, 150399.63, 9315.42, 0.000, 0.000, 0.000, 16:57:00.108
214, -66337.80, -65081.37, 121877.33, 115243.51, -33765.55, -72212.43, -80221.80, 136036.48, 88741.05, 40024.86, 187500.00, 8638.97, 20189.97, 7663.90, 150399.61, 9309.23, 0.000, 0.000, 0.000, 16:57:00.108
215, -66332.48, -65085.66, 121876.68, 115239.06, -33759.40, -72219.34, -80227.52, 136034.80, 88741.05, 40024.86, 187500.00, 8638.97, 20189.97, 7663.90, 150399.61, 9309.23, 0.008, 0.952, 0.006, 16:57:00.108
216, -66332.48, -65085.66, 121876.68, 115239.06, -33759.40, -72219.34, -80227.52, 136034.80, 88754.59, 40029.43, 187500.00, 8638.28, 20199.72, 7669.87, 150396.20, 9306.89, 0.000, 0.000, 0.000, 16:57:00.109
217, -66343.64, -65094.94, 121877.38, 115240.70, -33774.36, -72216.85, -80227.72, 136032.64, 88754.59, 40029.43, 187500.00, 8638.28, 20199.72, 7669.87, 150396.20, 9306.89, 0.000, 0.000, 0.000, 16:57:00.109
218, -66343.64, -65094.94, 121877.38, 115240.70, -33774.36, -72216.85, -80227.72, 136032.64, 88757.74, 40030.05, 187500.00, 8645.70, 20203.12, 7680.15, 150389.45, 9314.69, 0.000, 0.000, 0.000, 16:57:00.109
219, -66339.26, -65093.75, 121876.91, 115233.92, -33772.93, -72222.44, -80226.63, 136032.38, 88757.74, 40030.05, 187500.00, 8645.70, 20203.12, 7680.15, 150389.45, 9314.69, 0.000, 0.000, 0.000, 16:57:00.109
220, -66339.26, -65093.75, 121876.91, 115233.92, -33772.93, -72222.44, -80226.63, 136032.38, 88763.06, 40022.41, 187500.00, 8642.19, 20207.36, 7680.57, 150400.39, 9306.55, 0.000, 0.000, 0.000, 16:57:00.110
221, -66342.26, -65087.63, 121877.15, 115234.88, -33786.58, -72230.53, -80224.12, 136030.83, 88763.06, 40022.41, 187500.00, 8642.19, 20207.36, 7680.57, 150400.39, 9306.55, 0.000, 0.000, 0.000, 16:57:00.110
222, -66342.26, -65087.63, 121877.15, 115234.88, -33786.58, -72230.53, -80224.12, 136030.83, 88753.52, 40023.19, 187500.00, 8631.42, 20203.25, 7667.54, 150396.36, 9303.04, 0.000, 0.000, 0.000, 16:57:00.110
223, -66331.33, -65082.27, 121879.41, 115238.08, -33778.02, -72228.77, -80234.91, 136023.59, 88753.52, 40023.19, 187500.00, 8631.42, 20203.25, 7667.54, 150396.36, 9303.04, 0.000, 0.000, 0.000, 16:57:00.110
224, -66331.33, -65082.27, 121879.41, 115238.08, -33778.02, -72228.77, -80234.91, 136023.59, 88759.89, 40023.17, 187500.00, 8635.39, 20206.83, 7675.05, 150402.00, 9308.85, 0.000, 0.000, 0.000, 16:57:00.111
225, -66340.87, -65085.17, 121879.14, 115241.12, -33778.31, -72228.70, -80243.30, 136029.56, 88759.89, 40023.17, 187500.00, 8635.39, 20206.83, 7675.05, 150402.00, 9308.85, 0.012, 0.950, -0.002, 16:57:00.111
226, -66340.87, -65085.17, 121879.14, 115241.12, -33778.31, -72228.70, -80243.30, 136029.56, 88756.74, 40014.88, 187500.00, 8631.46, 20203.43, 7670.56, 150403.75, 9309.17, 0.000, 0.000, 0.000, 16:57:00.111
227, -66351.17, -65090.04, 121879.12, 115243.58, -33774.91, -72230.48, -80240.52, 136025.58, 88756.74, 40014.88, 187500.00, 8631.46, 20203.43, 7670.56, 150403.75, 9309.17, 0.000, 0.000, 0.000, 16:57:00.112
228, -66351.17, -65090.04, 121879.12, 115243.58, -33774.91, -72230.48, -80240.52, 136025.58, 88752.85, 40009.26, 187500.00, 8632.09, 20193.57, 7668.57, 150406.88, 9305.63, 0.000, 0.000, 0.000, 16:57:00.112
229, -66348.18, -65089.21, 121881.84, 115245.16, -33758.55, -72227.05, -80238.78, 136035.22, 88752.85, 40009.26, 187500.00, 8632.09, 20193.57, 7668.57, 150406.88, 9305.63, 0.000, 0.000, 0.000, 16:57:00.112
230, -66348.18, -65089.21, 121881.84, 115245.16, -33758.55, -72227.05, -80238.78, 136035.22, 88755.63, 40013.31, 187500.00, 8634.88, 20198.13, 7674.31, 150421.95, 9316.70, 0.000, 0.000, 0.000, 16:57:00.112
231, -66348.94, -65088.10, 121892.55, 115254.53, -33760.88, -72221.01, -80231.54, 136036.95, 88755.63, 40013.31, 187500.00, 8634.88, 20198.13, 7674.31, 150421.95, 9316.70, 0.000, 0.000, 0.000, 16:57:00.112
232, -66348.94, -65088.10, 121892.55, 115254.53, -33760.88, -72221.01, -80231.54, 136036.95, 88751.80, 40017.20, 187500.00, 8633.52, 20199.14, 7671.74, 150439.95, 9334.36, 0.000, 0.000, 0.000, 16:57:00.113
233, -66337.65, -65085.15, 121900.06, 115262.02, -33745.50, -72215.42, -80213.77, 136042.13, 88751.80, 40017.20, 187500.00, 8633.52, 20199.14, 7671.74, 150439.95, 9334.36, 0.000, 0.000, 0.000, 16:57:00.113
234, -66337.65, -65085.15, 121900.06, 115262.02, -33745.50, -72215.42, -80213.77, 136042.13, 88745.84, 40011.61, 187500.00, 8631.62, 20197.62, 7665.08, 150447.33, 9330.76, 0.000, 0.000, 0.000, 16:57:00.113
235, -66335.51, -65091.81, 121888.66, 115254.95, -33748.29, -72225.93, -80227.38, 136037.56, 88745.84, 40011.61, 187500.00, 8631.62, 20197.62, 7665.08, 150447.33, 9330.76, 0.018, 0.948, -0.004, 16:57:00.114
236, -66335.51, -65091.81, 121888.66, 115254.95, -33748.29, -72225.93, -80227.38, 136037.56, 88755.13, 40005.06, 187500.00, 8632.85, 20206.54, 7667.03, 150452.52, 9315.96, 0.000, 0.000, 0.000, 16:57:00.114
237, -66347.75, -65101.09, 121884.05, 115251.24, -33758.91, -72227.78, -80247.97, 136034.14, 88755.13, 40005.06, 187500.00, 8632.85, 20206.54, 7667.03, 150452.52, 9315.96, 0.000, 0.000, 0.000, 16:57:00.114
238, -66347.75, -65101.09, 121884.05, 115251.24, -33758.91, -72227.78, -80247.97, 136034.14, 88761.81, 40002.29, 187500.00, 8631.15, 20212.93, 7670.40, 150454.34, 9319.74, 0.000, 0.000, 0.000, 16:57:00.114
239, -66354.13, -65099.86, 121887.59, 115251.89, -33758.64, -72230.94, -80231.16, 136033.66, 88761.81, 40002.29, 187500.00, 8631.15, 20212.93, 7670.40, 150454.34, 9319.74, 0.000, 0.000, 0.000, 16:57:00.114
240, -66354.13, -65099.86, 121887.59, 115251.89, -33758.64, -72230.94, -80231.16, 136033.66, 88752.76, 40000.19, 187500.00, 8631.51, 20201.66, 7668.08, 150450.70, 9325.06, 0.000, 0.000, 0.000, 16:57:00.115
241, -66346.46, -65086.73, 121888.08, 115259.94, -33769.48, -72221.66, -80234.98, 136039.78, 88752.76, 40000.19, 187500.00, 8631.51, 20201.66, 7668.08, 150450.70, 9325.06, 0.000, 0.000, 0.000, 16:57:00.556
242, -66346.46, -65086.73, 121888.08, 115259.94, -33769.48, -72221.66, -80234.98, 136039.78, 88755.49, 40006.20, 187500.00, 8629.38, 20202.96, 7664.73, 150449.94, 9315.54, 0.000, 0.000, 0.000, 16:57:00.556
243, -66352.63, -65092.19, 121882.18, 115252.67, -33780.93, -72236.55, -80239.45, 136027.92, 88755.49, 40006.20, 187500.00, 8629.38, 20202.96, 7664.73, 150449.94, 9315.54, 0.000, 0.000, 0.000, 16:57:00.556
244, -66352.63, -65092.19, 121882.18, 115252.67, -33780.93, -72236.55, -80239.45, 136027.92, 88756.18, 40001.04, 187500.00, 8628.11, 20203.38, 7667.18, 150448.27, 9321.19, 0.000, 0.000, 0.000, 16:57:00.557
245, -66344.38, -65088.05, 121885.89, 115257.55, -33774.69, -72232.97, -80244.44, 136032.16, 88756.18, 40001.04, 187500.00, 8628.11, 20203.38, 7667.18, 150448.27, 9321.19, 0.018, 0.946, 0.002, 16:57:00.557
246, -66344.38, -65088.05, 121885.89, 115257.55, -33774.69, -72232.97, -80244.44, 136032.16, 88753.41, 40004.05, 187500.00, 8626.16, 20197.35, 7663.54, 150444.83, 9319.72, 0.000, 0.000, 0.000, 16:57:00.557
247, -66348.07, -65091.14, 121887.21, 115257.57, -33781.00, -72236.99, -80242.83, 136029.03, 88753.41, 40004.05, 187500.00, 8626.16, 20197.35, 7663.54, 150444.83, 9319.72, 0.000, 0.000, 0.000, 16:57:00.557
248, -66348.07, -65091.14, 121887.21, 115257.57, -33781.00, -72236.99, -80242.83, 136029.03, 88758.87, 40008.55, 187500.00, 8632.85, 20211.90, 7671.88, 150438.98, 9324.97, 0.000, 0.000, 0.000, 16:57:00.558
249, -66347.64, -65089.98, 121892.53, 115266.58, -33776.10, -72229.86, -80245.91, 136037.05, 88758.87, 40008.55, 187500.00, 8632.85, 20211.90, 7671.88, 150438.98, 9324.97, 0.000, 0.000, 0.000, 16:57:00.558
250, -66347.64, -65089.98, 121892.53, 115266.58, -33776.10, -72229.86, -80245.91, 136037.05, 88751.20, 40010.80, 187500.00, 8631.75, 20200.70, 7667.18, 150444.31, 9338.04, 0.000, 0.000, 0.000, 16:57:00.558
251, -66336.58, -65091.43, 121887.37, 115267.12, -33766.69, -72230.95, -80243.03, 136038.14, 88751.20, 40010.80, 187500.00, 8631.75, 20200.70, 7667.18, 150444.31, 9338.04, 0.000, 0.000, 0.000, 16:57:00.558
252, -66336.58, -65091.43, 121887.37, 115267.12, -33766.69, -72230.95, -80243.03, 136038.14, 88757.27, 40008.88, 187500.00, 8632.20, 20204.21, 7669.51, 150466.70, 9338.69, 0.000, 0.000, 0.000, 16:57:00.558
253, -66338.86, -65093.22, 121891.41, 115267.72, -33765.48, -72230.06, -80237.06, 136039.38, 88757.27, 40008.88, 187500.00, 8632.20, 20204.21, 7669.51, 150466.70, 9338.69, 0.000, 0.000, 0.000, 16:57:00.558
254, -66338.86, -65093.22, 121891.41, 115267.72, -33765.48, -72230.06, -80237.06, 136039.38, 88755.22, 40007.36, 187500.00, 8630.72, 20208.37, 7665.02, 150463.84, 9339.99, 0.000, 0.000, 0.000, 16:57:00.559
255, -66345.77, -65090.85, 121898.09, 115275.03, -33772.79, -72220.25, -80244.41, 136045.03, 88755.22, 40007.36, 187500.00, 8630.72, 20208.37, 7665.02, 150463.84, 9339.99, 0.018, 0.954, 0.000, 16:57:00.559
0, -66345.77, -65090.85, 121898.09, 115275.03, -33772.79, -72220.25, -80244.41, 136045.03, 88760.70, 40010.52, 187500.00, 8639.91, 20218.81, 7677.53, 150454.53, 9343.86, 0.000, 0.000, 0.000, 16:57:00.559
1, -66342.81, -65085.73, 121900.02, 115274.94, -33777.84, -72228.05, -80240.44, 136038.56, 88760.70, 40010.52, 187500.00, 8639.91, 20218.81, 7677.53, 150454.53, 9343.86, 0.000, 0.000, 0.000, 16:57:00.559
2, -66342.81, -65085.73, 121900.02, 115274.94, -33777.84, -72228.05, -80240.44, 136038.56, 88755.16, 40013.33, 187500.00, 8640.51, 20210.00, 7672.64, 150459.52, 9335.76, 0.000, 0.000, 0.000, 16:57:00.559
3, -66337.52, -65077.59, 121901.80, 115279.45, -33781.87, -72224.30, -80239.20, 136045.03, 88755.16, 40013.33, 187500.00, 8640.51, 20210.00, 7672.64, 150459.52, 9335.76, 0.000, 0.000, 0.000, 16:57:00.559
4, -66337.52, -65077.59, 121901.80, 115279.45, -33781.87, -72224.30, -80239.20, 136045.03, 88751.38, 40021.51, 187500.00, 8638.70, 20208.57, 7670.40, 150463.20, 9336.23, 0.000, 0.000, 0.000, 16:57:00.559
5, -66340.73, -65080.97, 121895.99, 115274.78, -33787.72, -72228.70, -80243.59, 136035.50, 88751.38, 40021.51, 187500.00, 8638.70, 20208.57, 7670.40, 150463.20, 9336.23, 0.000, 0.000, 0.000, 16:57:00.560
6, -66340.73, -65080.97, 121895.99, 115274.78, -33787.72, -72228.70, -80243.59, 136035.50, 88757.77, 40022.29, 187500.00, 8638.14, 20212.44, 7671.74, 150465.25, 9336.90, 0.000, 0.000, 0.000, 16:57:00.560
7, -66338.45, -65078.22, 121899.01, 115277.30, -33783.99, -72223.49, -80242.34, 136039.95, 88757.77, 40022.29, 187500.00, 8638.14, 20212.44, 7671.74, 150465.25, 9336.90, 0.000, 0.000, 0.000, 16:57:00.560
8, -66338.45, -65078.22, 121899.01, 115277.30, -33783.99, -72223.49, -80242.34, 136039.95, 88761.66, 40019.46, 187500.00, 8637.83, 20219.43, 7676.37, 150465.86, 9335.99, 0.000, 0.000, 0.000, 16:57:00.560
9, -66341.12, -65080.72, 121892.22, 115270.05, -33784.32, -72228.03, -80251.56, 136031.86, 88761.66, 40019.46, 187500.00, 8637.83, 20219.43, 7676.37, 150465.86, 9335.99, 0.016, 0.952, 0.006, 16:57:00.560
10, -66341.12, -65080.72, 121892.22, 115270.05, -33784.32, -72228.03, -80251.56, 136031.86, 88753.19, 40019.01, 187500.00, 8625.92, 20209.20, 7663.30, 150468.00, 9332.25, 0.000, 0.000, 0.000, 16:57:00.560
11, -66332.48, -65072.77, 121893.60, 115274.38, -33773.98, -72222.15, -80250.02, 136041.08, 88753.19, 40019.01, 187500.00, 8625.92, 20209.20, 7663.30, 150468.00, 9332.25, 0.000, 0.000, 0.000, 16:57:00.561
12, -66332.48, -65072.77, 121893.60, 115274.38, -33773.98, -72222.15, -80250.02, 136041.08, 88759.51, 40020.95, 187500.00, 8631.35, 20215.48, 7675.99, 150471.69, 9332.97, 0.000, 0.000, 0.000, 16:57:00.561
13, -66329.38, -65069.84, 121893.54, 115275.19, -33776.23, -72224.79, -80245.60, 136034.80, 88759.51, 40020.95, 187500.00, 8631.35, 20215.48, 7675.99, 150471.69, 9332.97, 0.000, 0.000, 0.000, 16:57:00.561
14, -66329.38, -65069.84, 121893.54, 115275.19, -33776.23, -72224.79, -80245.60, 136034.80, 88759.98, 40019.10, 187500.00, 8633.03, 20221.53, 7677.96, 150471.53, 9334.31, 0.000, 0.000, 0.000, 16:57:00.561
15, -66334.01, -65068.56, 121899.44, 115280.98, -33775.47, -72215.27, -80240.66, 136049.03, 88759.98, 40019.10, 187500.00, 8633.03, 20221.53, 7677.96, 150471.53, 9334.31, 0.000, 0.000, 0.000, 16:57:00.561
16, -66334.01, -65068.56, 121899.44, 115280.98, -33775.47, -72215.27, -80240.66, 136049.03, 88758.10, 40021.29, 187500.00, 8629.36, 20219.19, 7672.17, 150473.44, 9342.38, 0.000, 0.000, 0.000, 16:57:00.561
17, -66330.52, -65069.30, 121899.15, 115283.21, -33757.66, -72214.95, -80252.82, 136052.36, 88758.10, 40021.29, 187500.00, 8629.36, 20219.19, 7672.17, 150473.44, 9342.38, 0.000, 0.000, 0.000, 16:57:00.562
18, -66330.52, -65069.30, 121899.15, 115283.21, -33757.66, -72214.95, -80252.82, 136052.36, 88762.10, 40029.58, 187500.00, 8632.18, 20226.12, 7676.13, 150478.89, 9343.90, 0.000, 0.000, 0.000, 16:57:00.562
19, -66329.65, -65068.00, 121902.27, 115284.77, -33744.70, -72220.00, -80247.74, 136053.03, 88762.10, 40029.58, 187500.00, 8632.18, 20226.12, 7676.13, 150478.89, 9343.90, 0.012, 0.946, 0.010, 16:57:00.562
20, -66329.65, -65068.00, 121902.27, 115284.77, -33744.70, -72220.00, -80247.74, 136053.03, 88752.76, 40015.01, 187500.00, 8623.75, 20212.55, 7661.69, 150479.69, 9325.46, 0.000, 0.000, 0.000, 16:57:00.562
21, -66326.99, -65071.22, 121897.67, 115281.82, -33745.68, -72228.70, -80252.55, 136042.91, 88752.76, 40015.01, 187500.00, 8623.75, 20212.55, 7661.69, 150479.69, 9325.46, 0.000, 0.000, 0.000, 16:57:00.562
22, -66326.99, -65071.22, 121897.67, 115281.82, -33745.68, -72228.70, -80252.55, 136042.91, 88763.76, 40015.72, 187500.00, 8627.13, 20220.91, 7673.04, 150476.16, 9327.74, 0.000, 0.000, 0.000, 16:57:00.562
23, -66328.98, -65071.47, 121902.07, 115286.98, -33751.56, -72229.68, -80243.54, 136048.31, 88763.76, 40015.72, 187500.00, 8627.13, 20220.91, 7673.04, 150476.16, 9327.74, 0.000, 0.000, 0.000, 16:57:00.563
24, -66328.98, -65071.47, 121902.07, 115286.98, -33751.56, -72229.68, -80243.54, 136048.31, 88755.17, 40010.29, 187500.00, 8623.55, 20218.43, 7664.55, 150465.33, 9329.10, 0.000, 0.000, 0.000, 16:57:00.563
25, -66320.20, -65067.63, 121913.85, 115290.12, -33737.03, -72221.19, -80236.03, 136050.28, 88755.17, 40010.29, 187500.00, 8623.55, 20218.43, 7664.55, 150465.33, 9329.10, 0.000, 0.000, 0.000, 16:57:00.563
26, -66320.20, -65067.63, 121913.85, 115290.12, -33737.03, -72221.19, -80236.03, 136050.28, 88759.53, 40010.74, 187500.00, 8621.87, 20228.51, 7670.94, 150457.97, 9332.23, 0.000, 0.000, 0.000, 16:57:00.564
27, -66333.94, -65076.41, 121914.01, 115288.80, -33754.15, -72224.32, -80248.95, 136041.94, 88759.53, 40010.74, 187500.00, 8621.87, 20228.51, 7670.94, 150457.97, 9332.23, 0.000, 0.000, 0.000, 16:57:00.564
28, -66333.94, -65076.41, 121914.01, 115288.80, -33754.15, -72224.32, -80248.95, 136041.94, 88766.66, 40014.96, 187500.00, 8627.19, 20228.28, 7677.80, 150454.75, 9331.83, 0.000, 0.000, 0.000, 16:57:00.564
29, -66341.52, -65075.80, 121920.05, 115295.77, -33763.74, -72216.80, -80251.37, 136049.81, 88766.66, 40014.96, 187500.00, 8627.19, 20228.28, 7677.80, 150454.75, 9331.83, 0.016, 0.948, 0.008, 16:57:00.564
30, -66341.52, -65075.80, 121920.05, 115295.77, -33763.74, -72216.80, -80251.37, 136049.81, 88763.91, 40023.08, 187500.00, 8625.56, 20231.93, 7681.24, 150441.77, 9336.90, 0.000, 0.000, 0.000, 16:57:00.564
31, -66341.65, -65073.61, 121923.02, 115298.66, -33759.76, -72214.35, -80242.76, 136059.56, 88763.91, 40023.08, 187500.00, 8625.56, 20231.93, 7681.24, 150441.77, 9336.90, 0.000, 0.000, 0.000, 16:57:00.565
32, -66341.65, -65073.61, 121923.02, 115298.66, -33759.76, -72214.35, -80242.76, 136059.56, 88760.95, 40025.65, 187500.00, 8617.80, 20221.62, 7672.97, 150451.17, 9336.61, 0.000, 0.000, 0.000, 16:57:00.565
33, -66336.47, -65080.99, 121913.41, 115286.02, -33756.32, -72222.10, -80250.02, 136052.61, 88760.95, 40025.65, 187500.00, 8617.80, 20221.62, 7672.97, 150451.17, 9336.61, 0.000, 0.000, 0.000, 16:57:00.565
34, -66336.47, -65080.99, 121913.41, 115286.02, -33756.32, -72222.10, -80250.02, 136052.61, 88774.47, 40031.70, 187500.00, 8623.24, 20235.48, 7683.88, 150467.00, 9339.83, 0.000, 0.000, 0.000, 16:57:00.565
35, -66338.99, -65084.37, 121916.22, 115285.78, -33778.00, -72220.56, -80252.05, 136049.97, 88774.47, 40031.70, 187500.00, 8623.24, 20235.48, 7683.88, 150467.00, 9339.83, 0.000, 0.000, 0.000, 16:57:00.566
36, -66338.99, -65084.37, 121916.22, 115285.78, -33778.00, -72220.56, -80252.05, 136049.97, 88767.70, 40034.30, 187500.00, 8622.81, 20228.46, 7675.10, 150470.63, 9332.17, 0.000, 0.000, 0.000, 16:57:00.566
37, -66326.77, -65086.22, 121912.34, 115281.27, -33777.69, -72226.71, -80246.54, 136044.38, 88767.70, 40034.30, 187500.00, 8622.81, 20228.46, 7675.10, 150470.63, 9332.17, 0.000, 0.000, 0.000, 16:57:00.566
38, -66326.77, -65086.22, 121912.34, 115281.27, -33777.69, -72226.71, -80246.54, 136044.38, 88767.47, 40036.42, 187500.00, 8615.97, 20225.00, 7674.27, 150482.64, 9331.23, 0.020, 0.950, 0.012, 16:57:00.566
39, -66330.43, -65088.14, 121907.95, 115282.05, -33780.48, -72227.96, -80261.60, 136057.75, 88767.47, 40036.42, 187500.00, 8615.97, 20225.00, 7674.27, 150482.64, 9331.23, 0.000, 0.000, 0.000, 16:57:00.566
40, -66330.43, -65088.14, 121907.95, 115282.05, -33780.48, -72227.96, -80261.60, 136057.75, 88776.52, 40046.37, 187500.00, 8619.64, 20228.71, 7685.71, 150482.89, 9340.57, 0.000, 0.000, 0.000, 16:57:00.567
41, -66334.48, -65093.35, 121906.48, 115282.96, -33772.84, -72221.52, -80254.65, 136060.09, 88776.52, 40046.37, 187500.00, 8619.64, 20228.71, 7685.71, 150482.89, 9340.57, 0.000, 0.000, 0.000, 16:57:00.567
42, -66334.48, -65093.35, 121906.48, 115282.96, -33772.84, -72221.52, -80254.65, 136060.09, 88773.13, 40042.84, 187500.00, 8614.47, 20226.54, 7685.49, 150484.97, 9347.63, 0.000, 0.000, 0.000, 16:57:00.568
43, -66335.95, -65095.63, 121909.83, 115282.67, -33773.42, -72219.38, -80248.64, 136053.48, 88773.13, 40042.84, 187500.00, 8614.47, 20226.54, 7685.49, 150484.97, 9347.63, 0.000, 0.000, 0.000, 16:57:00.568
44, -66335.95, -65095.63, 121909.83, 115282.67, -33773.42, -72219.38, -80248.64, 136053.48, 88769.16, 40031.17, 187500.00, 8611.86, 20223.59, 7677.94, 150492.19, 9345.31, 0.000, 0.000, 0.000, 16:57:00.568
45, -66334.50, -65095.05, 121906.45, 115278.00, -33784.37, -72223.05, -80263.81, 136050.73, 88769.16, 40031.17, 187500.00, 8611.86, 20223.59, 7677.94, 150492.19, 9345.31, 0.000, 0.000, 0.000, 16:57:00.568
46, -66334.50, -65095.05, 121906.45, 115278.00, -33784.37, -72223.05, -80263.81, 136050.73, 88780.92, 40036.91, 187500.00, 8625.63, 20238.99, 7694.41, 150500.06, 9344.86, 0.000, 0.000, 0.000, 16:57:00.569
47, -66346.03, -65093.82, 121913.09, 115284.70, -33803.17, -72214.95, -80274.37, 136050.13, 88780.92, 40036.91, 187500.00, 8625.63, 20238.99, 7694.41, 150500.06, 9344.86, 0.000, 0.000, 0.000, 16:57:00.569
48, -66346.03, -65093.82, 121913.09, 115284.70, -33803.17, -72214.95, -80274.37, 136050.13, 88774.45, 40036.18, 187500.00, 8619.48, 20239.82, 7682.34, 150492.41, 9342.96, 0.018, 0.950, 0.016, 16:57:00.569
49, -66342.28, -65095.41, 121909.02, 115281.63, -33806.63, -72222.64, -80269.41, 136046.17, 88774.45, 40036.18, 187500.00, 8619.48, 20239.82, 7682.34, 150492.41, 9342.96, 0.000, 0.000, 0.000, 16:57:00.570
50, -66342.28, -65095.41, 121909.02, 115281.63, -33806.63, -72222.64, -80269.41, 136046.17, 88781.95, 40040.15, 187500.00, 8621.74, 20245.81, 7688.24, 150497.02, 9345.15, 0.000, 0.000, 0.000, 16:57:00.570
51, -66346.08, -65100.75, 121901.72, 115278.25, -33810.48, -72228.05, -80267.23, 136044.80, 88781.95, 40040.15, 187500.00, 8621.74, 20245.81, 7688.24, 150497.02, 9345.15, 0.000, 0.000, 0.000, 16:57:00.570
52, -66346.08, -65100.75, 121901.72, 115278.25, -33810.48, -72228.05, -80267.23, 136044.80, 88780.88, 40038.05, 187500.00, 8615.12, 20238.16, 7685.56, 150497.06, 9345.13, 0.000, 0.000, 0.000, 16:57:00.571
53, -66347.64, -65103.84, 121908.65, 115280.28, -33802.63, -72224.48, -80263.73, 136050.42, 88780.88, 40038.05, 187500.00, 8615.12, 20238.16, 7685.56, 150497.06, 9345.13, 0.000, 0.000, 0.000, 16:57:00.571
54, -66347.64, -65103.84, 121908.65, 115280.28, -33802.63, -72224.48, -80263.73, 136050.42, 88775.29, 40025.96, 187500.00, 8608.42, 20238.03, 7679.05, 150506.97, 9340.70, 0.000, 0.000, 0.000, 16:57:00.571
55, -66343.82, -65108.10, 121908.24, 115275.90, -33795.97, -72222.53, -80247.92, 136054.28, 88775.29, 40025.96, 187500.00, 8608.42, 20238.03, 7679.05, 150506.97, 9340.70, 0.000, 0.000, 0.000, 16:57:00.572
56, -66343.82, -65108.10, 121908.24, 115275.90, -33795.97, -72222.53, -80247.92, 136054.28, 88782.89, 40022.23, 187500.00, 8601.35, 20245.03, 7681.65, 150514.34, 9348.01, 0.000, 0.000, 0.000, 16:57:00.572
57, -66354.55, -65115.46, 121910.55, 115277.60, -33801.74, -72217.23, -80257.20, 136057.95, 88782.89, 40022.23, 187500.00, 8601.35, 20245.03, 7681.65, 150514.34, 9348.01, 0.000, 0.000, 0.000, 16:57:00.572
58, -66354.55, -65115.46, 121910.55, 115277.60, -33801.74, -72217.23, -80257.20, 136057.95, 88780.74, 40024.24, 187500.00, 8597.17, 20241.11, 7679.19, 150511.30, 9350.58, 0.016, 0.954, 0.022, 16:57:00.572
59, -66350.26, -65116.80, 121906.61, 115271.70, -33797.87, -72214.98, -80253.49, 136058.08, 88780.74, 40024.24, 187500.00, 8597.17, 20241.11, 7679.19, 150511.30, 9350.58, 0.000, 0.000, 0.000, 16:57:00.573
60, -66350.26, -65116.80, 121906.61, 115271.70, -33797.87, -72214.98, -80253.49, 136058.08, 88783.98, 40022.85, 187500.00, 8598.02, 20238.14, 7679.25, 150521.25, 9357.58, 0.000, 0.000, 0.000, 16:57:00.573
61, -66361.43, -65125.49, 121904.17, 115269.82, -33803.32, -72218.82, -80257.20, 136046.81, 88783.98, 40022.85, 187500.00, 8598.02, 20238.14, 7679.25, 150521.25, 9357.58, 0.000, 0.000, 0.000, 16:57:00.573
62, -66361.43, -65125.49, 121904.17, 115269.82, -33803.32, -72218.82, -80257.20, 136046.81, 88798.72, 40019.61, 187500.00, 8605.98, 20250.19, 7687.73, 150526.64, 9363.23, 0.000, 0.000, 0.000, 16:57:00.574
63, -66374.02, -65131.10, 121897.42, 115267.67, -33794.81, -72227.85, -80261.05, 136046.17, 88798.72, 40019.61, 187500.00, 8605.98, 20250.19, 7687.73, 150526.64, 9363.23, 0.000, 0.000, 0.000, 16:57:00.574
64, -66374.02, -65131.10, 121897.42, 115267.67, -33794.81, -72227.85, -80261.05, 136046.17, 88800.98, 40024.20, 187500.00, 8605.80, 20245.90, 7688.44, 150532.41, 9363.44, 0.000, 0.000, 0.000, 16:57:00.574
65, -66371.31, -65131.82, 121900.42, 115272.34, -33780.57, -72223.83, -80264.66, 136058.89, 88800.98, 40024.20, 187500.00, 8605.80, 20245.90, 7688.44, 150532.41, 9363.44, 0.000, 0.000, 0.000, 16:57:00.575
66, -66371.31, -65131.82, 121900.42, 115272.34, -33780.57, -72223.83, -80264.66, 136058.89, 88803.08, 40034.83, 187500.00, 8622.01, 20256.76, 7704.71, 150541.23, 9372.04, 0.000, 0.000, 0.000, 16:57:00.575
67, -66369.10, -65128.29, 121908.89, 115278.72, -33776.48, -72221.41, -80262.02, 136060.81, 88803.08, 40034.83, 187500.00, 8622.01, 20256.76, 7704.71, 150541.23, 9372.04, 0.000, 0.000, 0.000, 16:57:00.575
68, -66369.10, -65128.29, 121908.89, 115278.72, -33776.48, -72221.41, -80262.02, 136060.81, 88802.47, 40028.29, 187500.00, 8621.69, 20255.82, 7696.80, 150540.16, 9367.33, 0.012, 0.948, 0.026, 16:57:00.576
69, -66370.02, -65128.42, 121904.53, 115272.52, -33771.07, -72227.80, -80259.37, 136053.80, 88802.47, 40028.29, 187500.00, 8621.69, 20255.82, 7696.80, 150540.16, 9367.33, 0.000, 0.000, 0.000, 16:57:00.576
70, -66370.02, -65128.42, 121904.53, 115272.52, -33771.07, -72227.80, -80259.37, 136053.80, 88793.38, 40021.56, 187500.00, 8608.06, 20249.52, 7686.32, 150543.05, 9354.36, 0.000, 0.000, 0.000, 16:57:00.576
71, -66361.26, -65114.83, 121904.33, 115269.69, -33765.71, -72224.52, -80265.13, 136062.63, 88793.38, 40021.56, 187500.00, 8608.06, 20249.52, 7686.32, 150543.05, 9354.36, 0.000, 0.000, 0.000, 16:57:00.576
72, -66361.26, -65114.83, 121904.33, 115269.69, -33765.71, -72224.52, -80265.13, 136062.63, 88792.46, 40020.64, 187500.00, 8598.36, 20249.94, 7681.33, 150542.06, 9350.18, 0.000, 0.000, 0.000, 16:57:00.577
73, -66366.64, -65109.96, 121900.69, 115265.35, -33774.65, -72228.16, -80254.23, 136049.81, 88792.46, 40020.64, 187500.00, 8598.36, 20249.94, 7681.33, 150542.06, 9350.18, 0.000, 0.000, 0.000, 16:57:00.577
74, -66366.64, -65109.96, 121900.69, 115265.35, -33774.65, -72228.16, -80254.23, 136049.81, 88801.58, 40024.42, 187500.00, 8602.45, 20256.89, 7685.58, 150549.39, 9363.75, 0.000, 0.000, 0.000, 16:57:00.577
75, -66362.13, -65113.33, 121895.26, 115257.88, -33776.12, -72236.52, -80255.45, 136048.17, 88801.58, 40024.42, 187500.00, 8602.45, 20256.89, 7685.58, 150549.39, 9363.75, 0.000, 0.000, 0.000, 16:57:00.578
76, -66362.13, -65113.33, 121895.26, 115257.88, -33776.12, -72236.52, -80255.45, 136048.17, 88807.10, 40031.88, 187500.00, 8606.87, 20260.69, 7691.82, 150558.42, 9368.24, 0.000, 0.000, 0.000, 16:57:00.578
77, -66361.43, -65113.42, 121902.43, 115269.98, -33773.91, -72230.40, -80258.23, 136057.20, 88807.10, 40031.88, 187500.00, 8606.87, 20260.69, 7691.82, 150558.42, 9368.24, 0.000, 0.000, 0.000, 16:57:00.578
78, -66361.43, -65113.42, 121902.43, 115269.98, -33773.91, -72230.40, -80258.23, 136057.20, 88800.28, 40037.41, 187500.00, 8606.43, 20251.28, 7695.12, 150566.39, 9364.35, 0.012, 0.942, 0.030, 16:57:00.579
79, -66359.20, -65110.00, 121903.51, 115274.60, -33774.07, -72227.83, -80265.18, 136053.81, 88800.28, 40037.41, 187500.00, 8606.43, 20251.28, 7695.12, 150566.39, 9364.35, 0.000, 0.000, 0.000, 16:57:00.579
80, -66359.20, -65110.00, 121903.51, 115274.60, -33774.07, -72227.83, -80265.18, 136053.81, 88801.33, 40038.59, 187500.00, 8615.99, 20258.86, 7689.25, 150568.13, 9362.36, 0.000, 0.000, 0.000, 16:57:00.579
81, -66352.49, -65103.75, 121905.94, 115275.07, -33775.65, -72225.84, -80262.07, 136054.30, 88801.33, 40038.59, 187500.00, 8615.99, 20258.86, 7689.25, 150568.13, 9362.36, 0.000, 0.000, 0.000, 16:57:00.580
82, -66352.49, -65103.75, 121905.94, 115275.07, -33775.65, -72225.84, -80262.07, 136054.30, 88797.42, 40036.84, 187500.00, 8613.07, 20258.59, 7690.54, 150571.89, 9358.83, 0.000, 0.000, 0.000, 16:57:00.580
83, -66351.80, -65099.90, 121910.12, 115273.13, -33778.94, -72233.33, -80257.83, 136053.56, 88797.42, 40036.84, 187500.00, 8613.07, 20258.59, 7690.54, 150571.89, 9358.83, 0.000, 0.000, 0.000, 16:57:00.580
84, -66351.80, -65099.90, 121910.12, 115273.13, -33778.94, -72233.33, -80257.83, 136053.56, 88806.92, 40035.32, 187500.00, 8620.00, 20273.93, 7706.41, 150575.83, 9360.78, 0.000, 0.000, 0.000, 16:57:00.580
85, -66351.22, -65098.56, 121916.52, 115276.01, -33791.81, -72229.95, -80253.13, 136059.67, 88806.92, 40035.32, 187500.00, 8620.00, 20273.93, 7706.41, 150575.83, 9360.78, 0.000, 0.000, 0.000, 16:57:00.580
86, -66351.22, -65098.56, 121916.52, 115276.01, -33791.81, -72229.95, -80253.13, 136059.67, 88787.34, 40023.57, 187500.00, 8609.62, 20256.22, 7688.42, 150581.16, 9355.90, 0.000, 0.000, 0.000, 16:57:00.581
87, -66335.77, -65097.75, 121908.16, 115271.43, -33769.02, -72235.23, -80255.19, 136066.86, 88787.34, 40023.57, 187500.00, 8609.62, 20256.22, 7688.42, 150581.16, 9355.90, 0.000, 0.000, 0.000, 16:57:00.581
88, -66335.77, -65097.75, 121908.16, 115271.43, -33769.02, -72235.23, -80255.19, 136066.86, 88793.24, 40023.48, 187500.00, 8611.25, 20258.46, 7696.96, 150596.80, 9362.61, 0.014, 0.948, 0.026, 16:57:00.581
89, -66336.73, -65102.11, 121910.05, 115270.78, -33769.93, -72232.48, -80257.55, 136073.95, 88793.24, 40023.48, 187500.00, 8611.25, 20258.46, 7696.96, 150596.80, 9362.61, 0.000, 0.000, 0.000, 16:57:00.581
90, -66336.73, -65102.11, 121910.05, 115270.78, -33769.93, -72232.48, -80257.55, 136073.95, 88798.45, 40030.95, 187500.00, 8619.46, 20268.74, 7714.57, 150585.58, 9374.19, 0.000, 0.000, 0.000, 16:57:00.582
91, -66342.23, -65099.88, 121918.81, 115276.46, -33770.80, -72223.00, -80248.98, 136090.83, 88798.45, 40030.95, 187500.00, 8619.46, 20268.74, 7714.57, 150585.58, 9374.19, 0.000, 0.000, 0.000, 16:57:00.582
92, -66342.23, -65099.88, 121918.81, 115276.46, -33770.80, -72223.00, -80248.98, 136090.83, 88785.02, 40031.01, 187500.00, 8610.38, 20254.57, 7703.19, 150570.36, 9360.69, 0.000, 0.000, 0.000, 16:57:00.582
93, -66339.62, -65101.27, 121909.74, 115262.47, -33752.61, -72233.30, -80240.15, 136078.59, 88785.02, 40031.01, 187500.00, 8610.38, 20254.57, 7703.19, 150570.36, 9360.69, 0.000, 0.000, 0.000, 16:57:00.583
94, -66339.62, -65101.27, 121909.74, 115262.47, -33752.61, -72233.30, -80240.15, 136078.59, 88793.62, 40033.00, 187500.00, 8619.93, 20255.37, 7711.22, 150578.33, 9354.88, 0.000, 0.000, 0.000, 16:57:00.583
95, -66341.59, -65105.93, 121912.18, 115265.48, -33738.66, -72222.30, -80232.39, 136079.69, 88793.62, 40033.00, 187500.00, 8619.93, 20255.37, 7711.22, 150578.33, 9354.88, 0.000, 0.000, 0.000, 16:57:00.583
96, -66341.59, -65105.93, 121912.18, 115265.48, -33738.66, -72222.30, -80232.39, 136079.69, 88799.55, 40037.43, 187500.00, 8626.59, 20265.12, 7720.87, 150581.31, 9352.22, 0.000, 0.000, 0.000, 16:57:00.584
97, -66342.66, -65102.96, 121910.27, 115257.84, -33744.74, -72221.26, -80234.20, 136082.27, 88799.55, 40037.43, 187500.00, 8626.59, 20265.12, 7720.87, 150581.31, 9352.22, 0.000, 0.000, 0.000, 16:57:00.584
98, -66342.66, -65102.96, 121910.27, 115257.84, -33744.74, -72221.26, -80234.20, 136082.27, 88788.46, 40037.27, 187500.00, 8621.18, 20252.09, 7710.93, 150581.53, 9331.65, 0.012, 0.946, 0.028, 16:57:00.584
99, -66342.81, -65105.55, 121911.84, 115257.57, -33745.34, -72224.12, -80221.80, 136082.63, 88788.46, 40037.27, 187500.00, 8621.18, 20252.09, 7710.93, 150581.53, 9331.65, 0.000, 0.000, 0.000, 16:57:00.585
100, -66342.81, -65105.55, 121911.84, 115257.57, -33745.34, -72224.12, -80221.80, 136082.63, 88798.59, 40032.49, 187500.00, 8636.09, 20266.77, 7718.44, 150581.84, 9333.66, 0.000, 0.000, 0.000, 16:57:00.585
101, -66350.91, -65112.02, 121907.64, 115252.66, -33742.26, -72227.94, -80232.88, 136074.94, 88798.59, 40032.49, 187500.00, 8636.09, 20266.77, 7718.44, 150581.84, 9333.66, 0.000, 0.000, 0.000, 16:57:00.585
102, -66350.91, -65112.02, 121907.64, 115252.66, -33742.26, -72227.94, -80232.88, 136074.94, 88811.05, 40043.55, 187500.00, 8647.42, 20277.97, 7729.30, 150585.66, 9336.28, 0.000, 0.000, 0.000, 16:57:00.585
103, -66354.28, -65113.78, 121907.02, 115250.06, -33739.24, -72225.62, -80225.13, 136073.38, 88811.05, 40043.55, 187500.00, 8647.42, 20277.97, 7729.30, 150585.66, 9336.28, 0.000, 0.000, 0.000, 16:57:00.586
104, -66354.28, -65113.78, 121907.02, 115250.06, -33739.24, -72225.62, -80225.13, 136073.38, 88800.88, 40039.84, 187500.00, 8640.22, 20265.43, 7718.71, 150598.16, 9333.91, 0.000, 0.000, 0.000, 16:57:00.586
105, -66345.25, -65108.89, 121903.10, 115250.71, -33734.86, -72216.41, -80219.89, 136080.61, 88800.88, 40039.84, 187500.00, 8640.22, 20265.43, 7718.71, 150598.16, 9333.91, 0.000, 0.000, 0.000, 16:57:01.036
106, -66345.25, -65108.89, 121903.10, 115250.71, -33734.86, -72216.41, -80219.89, 136080.61, 88805.53, 40031.55, 187500.00, 8647.87, 20274.89, 7723.38, 150606.39, 9331.58, 0.000, 0.000, 0.000, 16:57:01.036
107, -66346.16, -65105.62, 121904.48, 115249.10, -33747.40, -72208.78, -80222.45, 136073.91, 88805.53, 40031.55, 187500.00, 8647.87, 20274.89, 7723.38, 150606.39, 9331.58, 0.000, 0.000, 0.000, 16:57:01.036
108, -66346.16, -65105.62, 121904.48, 115249.10, -33747.40, -72208.78, -80222.45, 136073.91, 88803.23, 40027.35, 187500.00, 8645.61, 20272.05, 7719.69, 150592.17, 9320.92, 0.010, 0.946, 0.026, 16:57:01.037
109, -66347.87, -65111.08, 121903.93, 115248.32, -33751.25, -72208.23, -80226.87, 136079.52, 88803.23, 40027.35, 187500.00, 8645.61, 20272.05, 7719.69, 150592.17, 9320.92, 0.000, 0.000, 0.000, 16:57:01.037
110, -66347.87, -65111.08, 121903.93, 115248.32, -33751.25, -72208.23, -80226.87, 136079.52, 88794.56, 40021.91, 187500.00, 8639.55, 20261.83, 7709.92, 150596.33, 9322.17, 0.000, 0.000, 0.000, 16:57:01.037
111, -66347.30, -65109.94, 121908.66, 115249.41, -33756.00, -72203.91, -80226.42, 136079.36, 88794.56, 40021.91, 187500.00, 8639.55, 20261.83, 7709.92, 150596.33, 9322.17, 0.000, 0.000, 0.000, 16:57:01.037
112, -66347.30, -65109.94, 121908.66, 115249.41, -33756.00, -72203.91, -80226.42, 136079.36, 88805.20, 40015.39, 187500.00, 8650.53, 20278.20, 7722.39, 150602.72, 9321.59, 0.000, 0.000, 0.000, 16:57:01.038
113, -66349.84, -65108.17, 121903.66, 115250.35, -33748.25, -72211.47, -80230.16, 136074.73, 88805.20, 40015.39, 187500.00, 8650.53, 20278.20, 7722.39, 150602.72, 9321.59, 0.000, 0.000, 0.000, 16:57:01.038
114, -66349.84, -65108.17, 121903.66, 115250.35, -33748.25, -72211.47, -80230.16, 136074.73, 88799.32, 40019.19, 187500.00, 8649.77, 20263.31, 7711.91, 150609.42, 9324.77, 0.000, 0.000, 0.000, 16:57:01.038
115, -66345.85, -65109.47, 121898.19, 115251.27, -33743.42, -72212.94, -80221.05, 136074.22, 88799.32, 40019.19, 187500.00, 8649.77, 20263.31, 7711.91, 150609.42, 9324.77, 0.000, 0.000, 0.000, 16:57:01.038
116, -66345.85, -65109.47, 121898.19, 115251.27, -33743.42, -72212.94, -80221.05, 136074.22, 88804.66, 40021.51, 187500.00, 8657.19, 20264.67, 7716.90, 150612.42, 9328.08, 0.000, 0.000, 0.000, 16:57:01.039
117, -66350.13, -65107.39, 121904.09, 115250.89, -33756.95, -72210.13, -80226.04, 136076.67, 88804.66, 40021.51, 187500.00, 8657.19, 20264.67, 7716.90, 150612.42, 9328.08, 0.000, 0.000, 0.000, 16:57:01.039
118, -66350.13, -65107.39, 121904.09, 115250.89, -33756.95, -72210.13, -80226.04, 136076.67, 88806.52, 40022.05, 187500.00, 8664.41, 20268.70, 7720.45, 150608.00, 9321.88, 0.014, 0.946, 0.024, 16:57:01.039
119, -66353.61, -65103.57, 121909.78, 115255.47, -33760.72, -72203.33, -80223.45, 136082.88, 88806.52, 40022.05, 187500.00, 8664.41, 20268.70, 7720.45, 150608.00, 9321.88, 0.000, 0.000, 0.000, 16:57:01.040
120, -66353.61, -65103.57, 121909.78, 115255.47, -33760.72, -72203.33, -80223.45, 136082.88, 88806.92, 40027.19, 187500.00, 8667.25, 20266.77, 7726.39, 150612.63, 9326.42, 0.000, 0.000, 0.000, 16:57:01.040
121, -66354.68, -65105.93, 121910.63, 115257.21, -33757.82, -72208.60, -80218.73, 136072.47, 88806.92, 40027.19, 187500.00, 8667.25, 20266.77, 7726.39, 150612.63, 9326.42, 0.000, 0.000, 0.000, 16:57:01.040
122, -66354.68, -65105.93, 121910.63, 115257.21, -33757.82, -72208.60, -80218.73, 136072.47, 88806.16, 40026.81, 187500.00, 8665.61, 20268.16, 7723.60, 150618.44, 9322.51, 0.000, 0.000, 0.000, 16:57:01.041
123, -66359.24, -65104.50, 121919.53, 115263.77, -33749.34, -72212.47, -80206.88, 136071.00, 88806.16, 40026.81, 187500.00, 8665.61, 20268.16, 7723.60, 150618.44, 9322.51, 0.000, 0.000, 0.000, 16:57:01.041
124, -66359.24, -65104.50, 121919.53, 115263.77, -33749.34, -72212.47, -80206.88, 136071.00, 88802.12, 40018.67, 187500.00, 8669.64, 20266.10, 7720.72, 150618.63, 9318.22, 0.000, 0.000, 0.000, 16:57:01.041
125, -66354.26, -65101.06, 121922.33, 115262.71, -33738.08, -72209.30, -80212.43, 136072.61, 88802.12, 40018.67, 187500.00, 8669.64, 20266.10, 7720.72, 150618.63, 9318.22, 0.000, 0.000, 0.000, 16:57:01.041
126, -66354.26, -65101.06, 121922.33, 115262.71, -33738.08, -72209.30, -80212.43, 136072.61, 88798.65, 40015.61, 187500.00, 8665.84, 20262.06, 7714.66, 150621.25, 9320.34, 0.000, 0.000, 0.000, 16:57:01.042
127, -66352.78, -65101.11, 121928.07, 115265.17, -33742.77, -72209.81, -80210.66, 136080.13, 88798.65, 40015.61, 187500.00, 8665.84, 20262.06, 7714.66, 150621.25, 9320.34, 0.000, 0.000, 0.000, 16:57:01.042
128, -66352.78, -65101.11, 121928.07, 115265.17, -33742.77, -72209.81, -80210.66, 136080.13, 88797.04, 40009.55, 187500.00, 8664.41, 20262.77, 7710.06, 150616.33, 9320.48, 0.012, 0.950, 0.024, 16:57:01.042
129, -66356.38, -65100.79, 121928.88, 115260.19, -33738.53, -72212.34, -80202.19, 136075.14, 88797.04, 40009.55, 187500.00, 8664.41, 20262.77, 7710.06, 150616.33, 9320.48, 0.000, 0.000, 0.000, 16:57:01.042
130, -66356.38, -65100.79, 121928.88, 115260.19, -33738.53, -72212.34, -80202.19, 136075.14, 88806.48, 40008.95, 187500.00, 8664.81, 20272.88, 7717.83, 150614.31, 9318.24, 0.000, 0.000, 0.000, 16:57:01.042
131, -66363.94, -65102.83, 121924.16, 115254.89, -33735.69, -72215.42, -80219.45, 136073.08, 88806.48, 40008.95, 187500.00, 8664.81, 20272.88, 7717.83, 150614.31, 9318.24, 0.000, 0.000, 0.000, 16:57:01.043
132, -66363.94, -65102.83, 121924.16, 115254.89, -33735.69, -72215.42, -80219.45, 136073.08, 88808.55, 40005.31, 187500.00, 8659.92, 20271.20, 7709.09, 150621.00, 9308.74, 0.000, 0.000, 0.000, 16:57:01.043
133, -66364.85, -65107.16, 121921.23, 115255.00, -33745.72, -72214.70, -80232.30, 136065.17, 88808.55, 40005.31, 187500.00, 8659.92, 20271.20, 7709.09, 150621.00, 9308.74, 0.000, 0.000, 0.000, 16:57:01.043
134, -66364.85, -65107.16, 121921.23, 115255.00, -33745.72, -72214.70, -80232.30, 136065.17, 88810.70, 40007.72, 187500.00, 8672.45, 20275.80, 7718.66, 150618.31, 9310.28, 0.000, 0.000, 0.000, 16:57:01.044
135, -66366.35, -65102.61, 121917.09, 115255.45, -33742.04, -72214.39, -80213.14, 136075.83, 88810.70, 40007.72, 187500.00, 8672.45, 20275.80, 7718.66, 150618.31, 9310.28, 0.000, 0.000, 0.000, 16:57:01.044
136, -66366.35, -65102.61, 121917.09, 115255.45, -33742.04, -72214.39, -80213.14, 136075.83, 88815.64, 40015.88, 187500.00, 8675.94, 20283.96, 7723.29, 150628.38, 9319.96, 0.000, 0.000, 0.000, 16:57:01.044
137, -66372.88, -65097.62, 121919.89, 115263.47, -33732.94, -72208.11, -80202.21, 136085.00, 88815.64, 40015.88, 187500.00, 8675.94, 20283.96, 7723.29, 150628.38, 9319.96, 0.014, 0.950, 0.024, 16:57:01.044
138, -66372.88, -65097.62, 121919.89, 115263.47, -33732.94, -72208.11, -80202.21, 136085.00, 88820.63, 40024.82, 187500.00, 8683.45, 20291.83, 7733.19, 150628.48, 9321.15, 0.000, 0.000, 0.000, 16:57:01.045
139, -66382.53, -65092.88, 121917.70, 115264.70, -33745.41, -72204.98, -80212.07, 136084.70, 88820.63, 40024.82, 187500.00, 8683.45, 20291.83, 7733.19, 150628.48, 9321.15, 0.000, 0.000, 0.000, 16:57:01.045
140, -66382.53, -65092.88, 121917.70, 115264.70, -33745.41, -72204.98, -80212.07, 136084.70, 88817.96, 40034.01, 187500.00, 8681.75, 20280.43, 7728.23, 150624.16, 9319.47, 0.000, 0.000, 0.000, 16:57:01.045
141, -66374.89, -65093.13, 121911.57, 115257.03, -33738.86, -72213.70, -80218.09, 136076.25, 88817.96, 40034.01, 187500.00, 8681.75, 20280.43, 7728.23, 150624.16, 9319.47, 0.000, 0.000, 0.000, 16:57:01.045
142, -66374.89, -65093.13, 121911.57, 115257.03, -33738.86, -72213.70, -80218.09, 136076.25, 88812.38, 40043.17, 187500.00, 8676.75, 20273.41, 7717.57, 150642.34, 9319.11, 0.000, 0.000, 0.000, 16:57:01.046
143, -66370.24, -65090.40, 121911.98, 115262.65, -33743.87, -72211.27, -80230.40, 136079.88, 88812.38, 40043.17, 187500.00, 8676.75, 20273.41, 7717.57, 150642.34, 9319.11, 0.000, 0.000, 0.000, 16:57:01.046
144, -66370.24, -65090.40, 121911.98, 115262.65, -33743.87, -72211.27, -80230.40, 136079.88, 88823.86, 40049.90, 187500.00, 8692.55, 20290.51, 7736.41, 150634.56, 9333.42, 0.000, 0.000, 0.000, 16:57:01.046
145, -66371.73, -65092.52, 121913.54, 115262.53, -33755.45, -72209.77, -80237.71, 136080.91, 88823.86, 40049.90, 187500.00, 8692.55, 20290.51, 7736.41, 150634.56, 9333.42, 0.000, 0.000, 0.000, 16:57:01.047
146, -66371.73, -65092.52, 121913.54, 115262.53, -33755.45, -72209.77, -80237.71, 136080.91, 88819.95, 40047.42, 187500.00, 8694.25, 20281.55, 7728.12, 150636.47, 9335.97, 0.000, 0.000, 0.000, 16:57:01.047
147, -66363.11, -65092.23, 121908.13, 115259.96, -33749.68, -72213.32, -80208.34, 136071.36, 88819.95, 40047.42, 187500.00, 8694.25, 20281.55, 7728.12, 150636.47, 9335.97, 0.014, 0.946, 0.022, 16:57:01.048
148, -66363.11, -65092.23, 121908.13, 115259.96, -33749.68, -72213.32, -80208.34, 136071.36, 88825.78, 40041.88, 187500.00, 8694.00, 20287.45, 7734.22, 150653.14, 9332.46, 0.000, 0.000, 0.000, 16:57:01.048
149, -66367.83, -65094.51, 121913.38, 115266.94, -33758.78, -72204.23, -80216.50, 136084.03, 88825.78, 40041.88, 187500.00, 8694.00, 20287.45, 7734.22, 150653.14, 9332.46, 0.000, 0.000, 0.000, 16:57:01.048
150, -66367.83, -65094.51, 121913.38, 115266.94, -33758.78, -72204.23, -80216.50, 136084.03, 88825.85, 40037.81, 187500.00, 8694.90, 20289.42, 7732.61, 150646.38, 9339.21, 0.000, 0.000, 0.000, 16:57:01.048
151, -66367.06, -65100.73, 121903.93, 115251.63, -33747.60, -72222.26, -80216.05, 136066.67, 88825.85, 40037.81, 187500.00, 8694.90, 20289.42, 7732.61, 150646.38, 9339.21, 0.000, 0.000, 0.000, 16:57:01.049
152, -66367.06, -65100.73, 121903.93, 115251.63, -33747.60, -72222.26, -80216.05, 136066.67, 88811.88, 40036.20, 187500.00, 8676.81, 20271.76, 7708.78, 150649.83, 9329.73, 0.000, 0.000, 0.000, 16:57:01.049
153, -66354.64, -65092.30, 121910.32, 115262.53, -33738.97, -72214.73, -80229.73, 136068.19, 88811.88, 40036.20, 187500.00, 8676.81, 20271.76, 7708.78, 150649.83, 9329.73, 0.000, 0.000, 0.000, 16:57:01.050
154, -66354.64, -65092.30, 121910.32, 115262.53, -33738.97, -72214.73, -80229.73, 136068.19, 88825.88, 40048.04, 187500.00, 8696.71, 20296.26, 7733.52, 150647.48, 9336.41, 0.000, 0.000, 0.000, 16:57:01.050
155, -66363.04, -65085.06, 121916.36, 115270.71, -33752.41, -72217.41, -80222.46, 136066.91, 88825.88, 40048.04, 187500.00, 8696.71, 20296.26, 7733.52, 150647.48, 9336.41, 0.000, 0.000, 0.000, 16:57:01.050
156, -66363.04, -65085.06, 121916.36, 115270.71, -33752.41, -72217.41, -80222.46, 136066.91, 88821.85, 40046.75, 187500.00, 8695.43, 20287.18, 7721.72, 150644.03, 9331.61, 0.000, 0.000, 0.000, 16:57:01.051
157, -66362.53, -65088.86, 121917.16, 115267.56, -33746.21, -72226.46, -80228.12, 136063.16, 88821.85, 40046.75, 187500.00, 8695.43, 20287.18, 7721.72, 150644.03, 9331.61, 0.016, 0.952, 0.026, 16:57:01.051
158, -66362.53, -65088.86, 121917.16, 115267.56, -33746.21, -72226.46, -80228.12, 136063.16, 88822.30, 40041.23, 187500.00, 8693.38, 20287.96, 7720.47, 150646.64, 9325.24, 0.000, 0.000, 0.000, 16:57:01.051
159, -66359.87, -65090.67, 121922.13, 115270.71, -33743.54, -72224.16, -80223.25, 136066.39, 88822.30, 40041.23, 187500.00, 8693.38, 20287.96, 7720.47, 150646.64, 9325.24, 0.000, 0.000, 0.000, 16:57:01.051
160, -66359.87, -65090.67, 121922.13, 115270.71, -33743.54, -72224.16, -80223.25, 136066.39, 88823.28, 40042.41, 187500.00, 8689.64, 20290.24, 7720.49, 150636.53, 9319.98, 0.000, 0.000, 0.000, 16:57:01.052
161, -66357.50, -65098.00, 121920.55, 115266.65, -33734.13, -72222.15, -80223.07, 136073.06, 88823.28, 40042.41, 187500.00, 8689.64, 20290.24, 7720.49, 150636.53, 9319.98, 0.000, 0.000, 0.000, 16:57:01.052
162, -66357.50, -65098.00, 121920.55, 115266.65, -33734.13, -72222.15, -80223.07, 136073.06, 88816.04, 40044.02, 187500.00, 8680.84, 20279.58, 7705.07, 150647.42, 9323.25, 0.000, 0.000, 0.000, 16:57:01.052
163, -66353.97, -65096.05, 121919.40, 115271.02, -33725.05, -72220.38, -80214.93, 136069.77, 88816.04, 40044.02, 187500.00, 8680.84, 20279.58, 7705.07, 150647.42, 9323.25, 0.000, 0.000, 0.000, 16:57:01.052
164, -66353.97, -65096.05, 121919.40, 115271.02, -33725.05, -72220.38, -80214.93, 136069.77, 88815.86, 40048.58, 187500.00, 8689.17, 20276.83, 7710.23, 150654.47, 9327.92, 0.000, 0.000, 0.000, 16:57:01.053
165, -66354.75, -65094.87, 121916.96, 115270.52, -33733.88, -72224.09, -80231.38, 136067.89, 88815.86, 40048.58, 187500.00, 8689.17, 20276.83, 7710.23, 150654.47, 9327.92, 0.000, 0.000, 0.000, 16:57:01.053
166, -66354.75, -65094.87, 121916.96, 115270.52, -33733.88, -72224.09, -80231.38, 136067.89, 88820.66, 40052.63, 187500.00, 8690.29, 20280.63, 7714.35, 150653.84, 9323.63, 0.000, 0.000, 0.000, 16:57:01.053
167, -66353.19, -65099.77, 121918.19, 115271.12, -33739.62, -72221.91, -80226.02, 136070.13, 88820.66, 40052.63, 187500.00, 8690.29, 20280.63, 7714.35, 150653.84, 9323.63, 0.018, 0.952, 0.032, 16:57:01.053
168, -66353.19, -65099.77, 121918.19, 115271.12, -33739.62, -72221.91, -80226.02, 136070.13, 88823.46, 40051.33, 187500.00, 8691.56, 20295.32, 7724.90, 150650.34, 9325.86, 0.000, 0.000, 0.000, 16:57:01.054
169, -66352.07, -65097.53, 121922.59, 115272.52, -33736.11, -72215.63, -80215.76, 136074.42, 88823.46, 40051.33, 187500.00, 8691.56, 20295.32, 7724.90, 150650.34, 9325.86, 0.000, 0.000, 0.000, 16:57:01.054
170, -66352.07, -65097.53, 121922.59, 115272.52, -33736.11, -72215.63, -80215.76, 136074.42, 88830.84, 40051.00, 187500.00, 8697.20, 20304.73, 7731.89, 150633.20, 9321.53, 0.000, 0.000, 0.000, 16:57:01.054
171, -66358.30, -65101.40, 121914.73, 115272.88, -33739.64, -72218.39, -80231.95, 136063.36, 88830.84, 40051.00, 187500.00, 8697.20, 20304.73, 7731.89, 150633.20, 9321.53, 0.000, 0.000, 0.000, 16:57:01.054
172, -66358.30, -65101.40, 121914.73, 115272.88, -33739.64, -72218.39, -80231.95, 136063.36, 88824.69, 40055.64, 187500.00, 8693.80, 20293.13, 7729.23, 150629.88, 9318.49, 0.000, 0.000, 0.000, 16:57:01.055
173, -66350.84, -65099.88, 121917.72, 115278.78, -33732.87, -72215.45, -80231.36, 136066.50, 88824.69, 40055.64, 187500.00, 8693.80, 20293.13, 7729.23, 150629.88, 9318.49, 0.000, 0.000, 0.000, 16:57:01.055
174, -66350.84, -65099.88, 121917.72, 115278.78, -33732.87, -72215.45, -80231.36, 136066.50, 88828.29, 40062.66, 187500.00, 8693.91, 20297.42, 7737.39, 150631.11, 9323.99, 0.000, 0.000, 0.000, 16:57:01.055
175, -66354.08, -65103.48, 121918.97, 115278.47, -33717.38, -72213.63, -80219.34, 136071.27, 88828.29, 40062.66, 187500.00, 8693.91, 20297.42, 7737.39, 150631.11, 9323.99, 0.000, 0.000, 0.000, 16:57:01.055
176, -66354.08, -65103.48, 121918.97, 115278.47, -33717.38, -72213.63, -80219.34, 136071.27, 88824.11, 40065.05, 187500.00, 8686.58, 20290.44, 7728.27, 150639.94, 9326.15, 0.000, 0.000, 0.000, 16:57:01.056
177, -66360.52, -65104.39, 121917.18, 115278.16, -33722.05, -72217.37, -80225.52, 136062.13, 88824.11, 40065.05, 187500.00, 8686.58, 20290.44, 7728.27, 150639.94, 9326.15, 0.014, 0.954, 0.034, 16:57:01.056
178, -66360.52, -65104.39, 121917.18, 115278.16, -33722.05, -72217.37, -80225.52, 136062.13, 88833.79, 40066.93, 187500.00, 8687.05, 20300.21, 7737.53, 150643.91, 9323.78, 0.000, 0.000, 0.000, 16:57:01.056
179, -66357.99, -65103.54, 121917.70, 115280.68, -33717.98, -72209.97, -80219.52, 136073.77, 88833.79, 40066.93, 187500.00, 8687.05, 20300.21, 7737.53, 150643.91, 9323.78, 0.000, 0.000, 0.000, 16:57:01.057
180, -66357.99, -65103.54, 121917.70, 115280.68, -33717.98, -72209.97, -80219.52, 136073.77, 88821.16, 40061.86, 187500.00, 8684.21, 20284.12, 7728.25, 150647.02, 9321.37, 0.000, 0.000, 0.000, 16:57:01.057
181, -66354.82, -65099.03, 121912.11, 115276.75, -33711.55, -72213.88, -80222.33, 136065.59, 88821.16, 40061.86, 187500.00, 8684.21, 20284.12, 7728.25, 150647.02, 9321.37, 0.000, 0.000, 0.000, 16:57:01.057
182, -66354.82, -65099.03, 121912.11, 115276.75, -33711.55, -72213.88, -80222.33, 136065.59, 88828.65, 40060.96, 187500.00, 8686.13, 20289.15, 7730.57, 150655.61, 9316.14, 0.000, 0.000, 0.000, 16:57:01.057
183, -66359.31, -65100.04, 121914.13, 115277.51, -33731.06, -72213.50, -80229.30, 136066.34, 88828.65, 40060.96, 187500.00, 8686.13, 20289.15, 7730.57, 150655.61, 9316.14, 0.000, 0.000, 0.000, 16:57:01.059
184, -66359.31, -65100.04, 121914.13, 115277.51, -33731.06, -72213.50, -80229.30, 136066.34, 88829.47, 40058.21, 187500.00, 8694.36, 20295.41, 7729.72, 150665.95, 9321.08, 0.000, 0.000, 0.000, 16:57:01.059
185, -66351.46, -65099.34, 121913.96, 115278.60, -33737.05, -72213.95, -80228.19, 136066.78, 88829.47, 40058.21, 187500.00, 8694.36, 20295.41, 7729.72, 150665.95, 9321.08, 0.000, 0.000, 0.000, 16:57:01.059
186, -66351.46, -65099.34, 121913.96, 115278.60, -33737.05, -72213.95, -80228.19, 136066.78, 88832.27, 40062.26, 187500.00, 8699.01, 20294.58, 7733.52, 150670.17, 9324.90, 0.000, 0.000, 0.000, 16:57:01.059
187, -66357.01, -65098.07, 121916.00, 115284.98, -33748.07, -72211.87, -80222.35, 136079.61, 88832.27, 40062.26, 187500.00, 8699.01, 20294.58, 7733.52, 150670.17, 9324.90, 0.018, 0.952, 0.036, 16:57:01.060
188, -66357.01, -65098.07, 121916.00, 115284.98, -33748.07, -72211.87, -80222.35, 136079.61, 88830.41, 40065.66, 187500.00, 8705.69, 20289.35, 7730.17, 150664.52, 9327.87, 0.000, 0.000, 0.000, 16:57:01.060
189, -66357.72, -65097.87, 121914.34, 115283.92, -33759.31, -72214.95, -80226.84, 136075.98, 88830.41, 40065.66, 187500.00, 8705.69, 20289.35, 7730.17, 150664.52, 9327.87, 0.000, 0.000, 0.000, 16:57:01.060
190, -66357.72, -65097.87, 121914.34, 115283.92, -33759.31, -72214.95, -80226.84, 136075.98, 88825.49, 40065.23, 187500.00, 8701.94, 20280.54, 7718.12, 150661.61, 9313.30, 0.000, 0.000, 0.000, 16:57:01.060
191, -66357.19, -65103.90, 121914.52, 115275.84, -33765.86, -72220.32, -80236.44, 136071.20, 88825.49, 40065.23, 187500.00, 8701.94, 20280.54, 7718.12, 150661.61, 9313.30, 0.000, 0.000, 0.000, 16:57:01.060
192, -66357.19, -65103.90, 121914.52, 115275.84, -33765.86, -72220.32, -80236.44, 136071.20, 88838.55, 40068.03, 187500.00, 8708.17, 20288.90, 7720.31, 150677.75, 9313.46, 0.000, 0.000, 0.000, 16:57:01.060
193, -66364.20, -65111.01, 121906.08, 115268.39, -33769.24, -72225.79, -80230.17, 136065.48, 88838.55, 40068.03, 187500.00, 8708.17, 20288.90, 7720.31, 150677.75, 9313.46, 0.000, 0.000, 0.000, 16:57:01.061
194, -66364.20, -65111.01, 121906.08, 115268.39, -33769.24, -72225.79, -80230.17, 136065.48, 88838.41, 40068.68, 187500.00, 8706.41, 20290.27, 7720.56, 150687.75, 9327.09, 0.000, 0.000, 0.000, 16:57:01.061
195, -66358.82, -65108.84, 121907.55, 115271.63, -33750.02, -72226.98, -80230.87, 136071.09, 88838.41, 40068.68, 187500.00, 8706.41, 20290.27, 7720.56, 150687.75, 9327.09, 0.000, 0.000, 0.000, 16:57:01.061
196, -66358.82, -65108.84, 121907.55, 115271.63, -33750.02, -72226.98, -80230.87, 136071.09, 88838.57, 40065.66, 187500.00, 8702.45, 20295.61, 7720.85, 150701.48, 9326.24, 0.000, 0.000, 0.000, 16:57:01.061
197, -66359.51, -65113.58, 121910.77, 115278.91, -33744.98, -72218.35, -80231.77, 136073.84, 88838.57, 40065.66, 187500.00, 8702.45, 20295.61, 7720.85, 150701.48, 9326.24, 0.016, 0.948, 0.042, 16:57:01.061
198, -66359.51, -65113.58, 121910.77, 115278.91, -33744.98, -72218.35, -80231.77, 136073.84, 88847.38, 40064.25, 187500.00, 8709.04, 20303.16, 7734.02, 150707.28, 9330.89, 0.000, 0.000, 0.000, 16:57:01.061
199, -66371.18, -65114.63, 121916.36, 115285.96, -33757.88, -72212.20, -80215.55, 136073.64, 88847.38, 40064.25, 187500.00, 8709.04, 20303.16, 7734.02, 150707.28, 9330.89, 0.000, 0.000, 0.000, 16:57:01.062
200, -66371.18, -65114.63, 121916.36, 115285.96, -33757.88, -72212.20, -80215.55, 136073.64, 88842.70, 40064.74, 187500.00, 8713.58, 20298.94, 7733.35, 150701.48, 9335.63, 0.000, 0.000, 0.000, 16:57:01.062
201, -66369.95, -65109.20, 121919.95, 115285.94, -33746.68, -72218.35, -80208.74, 136065.97, 88842.70, 40064.74, 187500.00, 8713.58, 20298.94, 7733.35, 150701.48, 9335.63, 0.000, 0.000, 0.000, 16:57:01.062
202, -66369.95, -65109.20, 121919.95, 115285.94, -33746.68, -72218.35, -80208.74, 136065.97, 88842.52, 40066.91, 187500.00, 8709.94, 20301.87, 7730.53, 150695.39, 9330.33, 0.000, 0.000, 0.000, 16:57:01.062
203, -66374.13, -65108.86, 121921.63, 115289.65, -33753.82, -72216.92, -80228.45, 136074.64, 88842.52, 40066.91, 187500.00, 8709.94, 20301.87, 7730.53, 150695.39, 9330.33, 0.000, 0.000, 0.000, 16:57:01.063
204, -66374.13, -65108.86, 121921.63, 115289.65, -33753.82, -72216.92, -80228.45, 136074.64, 88839.46, 40069.77, 187500.00, 8711.57, 20311.46, 7735.49, 150687.08, 9339.61, 0.000, 0.000, 0.000, 16:57:01.063
205, -66367.47, -65101.73, 121930.41, 115299.73, -33747.47, -72210.37, -80225.62, 136070.47, 88839.46, 40069.77, 187500.00, 8711.57, 20311.46, 7735.49, 150687.08, 9339.61, 0.000, 0.000, 0.000, 16:57:01.063
206, -66367.47, -65101.73, 121930.41, 115299.73, -33747.47, -72210.37, -80225.62, 136070.47, 88836.18, 40065.75, 187500.00, 8702.05, 20305.40, 7725.79, 150693.83, 9330.80, 0.000, 0.000, 0.000, 16:57:01.063
207, -66364.34, -65107.81, 121929.45, 115296.58, -33751.04, -72216.49, -80223.25, 136068.56, 88836.18, 40065.75, 187500.00, 8702.05, 20305.40, 7725.79, 150693.83, 9330.80, 0.010, 0.946, 0.046, 16:57:01.064
208, -66364.34, -65107.81, 121929.45, 115296.58, -33751.04, -72216.49, -80223.25, 136068.56, 88838.46, 40068.70, 187500.00, 8703.86, 20307.43, 7728.83, 150688.06, 9342.22, 0.000, 0.000, 0.000, 16:57:01.064
209, -66364.02, -65104.75, 121934.26, 115299.16, -33756.99, -72214.84, -80229.21, 136073.23, 88838.46, 40068.70, 187500.00, 8703.86, 20307.43, 7728.83, 150688.06, 9342.22, 0.000, 0.000, 0.000, 16:57:01.064
210, -66364.02, -65104.75, 121934.26, 115299.16, -33756.99, -72214.84, -80229.21, 136073.23, 88849.21, 40076.05, 187500.00, 8707.10, 20316.97, 7738.93, 150691.55, 9347.50, 0.000, 0.000, 0.000, 16:57:01.064
211, -66368.79, -65110.81, 121926.05, 115292.02, -33764.43, -72223.94, -80237.02, 136063.78, 88849.21, 40076.05, 187500.00, 8707.10, 20316.97, 7738.93, 150691.55, 9347.50, 0.000, 0.000, 0.000, 16:57:01.065
212, -66368.79, -65110.81, 121926.05, 115292.02, -33764.43, -72223.94, -80237.02, 136063.78, 88842.48, 40066.24, 187500.00, 8699.41, 20313.38, 7723.60, 150691.20, 9344.01, 0.000, 0.000, 0.000, 16:57:01.065
213, -66364.38, -65113.89, 121926.03, 115291.03, -33760.14, -72223.85, -80223.90, 136065.75, 88842.48, 40066.24, 187500.00, 8699.41, 20313.38, 7723.60, 150691.20, 9344.01, 0.000, 0.000, 0.000, 16:57:01.065
214, -66364.38, -65113.89, 121926.03, 115291.03, -33760.14, -72223.85, -80223.90, 136065.75, 88836.60, 40058.59, 187500.00, 8694.36, 20301.06, 7705.72, 150692.17, 9337.51, 0.000, 0.000, 0.000, 16:57:01.066
215, -66367.34, -65121.40, 121923.84, 115286.07, -33763.09, -72226.53, -80225.88, 136067.00, 88836.60, 40058.59, 187500.00, 8694.36, 20301.06, 7705.72, 150692.17, 9337.51, 0.000, 0.000, 0.000, 16:57:01.066
216, -66367.34, -65121.40, 121923.84, 115286.07, -33763.09, -72226.53, -80225.88, 136067.00, 88856.97, 40061.16, 187500.00, 8709.67, 20324.22, 7732.21, 150690.20, 9344.35, 0.000, 0.000, 0.000, 16:57:01.066
217, -66379.23, -65118.63, 121923.45, 115287.50, -33774.11, -72223.52, -80225.59, 136070.23, 88856.97, 40061.16, 187500.00, 8709.67, 20324.22, 7732.21, 150690.20, 9344.35, 0.008, 0.954, 0.048, 16:57:01.067
218, -66379.23, -65118.63, 121923.45, 115287.50, -33774.11, -72223.52, -80225.59, 136070.23, 88847.84, 40058.06, 187500.00, 8704.53, 20305.44, 7713.83, 150691.41, 9340.57, 0.000, 0.000, 0.000, 16:57:01.067
219, -66383.05, -65115.86, 121918.15, 115282.98, -33763.88, -72220.79, -80242.00, 136072.45, 88847.84, 40058.06, 187500.00, 8704.53, 20305.44, 7713.83, 150691.41, 9340.57, 0.000, 0.000, 0.000, 16:57:01.067
220, -66383.05, -65115.86, 121918.15, 115282.98, -33763.88, -72220.79, -80242.00, 136072.45, 88850.15, 40064.23, 187500.00, 8711.39, 20312.21, 7721.34, 150704.70, 9345.00, 0.000, 0.000, 0.000, 16:57:01.068
221, -66380.61, -65105.71, 121923.02, 115290.14, -33758.96, -72216.18, -80227.23, 136071.81, 88850.15, 40064.23, 187500.00, 8711.39, 20312.21, 7721.34, 150704.70, 9345.00, 0.000, 0.000, 0.000, 16:57:01.068
222, -66380.61, -65105.71, 121923.02, 115290.14, -33758.96, -72216.18, -80227.23, 136071.81, 88845.09, 40060.89, 187500.00, 8711.66, 20309.38, 7721.88, 150706.83, 9340.97, 0.000, 0.000, 0.000, 16:57:01.068
223, -66374.04, -65106.16, 121924.52, 115290.38, -33752.92, -72214.77, -80224.92, 136074.05, 88845.09, 40060.89, 187500.00, 8711.66, 20309.38, 7721.88, 150706.83, 9340.97, 0.000, 0.000, 0.000, 16:57:01.068
224, -66374.04, -65106.16, 121924.52, 115290.38, -33752.92, -72214.77, -80224.92, 136074.05, 88846.46, 40053.92, 187500.00, 8703.41, 20308.71, 7720.83, 150720.06, 9339.56, 0.000, 0.000, 0.000, 16:57:01.069
225, -66382.16, -65108.93, 121922.05, 115292.91, -33759.98, -72217.43, -80231.09, 136065.86, 88846.46, 40053.92, 187500.00, 8703.41, 20308.71, 7720.83, 150720.06, 9339.56, 0.000, 0.000, 0.000, 16:57:01.519
226, -66382.16, -65108.93, 121922.05, 115292.91, -33759.98, -72217.43, -80231.09, 136065.86, 88847.13, 40060.05, 187500.00, 8696.46, 20301.48, 7713.32, 150730.08, 9343.81, 0.010, 0.944, 0.048, 16:57:01.519
227, -66381.44, -65107.48, 121921.77, 115288.88, -33753.82, -72222.38, -80225.15, 136059.78, 88847.13, 40060.05, 187500.00, 8696.46, 20301.48, 7713.32, 150730.08, 9343.81, 0.000, 0.000, 0.000, 16:57:01.519
228, -66381.44, -65107.48, 121921.77, 115288.88, -33753.82, -72222.38, -80225.15, 136059.78, 88846.39, 40067.13, 187500.00, 8699.14, 20301.42, 7714.53, 150735.88, 9340.03, 0.000, 0.000, 0.000, 16:57:01.519
229, -66383.12, -65102.56, 121924.94, 115301.00, -33756.52, -72214.26, -80233.04, 136076.45, 88846.39, 40067.13, 187500.00, 8699.14, 20301.42, 7714.53, 150735.88, 9340.03, 0.000, 0.000, 0.000, 16:57:01.519
230, -66383.12, -65102.56, 121924.94, 115301.00, -33756.52, -72214.26, -80233.04, 136076.45, 88855.49, 40069.17, 187500.00, 8709.69, 20313.85, 7724.65, 150724.88, 9357.36, 0.000, 0.000, 0.000, 16:57:01.520
231, -66389.33, -65099.03, 121925.68, 115304.30, -33768.72, -72212.38, -80231.43, 136076.83, 88855.49, 40069.17, 187500.00, 8709.69, 20313.85, 7724.65, 150724.88, 9357.36, 0.000, 0.000, 0.000, 16:57:01.520
232, -66389.33, -65099.03, 121925.68, 115304.30, -33768.72, -72212.38, -80231.43, 136076.83, 88850.95, 40079.29, 187500.00, 8718.43, 20314.58, 7732.59, 150713.92, 9362.79, 0.000, 0.000, 0.000, 16:57:01.520
233, -66380.92, -65091.03, 121931.49, 115310.66, -33762.91, -72207.24, -80216.98, 136080.36, 88850.95, 40079.29, 187500.00, 8718.43, 20314.58, 7732.59, 150713.92, 9362.79, 0.000, 0.000, 0.000, 16:57:01.520
234, -66380.92, -65091.03, 121931.49, 115310.66, -33762.91, -72207.24, -80216.98, 136080.36, 88849.95, 40084.16, 187500.00, 8722.92, 20312.68, 7734.49, 150720.48, 9357.76, 0.000, 0.000, 0.000, 16:57:01.520
235, -66381.13, -65093.24, 121927.42, 115308.04, -33762.42, -72208.67, -80228.43, 136077.61, 88849.95, 40084.16, 187500.00, 8722.92, 20312.68, 7734.49, 150720.48, 9357.76, 0.000, 0.000, 0.000, 16:57:01.520
236, -66381.13, -65093.24, 121927.42, 115308.04, -33762.42, -72208.67, -80228.43, 136077.61, 88856.30, 40085.77, 187500.00, 8721.27, 20313.18, 7735.00, 150727.19, 9352.04, 0.008, 0.946, 0.050, 16:57:01.520
237, -66386.00, -65105.36, 121914.84, 115297.31, -33757.30, -72214.95, -80224.38, 136070.42, 88856.30, 40085.77, 187500.00, 8721.27, 20313.18, 7735.00, 150727.19, 9352.04, 0.000, 0.000, 0.000, 16:57:01.521
238, -66386.00, -65105.36, 121914.84, 115297.31, -33757.30, -72214.95, -80224.38, 136070.42, 88865.98, 40079.63, 187500.00, 8719.04, 20315.57, 7737.55, 150726.70, 9346.96, 0.000, 0.000, 0.000, 16:57:01.521
239, -66390.85, -65119.14, 121914.37, 115298.99, -33765.68, -72209.14, -80228.43, 136071.73, 88865.98, 40079.63, 187500.00, 8719.04, 20315.57, 7737.55, 150726.70, 9346.96, 0.000, 0.000, 0.000, 16:57:01.521
240, -66390.85, -65119.14, 121914.37, 115298.99, -33765.68, -72209.14, -80228.43, 136071.73, 88869.84, 40079.20, 187500.00, 8727.39, 20330.83, 7749.37, 150723.17, 9368.00, 0.000, 0.000, 0.000, 16:57:01.521
241, -66396.48, -65115.01, 121923.55, 115312.02, -33769.48, -72198.21, -80228.55, 136085.16, 88869.84, 40079.20, 187500.00, 8727.39, 20330.83, 7749.37, 150723.17, 9368.00, 0.000, 0.000, 0.000, 16:57:01.521
242, -66396.48, -65115.01, 121923.55, 115312.02, -33769.48, -72198.21, -80228.55, 136085.16, 88859.65, 40081.21, 187500.00, 8728.45, 20323.70, 7743.90, 150718.81, 9367.57, 0.000, 0.000, 0.000, 16:57:01.521
243, -66388.70, -65107.72, 121918.93, 115307.55, -33762.89, -72205.27, -80221.30, 136079.27, 88859.65, 40081.21, 187500.00, 8728.45, 20323.70, 7743.90, 150718.81, 9367.57, 0.000, 0.000, 0.000, 16:57:01.522
244, -66388.70, -65107.72, 121918.93, 115307.55, -33762.89, -72205.27, -80221.30, 136079.27, 88865.39, 40081.44, 187500.00, 8733.88, 20322.16, 7742.31, 150728.80, 9362.05, 0.000, 0.000, 0.000, 16:57:01.522
245, -66391.34, -65104.89, 121912.20, 115303.77, -33773.86, -72210.26, -80234.09, 136072.23, 88865.39, 40081.44, 187500.00, 8733.88, 20322.16, 7742.31, 150728.80, 9362.05, 0.000, 0.000, 0.000, 16:57:01.522
246, -66391.34, -65104.89, 121912.20, 115303.77, -33773.86, -72210.26, -80234.09, 136072.23, 88863.07, 40076.95, 187500.00, 8730.14, 20317.89, 7735.27, 150741.80, 9354.14, 0.006, 0.946, 0.058, 16:57:01.522
247, -66383.29, -65107.25, 121909.70, 115304.33, -33759.29, -72216.59, -80224.77, 136065.13, 88863.07, 40076.95, 187500.00, 8730.14, 20317.89, 7735.27, 150741.80, 9354.14, 0.000, 0.000, 0.000, 16:57:01.522
248, -66383.29, -65107.25, 121909.70, 115304.33, -33759.29, -72216.59, -80224.77, 136065.13, 88865.17, 40081.88, 187500.00, 8728.76, 20318.56, 7739.76, 150762.13, 9356.57, 0.000, 0.000, 0.000, 16:57:01.522
249, -66382.00, -65105.24, 121919.27, 115315.59, -33763.09, -72208.31, -80217.99, 136074.52, 88865.17, 40081.88, 187500.00, 8728.76, 20318.56, 7739.76, 150762.13, 9356.57, 0.000, 0.000, 0.000, 16:57:01.523
250, -66382.00, -65105.24, 121919.27, 115315.59, -33763.09, -72208.31, -80217.99, 136074.52, 88859.83, 40082.22, 187500.00, 8731.71, 20315.12, 7741.19, 150768.45, 9365.43, 0.000, 0.000, 0.000, 16:57:01.523
251, -66377.46, -65093.35, 121923.73, 115316.38, -33766.09, -72205.32, -80221.39, 136079.45, 88859.83, 40082.22, 187500.00, 8731.71, 20315.12, 7741.19, 150768.45, 9365.43, 0.000, 0.000, 0.000, 16:57:01.523
252, -66377.46, -65093.35, 121923.73, 115316.38, -33766.09, -72205.32, -80221.39, 136079.45, 88860.45, 40083.43, 187500.00, 8737.43, 20307.47, 7738.31, 150760.64, 9357.51, 0.000, 0.000, 0.000, 16:57:01.523
253, -66378.76, -65096.35, 121923.53, 115310.73, -33773.80, -72212.20, -80219.76, 136074.64, 88860.45, 40083.43, 187500.00, 8737.43, 20307.47, 7738.31, 150760.64, 9357.51, 0.000, 0.000, 0.000, 16:57:01.523
254, -66378.76, -65096.35, 121923.53, 115310.73, -33773.80, -72212.20, -80219.76, 136074.64, 88860.77, 40077.91, 187500.00, 8739.40, 20316.06, 7742.38, 150761.48, 9348.15, 0.000, 0.000, 0.000, 16:57:01.523
255, -66375.76, -65083.38, 121930.66, 115316.13, -33765.44, -72208.96, -80206.28, 136072.30, 88860.77, 40077.91, 187500.00, 8739.40, 20316.06, 7742.38, 150761.48, 9348.15, 0.000, 0.000, 0.000, 16:57:01.524
0, -66375.76, -65083.38, 121930.66, 115316.13, -33765.44, -72208.96, -80206.28, 136072.30, 88853.23, 40075.16, 187500.00, 8730.99, 20314.83, 7739.63, 150764.70, 9351.41, 0.006, 0.944, 0.062, 16:57:01.524
1, -66367.52, -65080.70, 121929.34, 115315.95, -33755.09, -72206.33, -80210.62, 136076.72, 88853.23, 40075.16, 187500.00, 8730.99, 20314.83, 7739.63, 150764.70, 9351.41, 0.000, 0.000, 0.000, 16:57:01.524
2, -66367.52, -65080.70, 121929.34, 115315.95, -33755.09, -72206.33, -80210.62, 136076.72, 88848.41, 40071.13, 187500.00, 8719.57, 20299.92, 7729.19, 150774.47, 9352.86, 0.000, 0.000, 0.000, 16:57:01.524
3, -66369.55, -65090.38, 121927.66, 115315.91, -33767.14, -72206.84, -80212.70, 136071.47, 88848.41, 40071.13, 187500.00, 8719.57, 20299.92, 7729.19, 150774.47, 9352.86, 0.000, 0.000, 0.000, 16:57:01.525
4, -66369.55, -65090.38, 121927.66, 115315.91, -33767.14, -72206.84, -80212.70, 136071.47, 88856.67, 40068.41, 187500.00, 8723.30, 20317.31, 7741.86, 150766.73, 9351.83, 0.000, 0.000, 0.000, 16:57:01.525
5, -66375.70, -65098.83, 121932.67, 115322.37, -33778.74, -72203.80, -80221.99, 136080.98, 88856.67, 40068.41, 187500.00, 8723.30, 20317.31, 7741.86, 150766.73, 9351.83, 0.000, 0.000, 0.000, 16:57:01.525
6, -66375.70, -65098.83, 121932.67, 115322.37, -33778.74, -72203.80, -80221.99, 136080.98, 88858.20, 40065.48, 187500.00, 8724.78, 20317.38, 7735.87, 150750.27, 9357.87, 0.000, 0.000, 0.000, 16:57:01.525
7, -66380.37, -65108.21, 121930.91, 115316.69, -33786.80, -72210.93, -80227.38, 136072.97, 88858.20, 40065.48, 187500.00, 8724.78, 20317.38, 7735.87, 150750.27, 9357.87, 0.000, 0.000, 0.000, 16:57:01.525
8, -66380.37, -65108.21, 121930.91, 115316.69, -33786.80, -72210.93, -80227.38, 136072.97, 88869.39, 40069.32, 187500.00, 8730.34, 20327.12, 7744.32, 150741.17, 9362.09, 0.000, 0.000, 0.000, 16:57:01.525
9, -66383.13, -65108.95, 121933.52, 115315.48, -33797.04, -72209.56, -80214.98, 136073.23, 88869.39, 40069.32, 187500.00, 8730.34, 20327.12, 7744.32, 150741.17, 9362.09, 0.000, 0.000, 0.000, 16:57:01.526
10, -66383.13, -65108.95, 121933.52, 115315.48, -33797.04, -72209.56, -80214.98, 136073.23, 88865.95, 40076.59, 187500.00, 8725.72, 20324.06, 7736.99, 150733.88, 9356.04, 0.004, 0.946, 0.068, 16:57:01.526
11, -66376.50, -65104.75, 121933.21, 115311.20, -33777.04, -72214.70, -80213.97, 136069.56, 88865.95, 40076.59, 187500.00, 8725.72, 20324.06, 7736.99, 150733.88, 9356.04, 0.000, 0.000, 0.000, 16:57:01.526
12, -66376.50, -65104.75, 121933.21, 115311.20, -33777.04, -72214.70, -80213.97, 136069.56, 88862.17, 40079.14, 187500.00, 8715.44, 20321.80, 7729.81, 150737.95, 9346.81, 0.000, 0.000, 0.000, 16:57:01.526
13, -66384.74, -65106.90, 121934.59, 115316.78, -33782.29, -72211.02, -80219.18, 136076.03, 88862.17, 40079.14, 187500.00, 8715.44, 20321.80, 7729.81, 150737.95, 9346.81, 0.000, 0.000, 0.000, 16:57:01.526
14, -66384.74, -65106.90, 121934.59, 115316.78, -33782.29, -72211.02, -80219.18, 136076.03, 88877.04, 40085.39, 187500.00, 8726.72, 20337.14, 7752.43, 150735.83, 9354.90, 0.000, 0.000, 0.000, 16:57:01.526
15, -66390.60, -65104.97, 121927.94, 115317.02, -33779.95, -72203.64, -80226.13, 136082.00, 88877.04, 40085.39, 187500.00, 8726.72, 20337.14, 7752.43, 150735.83, 9354.90, 0.000, 0.000, 0.000, 16:57:01.526
16, -66390.60, -65104.97, 121927.94, 115317.02, -33779.95, -72203.64, -80226.13, 136082.00, 88880.41, 40085.82, 187500.00, 8716.60, 20339.15, 7751.54, 150746.81, 9353.78, 0.000, 0.000, 0.000, 16:57:01.527
17, -66403.59, -65116.80, 121926.86, 115312.38, -33788.55, -72207.02, -80209.41, 136077.66, 88880.41, 40085.82, 187500.00, 8716.60, 20339.15, 7751.54, 150746.81, 9353.78, 0.000, 0.000, 0.000, 16:57:01.527
18, -66403.59, -65116.80, 121926.86, 115312.38, -33788.55, -72207.02, -80209.41, 136077.66, 88882.91, 40085.24, 187500.00, 8713.72, 20340.42, 7749.10, 150744.89, 9359.10, 0.000, 0.000, 0.000, 16:57:01.527
19, -66400.34, -65122.81, 121913.14, 115300.51, -33789.46, -72215.22, -80219.70, 136068.00, 88882.91, 40085.24, 187500.00, 8713.72, 20340.42, 7749.10, 150744.89, 9359.10, 0.000, 0.000, 0.000, 16:57:01.527
20, -66400.34, -65122.81, 121913.14, 115300.51, -33789.46, -72215.22, -80219.70, 136068.00, 88882.58, 40084.79, 187500.00, 8706.61, 20330.16, 7743.09, 150742.55, 9344.06, 0.004, 0.944, 0.072, 16:57:01.528
21, -66397.35, -65116.84, 121910.63, 115300.93, -33781.31, -72215.42, -80223.20, 136073.81, 88882.58, 40084.79, 187500.00, 8706.61, 20330.16, 7743.09, 150742.55, 9344.06, 0.000, 0.000, 0.000, 16:57:01.528
22, -66397.35, -65116.84, 121910.63, 115300.93, -33781.31, -72215.42, -80223.20, 136073.81, 88878.53, 40086.29, 187500.00, 8703.75, 20325.27, 7740.54, 150742.13, 9342.58, 0.000, 0.000, 0.000, 16:57:01.528
23, -66392.10, -65118.16, 121910.21, 115303.70, -33775.72, -72212.09, -80224.34, 136076.28, 88878.53, 40086.29, 187500.00, 8703.75, 20325.27, 7740.54, 150742.13, 9342.58, 0.000, 0.000, 0.000, 16:57:01.528
24, -66392.10, -65118.16, 121910.21, 115303.70, -33775.72, -72212.09, -80224.34, 136076.28, 88893.33, 40090.71, 187500.00, 8721.94, 20342.54, 7760.61, 150754.17, 9358.32, 0.000, 0.000, 0.000, 16:57:01.529
25, -66404.39, -65112.33, 121915.26, 115314.91, -33781.73, -72205.85, -80220.63, 136084.55, 88893.33, 40090.71, 187500.00, 8721.94, 20342.54, 7760.61, 150754.17, 9358.32, 0.000, 0.000, 0.000, 16:57:01.529
26, -66404.39, -65112.33, 121915.26, 115314.91, -33781.73, -72205.85, -80220.63, 136084.55, 88887.01, 40090.49, 187500.00, 8720.69, 20338.07, 7752.57, 150752.14, 9364.31, 0.000, 0.000, 0.000, 16:57:01.529
27, -66398.67, -65106.92, 121911.41, 115314.73, -33772.84, -72205.81, -80221.26, 136082.91, 88887.01, 40090.49, 187500.00, 8720.69, 20338.07, 7752.57, 150752.14, 9364.31, 0.000, 0.000, 0.000, 16:57:01.529
28, -66398.67, -65106.92, 121911.41, 115314.73, -33772.84, -72205.81, -80221.26, 136082.91, 88890.65, 40092.10, 187500.00, 8723.13, 20346.52, 7762.51, 150758.78, 9366.39, 0.000, 0.000, 0.000, 16:57:01.530
29, -66400.50, -65107.03, 121918.73, 115318.84, -33786.40, -72202.75, -80230.02, 136086.20, 88890.65, 40092.10, 187500.00, 8723.13, 20346.52, 7762.51, 150758.78, 9366.39, 0.000, 0.000, 0.000, 16:57:01.530
30, -66400.50, -65107.03, 121918.73, 115318.84, -33786.40, -72202.75, -80230.02, 136086.20, 88883.09, 40088.01, 187500.00, 8717.72, 20337.63, 7754.42, 150758.58, 9353.85, 0.004, 0.942, 0.076, 16:57:01.530
31, -66398.83, -65105.98, 121913.59, 115314.57, -33775.52, -72208.94, -80230.47, 136081.44, 88883.09, 40088.01, 187500.00, 8717.72, 20337.63, 7754.42, 150758.58, 9353.85, 0.000, 0.000, 0.000, 16:57:01.530
32, -66398.83, -65105.98, 121913.59, 115314.57, -33775.52, -72208.94, -80230.47, 136081.44, 88885.55, 40086.64, 187500.00, 8718.75, 20336.85, 7760.61, 150764.23, 9348.91, 0.000, 0.000, 0.000, 16:57:01.531
33, -66400.21, -65101.27, 121916.38, 115319.53, -33780.26, -72206.37, -80236.30, 136087.61, 88885.55, 40086.64, 187500.00, 8718.75, 20336.85, 7760.61, 150764.23, 9348.91, 0.000, 0.000, 0.000, 16:57:01.531
34, -66400.21, -65101.27, 121916.38, 115319.53, -33780.26, -72206.37, -80236.30, 136087.61, 88879.95, 40090.89, 187500.00, 8717.09, 20334.52, 7756.23, 150751.45, 9349.15, 0.000, 0.000, 0.000, 16:57:01.531
35, -66398.42, -65104.26, 121913.95, 115319.42, -33760.86, -72205.14, -80218.66, 136090.17, 88879.95, 40090.89, 187500.00, 8717.09, 20334.52, 7756.23, 150751.45, 9349.15, 0.000, 0.000, 0.000, 16:57:01.531
36, -66398.42, -65104.26, 121913.95, 115319.42, -33760.86, -72205.14, -80218.66, 136090.17, 88876.70, 40094.82, 187500.00, 8712.75, 20332.55, 7753.28, 150750.28, 9350.09, 0.000, 0.000, 0.000, 16:57:01.531
37, -66393.84, -65105.15, 121912.27, 115319.46, -33758.29, -72204.60, -80217.28, 136083.58, 88876.70, 40094.82, 187500.00, 8712.75, 20332.55, 7753.28, 150750.28, 9350.09, 0.000, 0.000, 0.000, 16:57:01.531
38, -66393.84, -65105.15, 121912.27, 115319.46, -33758.29, -72204.60, -80217.28, 136083.58, 88883.19, 40100.14, 187500.00, 8714.48, 20336.11, 7757.98, 150754.42, 9350.27, 0.000, 0.000, 0.000, 16:57:01.531
39, -66398.29, -65103.81, 121914.45, 115317.30, -33772.57, -72207.48, -80222.60, 136080.25, 88883.19, 40100.14, 187500.00, 8714.48, 20336.11, 7757.98, 150754.42, 9350.27, 0.000, 0.000, 0.000, 16:57:01.532
40, -66398.29, -65103.81, 121914.45, 115317.30, -33772.57, -72207.48, -80222.60, 136080.25, 88885.15, 40103.43, 187500.00, 8722.46, 20341.00, 7762.29, 150752.59, 9343.16, 0.006, 0.948, 0.088, 16:57:01.532
41, -66399.05, -65101.58, 121920.40, 115315.73, -33778.13, -72201.92, -80235.65, 136087.23, 88885.15, 40103.43, 187500.00, 8722.46, 20341.00, 7762.29, 150752.59, 9343.16, 0.000, 0.000, 0.000, 16:57:01.532
42, -66399.05, -65101.58, 121920.40, 115315.73, -33778.13, -72201.92, -80235.65, 136087.23, 88881.44, 40094.34, 187500.00, 8720.09, 20335.48, 7751.99, 150741.61, 9339.03, 0.000, 0.000, 0.000, 16:57:01.533
43, -66390.76, -65104.48, 121917.79, 115307.17, -33776.10, -72206.81, -80226.91, 136080.13, 88881.44, 40094.34, 187500.00, 8720.09, 20335.48, 7751.99, 150741.61, 9339.03, 0.000, 0.000, 0.000, 16:57:01.533
44, -66390.76, -65104.48, 121917.79, 115307.17, -33776.10, -72206.81, -80226.91, 136080.13, 88875.49, 40084.23, 187500.00, 8712.44, 20329.43, 7736.34, 150739.78, 9332.88, 0.000, 0.000, 0.000, 16:57:01.533
45, -66388.26, -65097.51, 121921.05, 115305.54, -33780.41, -72206.50, -80219.96, 136081.44, 88875.49, 40084.23, 187500.00, 8712.44, 20329.43, 7736.34, 150739.78, 9332.88, 0.000, 0.000, 0.000, 16:57:01.533
46, -66388.26, -65097.51, 121921.05, 115305.54, -33780.41, -72206.50, -80219.96, 136081.44, 88877.17, 40072.00, 187500.00, 8713.76, 20331.75, 7737.23, 150735.52, 9328.97, 0.000, 0.000, 0.000, 16:57:01.533
47, -66389.20, -65098.85, 121923.53, 115309.70, -33780.68, -72203.13, -80211.89, 136075.69, 88877.17, 40072.00, 187500.00, 8713.76, 20331.75, 7737.23, 150735.52, 9328.97, 0.000, 0.000, 0.000, 16:57:01.534
48, -66389.20, -65098.85, 121923.53, 115309.70, -33780.68, -72203.13, -80211.89, 136075.69, 88877.71, 40078.02, 187500.00, 8714.56, 20331.79, 7745.97, 150736.22, 9334.31, 0.000, 0.000, 0.000, 16:57:01.534
49, -66385.91, -65091.83, 121939.96, 115320.31, -33783.81, -72193.88, -80211.27, 136091.70, 88877.71, 40078.02, 187500.00, 8714.56, 20331.79, 7745.97, 150736.22, 9334.31, 0.000, 0.000, 0.000, 16:57:01.534
50, -66385.91, -65091.83, 121939.96, 115320.31, -33783.81, -72193.88, -80211.27, 136091.70, 88872.50, 40087.59, 187500.00, 8718.10, 20329.45, 7748.68, 150726.55, 9342.60, 0.004, 0.950, 0.086, 16:57:01.534
51, -66383.74, -65095.21, 121948.97, 115326.80, -33780.64, -72193.30, -80216.90, 136092.14, 88872.50, 40087.59, 187500.00, 8718.10, 20329.45, 7748.68, 150726.55, 9342.60, 0.000, 0.000, 0.000, 16:57:01.534
52, -66383.74, -65095.21, 121948.97, 115326.80, -33780.64, -72193.30, -80216.90, 136092.14, 88872.21, 40089.30, 187500.00, 8725.65, 20327.21, 7747.34, 150729.52, 9340.48, 0.000, 0.000, 0.000, 16:57:01.535
53, -66397.82, -65105.67, 121949.02, 115327.63, -33787.77, -72199.44, -80215.27, 136083.05, 88872.21, 40089.30, 187500.00, 8725.65, 20327.21, 7747.34, 150729.52, 9340.48, 0.000, 0.000, 0.000, 16:57:01.535
54, -66397.82, -65105.67, 121949.02, 115327.63, -33787.77, -72199.44, -80215.27, 136083.05, 88873.86, 40092.17, 187500.00, 8725.18, 20326.83, 7743.83, 150731.63, 9340.64, 0.000, 0.000, 0.000, 16:57:01.535
55, -66395.09, -65109.73, 121945.21, 115319.06, -33781.49, -72202.95, -80218.93, 136082.41, 88873.86, 40092.17, 187500.00, 8725.18, 20326.83, 7743.83, 150731.63, 9340.64, 0.000, 0.000, 0.000, 16:57:01.535
56, -66395.09, -65109.73, 121945.21, 115319.06, -33781.49, -72202.95, -80218.93, 136082.41, 88890.47, 40099.86, 187500.00, 8730.10, 20341.09, 7756.64, 150747.92, 9342.63, 0.000, 0.000, 0.000, 16:57:01.535
57, -66402.65, -65111.95, 121951.74, 115321.77, -33796.33, -72196.94, -80223.70, 136086.47, 88890.47, 40099.86, 187500.00, 8730.10, 20341.09, 7756.64, 150747.92, 9342.63, 0.000, 0.000, 0.000, 16:57:01.536
58, -66402.65, -65111.95, 121951.74, 115321.77, -33796.33, -72196.94, -80223.70, 136086.47, 88883.20, 40102.52, 187500.00, 8727.60, 20338.05, 7749.57, 150751.09, 9347.68, 0.000, 0.000, 0.000, 16:57:01.536
59, -66396.57, -65115.70, 121959.67, 115323.33, -33794.90, -72191.39, -80213.84, 136087.72, 88883.20, 40102.52, 187500.00, 8727.60, 20338.05, 7749.57, 150751.09, 9347.68, 0.000, 0.000, 0.000, 16:57:01.536
60, -66396.57, -65115.70, 121959.67, 115323.33, -33794.90, -72191.39, -80213.84, 136087.72, 88887.84, 40099.81, 187500.00, 8733.07, 20349.18, 7761.31, 150752.86, 9347.19, 0.006, 0.950, 0.090, 16:57:01.536
61, -66399.84, -65114.18, 121967.23, 115329.25, -33800.60, -72185.18, -80210.62, 136093.13, 88887.84, 40099.81, 187500.00, 8733.07, 20349.18, 7761.31, 150752.86, 9347.19, 0.000, 0.000, 0.000, 16:57:01.537
62, -66399.84, -65114.18, 121967.23, 115329.25, -33800.60, -72185.18, -80210.62, 136093.13, 88878.22, 40094.96, 187500.00, 8728.40, 20338.23, 7750.94, 150749.66, 9332.03, 0.000, 0.000, 0.000, 16:57:01.537
63, -66398.98, -65116.55, 121954.73, 115319.13, -33795.05, -72192.00, -80216.01, 136091.16, 88878.22, 40094.96, 187500.00, 8728.40, 20338.23, 7750.94, 150749.66, 9332.03, 0.000, 0.000, 0.000, 16:57:01.537
64, -66398.98, -65116.55, 121954.73, 115319.13, -33795.05, -72192.00, -80216.01, 136091.16, 88880.21, 40098.25, 187500.00, 8718.61, 20334.54, 7751.83, 150769.02, 9336.23, 0.000, 0.000, 0.000, 16:57:01.538
65, -66398.70, -65114.74, 121959.70, 115325.37, -33792.82, -72182.66, -80211.40, 136090.09, 88880.21, 40098.25, 187500.00, 8718.61, 20334.54, 7751.83, 150769.02, 9336.23, 0.000, 0.000, 0.000, 16:57:01.538
66, -66398.70, -65114.74, 121959.70, 115325.37, -33792.82, -72182.66, -80211.40, 136090.09, 88879.38, 40110.45, 187500.00, 8720.26, 20339.95, 7759.61, 150781.31, 9339.34, 0.000, 0.000, 0.000, 16:57:01.538
67, -66392.23, -65112.69, 121961.40, 115331.76, -33776.75, -72178.25, -80213.05, 136098.42, 88879.38, 40110.45, 187500.00, 8720.26, 20339.95, 7759.61, 150781.31, 9339.34, 0.000, 0.000, 0.000, 16:57:01.538
68, -66392.23, -65112.69, 121961.40, 115331.76, -33776.75, -72178.25, -80213.05, 136098.42, 88877.20, 40107.59, 187500.00, 8721.29, 20343.48, 7756.68, 150782.03, 9338.60, 0.000, 0.000, 0.000, 16:57:01.539
69, -66389.10, -65111.19, 121961.06, 115328.31, -33776.30, -72182.07, -80200.90, 136094.17, 88877.20, 40107.59, 187500.00, 8721.29, 20343.48, 7756.68, 150782.03, 9338.60, 0.006, 0.946, 0.094, 16:57:01.539
70, -66389.10, -65111.19, 121961.06, 115328.31, -33776.30, -72182.07, -80200.90, 136094.17, 88876.41, 40099.88, 187500.00, 8718.43, 20338.30, 7747.18, 150778.17, 9336.05, 0.000, 0.000, 0.000, 16:57:01.539
