%OpenBCI Raw EEG Data
%
%Sample Rate = 250.0 Hz
%First Column = SampleIndex
%Last Column = Timestamp 
%Other Columns = EEG data in microvolts followed by Accel Data (in G) interleaved with Aux Data
0, 0.00, 0.00, 0.00, 0.00, 0.00, 0.00, 0.00, 0.00, -10.33, -15.13, -9.57, -13.57, -12.81, -10.57, -12.74, -13.52, -0.052, 0.876, 0.380, 16:50:07.733
1, -29107.02, -26089.29, 54664.00, 57251.51, 5392.96, -28914.10, -30522.69, 71748.23, -10.33, -15.13, -9.57, -13.57, -12.81, -10.57, -12.74, -13.52, 0.000, 0.000, 0.000, 16:50:08.213
2, -29107.02, -26089.29, 54664.00, 57251.51, 5392.96, -28914.10, -30522.69, 71748.23, 49235.15, -11473.31, 150374.03, -6725.64, -2016.84, -18007.57, 79606.02, -23174.78, 0.000, 0.000, 0.000, 16:50:08.213
3, -58218.45, -52179.39, 109332.05, 114501.48, 10789.41, -57823.85, -61019.90, 143506.94, 49235.15, -11473.31, 150374.03, -6725.64, -2016.84, -18007.57, 79606.02, -23174.78, 0.000, 0.000, 0.000, 16:50:08.213
4, -58218.45, -52179.39, 109332.05, 114501.48, 10789.41, -57823.85, -61019.90, 143506.94, 49219.30, -11476.95, 150365.13, -6736.86, -2031.51, -18029.79, 79602.00, -23185.60, 0.000, 0.000, 0.000, 16:50:08.214
5, -58211.41, -52180.13, 109338.27, 114501.26, 10793.63, -57824.59, -61007.12, 143513.02, 49219.30, -11476.95, 150365.13, -6736.86, -2031.51, -18029.79, 79602.00, -23185.60, 0.000, 0.000, 0.000, 16:50:08.214
6, -58211.41, -52180.13, 109338.27, 114501.26, 10793.63, -57824.59, -61007.12, 143513.02, 49225.74, -11485.11, 150360.52, -6742.40, -2025.90, -18027.93, 79602.98, -23195.72, 0.000, 0.000, 0.000, 16:50:08.214
7, -58230.05, -52192.55, 109343.10, 114494.75, 10778.37, -57831.32, -61008.37, 143507.41, 49225.74, -11485.11, 150360.52, -6742.40, -2025.90, -18027.93, 79602.98, -23195.72, 0.000, 0.000, 0.000, 16:50:08.215
8, -58230.05, -52192.55, 109343.10, 114494.75, 10778.37, -57831.32, -61008.37, 143507.41, 49214.98, -11499.64, 150364.19, -6743.77, -2033.05, -18033.45, 79606.41, -23192.08, -0.044, 0.868, 0.364, 16:50:08.215
9, -58214.60, -52185.62, 109351.32, 114499.00, 10798.49, -57822.80, -61001.64, 143514.88, 49214.98, -11499.64, 150364.19, -6743.77, -2033.05, -18033.45, 79606.41, -23192.08, 0.000, 0.000, 0.000, 16:50:08.215
10, -58214.60, -52185.62, 109351.32, 114499.00, 10798.49, -57822.80, -61001.64, 143514.88, 49216.24, -11499.19, 150374.58, -6734.98, -2028.67, -18035.58, 79606.02, -23186.22, 0.000, 0.000, 0.000, 16:50:08.215
11, -58210.91, -52177.44, 109353.20, 114503.89, 10814.42, -57810.77, -60974.64, 143518.27, 49216.24, -11499.19, 150374.58, -6734.98, -2028.67, -18035.58, 79606.02, -23186.22, 0.000, 0.000, 0.000, 16:50:08.215
12, -58210.91, -52177.44, 109353.20, 114503.89, 10814.42, -57810.77, -60974.64, 143518.27, 49199.38, -11496.33, 150350.64, -6754.50, -2060.65, -18065.98, 79583.61, -23196.33, 0.000, 0.000, 0.000, 16:50:08.216
13, -58207.79, -52184.04, 109329.73, 114503.96, 10815.27, -57794.01, -61008.84, 143508.55, 49199.38, -11496.33, 150350.64, -6754.50, -2060.65, -18065.98, 79583.61, -23196.33, 0.000, 0.000, 0.000, 16:50:08.216
14, -58207.79, -52184.04, 109329.73, 114503.96, 10815.27, -57794.01, -61008.84, 143508.55, 49213.20, -11489.15, 150347.55, -6740.86, -2055.38, -18042.69, 79583.90, -23189.67, 0.000, 0.000, 0.000, 16:50:08.216
15, -58215.21, -52189.24, 109324.88, 114520.27, 10818.04, -57778.52, -61032.42, 143520.17, 49213.20, -11489.15, 150347.55, -6740.86, -2055.38, -18042.69, 79583.90, -23189.67, 0.000, 0.000, 0.000, 16:50:08.216
16, -58215.21, -52189.24, 109324.88, 114520.27, 10818.04, -57778.52, -61032.42, 143520.17, 49229.13, -11489.94, 150352.89, -6727.43, -2042.10, -18022.30, 79594.41, -23163.63, 0.000, 0.000, 0.000, 16:50:08.217
17, -58238.96, -52200.75, 109318.80, 114521.48, 10818.02, -57781.70, -61050.39, 143512.98, 49229.13, -11489.94, 150352.89, -6727.43, -2042.10, -18022.30, 79594.41, -23163.63, -0.042, 0.874, 0.372, 16:50:08.217
18, -58238.96, -52200.75, 109318.80, 114521.48, 10818.02, -57781.70, -61050.39, 143512.98, 49230.70, -11495.43, 150350.28, -6732.23, -2039.84, -18031.44, 79601.65, -23150.24, 0.000, 0.000, 0.000, 16:50:08.217
19, -58231.14, -52196.15, 109326.23, 114518.11, 10842.74, -57785.07, -61010.58, 143502.39, 49230.70, -11495.43, 150350.28, -6732.23, -2039.84, -18031.44, 79601.65, -23150.24, 0.000, 0.000, 0.000, 16:50:08.217
20, -58231.14, -52196.15, 109326.23, 114518.11, 10842.74, -57785.07, -61010.58, 143502.39, 49218.67, -11502.92, 150349.11, -6735.54, -2046.30, -18041.50, 79611.23, -23136.02, 0.000, 0.000, 0.000, 16:50:08.218
21, -58229.27, -52193.38, 109334.18, 114518.80, 10857.65, -57785.23, -60978.91, 143531.05, 49218.67, -11502.92, 150349.11, -6735.54, -2046.30, -18041.50, 79611.23, -23136.02, 0.000, 0.000, 0.000, 16:50:08.218
22, -58229.27, -52193.38, 109334.18, 114518.80, 10857.65, -57785.23, -60978.91, 143531.05, 49226.34, -11513.00, 150350.09, -6735.12, -2040.74, -18047.94, 79611.32, -23161.97, 0.000, 0.000, 0.000, 16:50:08.218
23, -58252.76, -52209.05, 109328.05, 114496.36, 10849.76, -57815.67, -61033.00, 143506.55, 49226.34, -11513.00, 150350.09, -6735.12, -2040.74, -18047.94, 79611.32, -23161.97, 0.000, 0.000, 0.000, 16:50:08.218
24, -58252.76, -52209.05, 109328.05, 114496.36, 10849.76, -57815.67, -61033.00, 143506.55, 49223.70, -11528.45, 150349.81, -6742.40, -2041.34, -18058.40, 79606.07, -23233.45, 0.000, 0.000, 0.000, 16:50:08.218
25, -58242.61, -52202.56, 109351.52, 114498.59, 10867.51, -57822.62, -60999.03, 143524.41, 49223.70, -11528.45, 150349.81, -6742.40, -2041.34, -18058.40, 79606.07, -23233.45, 0.000, 0.000, 0.000, 16:50:08.219
26, -58242.61, -52202.56, 109351.52, 114498.59, 10867.51, -57822.62, -60999.03, 143524.41, 49210.63, -11534.75, 150353.72, -6748.04, -2047.58, -18063.58, 79603.61, -23255.51, 0.000, 0.000, 0.000, 16:50:08.219
27, -58236.02, -52199.08, 109356.94, 114496.02, 10870.48, -57812.74, -60990.18, 143522.61, 49210.63, -11534.75, 150353.72, -6748.04, -2047.58, -18063.58, 79603.61, -23255.51, -0.044, 0.872, 0.378, 16:50:08.219
28, -58236.02, -52199.08, 109356.94, 114496.02, 10870.48, -57812.74, -60990.18, 143522.61, 49191.02, -11542.95, 150330.70, -6776.98, -2075.96, -18091.32, 79585.13, -23275.47, 0.000, 0.000, 0.000, 16:50:08.219
29, -58229.62, -52200.35, 109341.87, 114485.14, 10862.37, -57819.07, -61021.51, 143523.20, 49191.02, -11542.95, 150330.70, -6776.98, -2075.96, -18091.32, 79585.13, -23275.47, 0.000, 0.000, 0.000, 16:50:08.219
30, -58229.62, -52200.35, 109341.87, 114485.14, 10862.37, -57819.07, -61021.51, 143523.20, 49214.38, -11540.56, 150338.75, -6763.15, -2056.03, -18075.03, 79593.87, -23258.53, 0.000, 0.000, 0.000, 16:50:08.220
31, -58245.74, -52208.67, 109330.45, 114474.08, 10867.08, -57833.26, -61021.15, 143507.36, 49214.38, -11540.56, 150338.75, -6763.15, -2056.03, -18075.03, 79593.87, -23258.53, 0.000, 0.000, 0.000, 16:50:08.220
32, -58245.74, -52208.67, 109330.45, 114474.08, 10867.08, -57833.26, -61021.15, 143507.36, 49214.00, -11535.87, 150331.77, -6759.32, -2055.67, -18070.42, 79590.96, -23256.14, 0.000, 0.000, 0.000, 16:50:08.220
33, -58246.72, -52202.39, 109334.13, 114487.73, 10873.65, -57820.54, -61046.03, 143514.91, 49214.00, -11535.87, 150331.77, -6759.32, -2055.67, -18070.42, 79590.96, -23256.14, 0.000, 0.000, 0.000, 16:50:08.220
34, -58246.72, -52202.39, 109334.13, 114487.73, 10873.65, -57820.54, -61046.03, 143514.91, 49205.08, -11535.47, 150329.48, -6758.99, -2068.99, -18074.02, 79585.80, -23257.64, 0.000, 0.000, 0.000, 16:50:08.220
35, -58234.72, -52194.99, 109339.50, 114505.68, 10888.14, -57815.13, -60996.05, 143525.84, 49205.08, -11535.47, 150329.48, -6758.99, -2068.99, -18074.02, 79585.80, -23257.64, 0.000, 0.000, 0.000, 16:50:08.220
36, -58234.72, -52194.99, 109339.50, 114505.68, 10888.14, -57815.13, -60996.05, 143525.84, 49203.68, -11535.24, 150328.78, -6755.32, -2062.28, -18066.69, 79586.20, -23251.65, 0.000, 0.000, 0.000, 16:50:08.221
37, -58244.17, -52198.92, 109327.43, 114515.36, 10882.13, -57814.66, -60994.36, 143518.67, 49203.68, -11535.24, 150328.78, -6755.32, -2062.28, -18066.69, 79586.20, -23251.65, -0.048, 0.870, 0.380, 16:50:08.221
38, -58244.17, -52198.92, 109327.43, 114515.36, 10882.13, -57814.66, -60994.36, 143518.67, 49211.05, -11527.78, 150324.23, -6750.70, -2072.61, -18058.73, 79580.68, -23249.61, 0.000, 0.000, 0.000, 16:50:08.221
39, -58254.93, -52201.83, 109329.82, 114537.87, 10867.26, -57796.74, -61041.94, 143516.45, 49211.05, -11527.78, 150324.23, -6750.70, -2072.61, -18058.73, 79580.68, -23249.61, 0.000, 0.000, 0.000, 16:50:08.221
40, -58254.93, -52201.83, 109329.82, 114537.87, 10867.26, -57796.74, -61041.94, 143516.45, 49204.26, -11524.89, 150327.14, -6736.12, -2071.63, -18045.32, 79583.23, -23245.99, 0.000, 0.000, 0.000, 16:50:08.222
41, -58242.23, -52198.23, 109331.68, 114544.30, 10888.63, -57801.68, -61036.11, 143539.64, 49204.26, -11524.89, 150327.14, -6736.12, -2071.63, -18045.32, 79583.23, -23245.99, 0.000, 0.000, 0.000, 16:50:08.222
42, -58242.23, -52198.23, 109331.68, 114544.30, 10888.63, -57801.68, -61036.11, 143539.64, 49203.54, -11520.58, 150318.00, -6747.43, -2079.56, -18051.78, 79591.48, -23240.70, 0.000, 0.000, 0.000, 16:50:08.222
43, -58238.14, -52198.21, 109340.59, 114549.80, 10900.05, -57814.37, -60992.81, 143533.78, 49203.54, -11520.58, 150318.00, -6747.43, -2079.56, -18051.78, 79591.48, -23240.70, 0.000, 0.000, 0.000, 16:50:08.222
44, -58238.14, -52198.21, 109340.59, 114549.80, 10900.05, -57814.37, -60992.81, 143533.78, 49194.31, -11519.89, 150306.38, -6761.04, -2092.28, -18067.25, 79583.34, -23255.78, 0.000, 0.000, 0.000, 16:50:08.222
45, -58244.33, -52204.87, 109328.57, 114536.28, 10884.07, -57823.18, -61072.25, 143509.75, 49194.31, -11519.89, 150306.38, -6761.04, -2092.28, -18067.25, 79583.34, -23255.78, 0.000, 0.000, 0.000, 16:50:08.222
46, -58244.33, -52204.87, 109328.57, 114536.28, 10884.07, -57823.18, -61072.25, 143509.75, 49210.61, -11519.57, 150307.63, -6770.12, -2084.39, -18048.45, 79583.20, -23260.92, 0.000, 0.000, 0.000, 16:50:08.223
47, -58254.54, -52207.30, 109341.45, 114532.99, 10889.19, -57817.90, -61036.98, 143535.48, 49210.61, -11519.57, 150307.63, -6770.12, -2084.39, -18048.45, 79583.20, -23260.92, -0.038, 0.876, 0.378, 16:50:08.223
48, -58254.54, -52207.30, 109341.45, 114532.99, 10889.19, -57817.90, -61036.98, 143535.48, 49195.65, -11522.03, 150296.86, -6787.44, -2100.46, -18087.30, 79590.20, -23241.30, 0.000, 0.000, 0.000, 16:50:08.223
49, -58251.62, -52208.89, 109340.41, 114509.05, 10901.97, -57828.14, -61034.10, 143522.84, 49195.65, -11522.03, 150296.86, -6787.44, -2100.46, -18087.30, 79590.20, -23241.30, 0.000, 0.000, 0.000, 16:50:08.223
50, -58251.62, -52208.89, 109340.41, 114509.05, 10901.97, -57828.14, -61034.10, 143522.84, 49198.18, -11527.46, 150299.14, -6787.20, -2092.70, -18091.03, 79588.03, -23273.82, 0.000, 0.000, 0.000, 16:50:08.223
51, -58256.47, -52208.44, 109331.61, 114492.76, 10886.98, -57846.43, -61041.14, 143511.19, 49198.18, -11527.46, 150299.14, -6787.20, -2092.70, -18091.03, 79588.03, -23273.82, 0.000, 0.000, 0.000, 16:50:08.223
52, -58256.47, -52208.44, 109331.61, 114492.76, 10886.98, -57846.43, -61041.14, 143511.19, 49195.81, -11532.70, 150293.97, -6793.68, -2101.15, -18100.08, 79586.94, -23275.68, 0.000, 0.000, 0.000, 16:50:08.223
53, -58266.10, -52212.18, 109327.74, 114485.01, 10902.42, -57848.68, -61055.35, 143497.50, 49195.81, -11532.70, 150293.97, -6793.68, -2101.15, -18100.08, 79586.94, -23275.68, 0.000, 0.000, 0.000, 16:50:08.224
54, -58266.10, -52212.18, 109327.74, 114485.01, 10902.42, -57848.68, -61055.35, 143497.50, 49221.07, -11536.00, 150314.25, -6776.76, -2078.73, -18083.03, 79597.78, -23248.07, 0.000, 0.000, 0.000, 16:50:08.224
55, -58276.63, -52213.70, 109326.02, 114490.05, 10903.36, -57849.26, -61088.57, 143506.23, 49221.07, -11536.00, 150314.25, -6776.76, -2078.73, -18083.03, 79597.78, -23248.07, 0.000, 0.000, 0.000, 16:50:08.224
56, -58276.63, -52213.70, 109326.02, 114490.05, 10903.36, -57849.26, -61088.57, 143506.23, 49213.11, -11538.55, 150305.95, -6779.08, -2086.87, -18082.49, 79597.98, -23215.48, 0.000, 0.000, 0.000, 16:50:08.224
57, -58262.59, -52208.04, 109323.98, 114504.02, 10918.22, -57846.31, -61041.32, 143514.42, 49213.11, -11538.55, 150305.95, -6779.08, -2086.87, -18082.49, 79597.98, -23215.48, -0.046, 0.870, 0.382, 16:50:08.224
58, -58262.59, -52208.04, 109323.98, 114504.02, 10918.22, -57846.31, -61041.32, 143514.42, 49206.94, -11539.24, 150303.31, -6779.19, -2086.56, -18087.86, 79596.62, -23215.01, 0.000, 0.000, 0.000, 16:50:08.224
59, -58253.36, -52199.79, 109329.04, 114509.64, 10927.88, -57859.84, -61030.32, 143507.22, 49206.94, -11539.24, 150303.31, -6779.19, -2086.56, -18087.86, 79596.62, -23215.01, 0.000, 0.000, 0.000, 16:50:08.225
60, -58253.36, -52199.79, 109329.04, 114509.64, 10927.88, -57859.84, -61030.32, 143507.22, 49180.34, -11540.52, 150284.27, -6798.64, -2111.70, -18118.32, 79574.95, -23234.26, 0.000, 0.000, 0.000, 16:50:08.225
61, -58229.29, -52186.79, 109342.05, 114517.70, 10939.41, -57857.89, -61026.72, 143509.06, 49180.34, -11540.52, 150284.27, -6798.64, -2111.70, -18118.32, 79574.95, -23234.26, 0.000, 0.000, 0.000, 16:50:08.225
62, -58229.29, -52186.79, 109342.05, 114517.70, 10939.41, -57857.89, -61026.72, 143509.06, 49184.97, -11540.16, 150288.52, -6796.29, -2100.10, -18117.85, 79577.48, -23230.17, 0.000, 0.000, 0.000, 16:50:08.225
63, -58251.71, -52204.49, 109338.77, 114517.17, 10923.77, -57865.69, -61064.34, 143503.06, 49184.97, -11540.16, 150288.52, -6796.29, -2100.10, -18117.85, 79577.48, -23230.17, 0.000, 0.000, 0.000, 16:50:08.226
64, -58251.71, -52204.49, 109338.77, 114517.17, 10923.77, -57865.69, -61064.34, 143503.06, 49206.71, -11538.42, 150306.38, -6767.55, -2080.43, -18089.04, 79588.10, -23224.82, 0.000, 0.000, 0.000, 16:50:08.226
65, -58252.51, -52206.48, 109335.19, 114527.63, 10924.46, -57868.13, -61070.39, 143509.89, 49206.71, -11538.42, 150306.38, -6767.55, -2080.43, -18089.04, 79588.10, -23224.82, 0.000, 0.000, 0.000, 16:50:08.226
66, -58252.51, -52206.48, 109335.19, 114527.63, 10924.46, -57868.13, -61070.39, 143509.89, 49194.89, -11533.14, 150296.59, -6770.32, -2093.98, -18102.79, 79577.88, -23236.60, 0.000, 0.000, 0.000, 16:50:08.226
67, -58246.32, -52210.99, 109335.14, 114533.20, 10950.92, -57875.59, -61078.26, 143503.63, 49194.89, -11533.14, 150296.59, -6770.32, -2093.98, -18102.79, 79577.88, -23236.60, -0.050, 0.874, 0.382, 16:50:08.226
68, -58246.32, -52210.99, 109335.14, 114533.20, 10950.92, -57875.59, -61078.26, 143503.63, 49205.64, -11530.71, 150306.31, -6765.40, -2079.87, -18090.34, 79582.91, -23230.64, 0.000, 0.000, 0.000, 16:50:08.226
69, -58253.88, -52211.57, 109341.16, 114541.87, 10949.99, -57866.74, -61071.25, 143506.94, 49205.64, -11530.71, 150306.31, -6765.40, -2079.87, -18090.34, 79582.91, -23230.64, 0.000, 0.000, 0.000, 16:50:08.227
70, -58253.88, -52211.57, 109341.16, 114541.87, 10949.99, -57866.74, -61071.25, 143506.94, 49196.32, -11534.33, 150289.53, -6778.37, -2092.50, -18103.59, 79574.30, -23232.63, 0.000, 0.000, 0.000, 16:50:08.227
71, -58254.01, -52216.71, 109335.05, 114534.38, 10958.08, -57871.01, -61030.86, 143521.17, 49196.32, -11534.33, 150289.53, -6778.37, -2092.50, -18103.59, 79574.30, -23232.63, 0.000, 0.000, 0.000, 16:50:08.227
72, -58254.01, -52216.71, 109335.05, 114534.38, 10958.08, -57871.01, -61030.86, 143521.17, 49195.85, -11535.98, 150285.72, -6788.45, -2104.89, -18102.50, 79567.09, -23226.26, 0.000, 0.000, 0.000, 16:50:08.227
73, -58255.11, -52217.45, 109333.48, 114530.27, 10960.36, -57872.89, -61052.34, 143514.63, 49195.85, -11535.98, 150285.72, -6788.45, -2104.89, -18102.50, 79567.09, -23226.26, 0.000, 0.000, 0.000, 16:50:08.228
74, -58255.11, -52217.45, 109333.48, 114530.27, 10960.36, -57872.89, -61052.34, 143514.63, 49198.27, -11533.43, 150274.53, -6793.10, -2102.65, -18107.01, 79560.49, -23226.32, 0.000, 0.000, 0.000, 16:50:08.228
75, -58257.14, -52230.64, 109324.68, 114507.20, 10968.34, -57888.96, -61051.62, 143494.75, 49198.27, -11533.43, 150274.53, -6793.10, -2102.65, -18107.01, 79560.49, -23226.32, 0.000, 0.000, 0.000, 16:50:08.228
76, -58257.14, -52230.64, 109324.68, 114507.20, 10968.34, -57888.96, -61051.62, 143494.75, 49201.39, -11537.99, 150267.70, -6799.78, -2100.28, -18114.46, 79558.04, -23237.52, 0.000, 0.000, 0.000, 16:50:08.228
77, -58274.62, -52236.54, 109333.87, 114515.18, 10974.42, -57881.52, -61050.03, 143506.73, 49201.39, -11537.99, 150267.70, -6799.78, -2100.28, -18114.46, 79558.04, -23237.52, -0.054, 0.874, 0.382, 16:50:08.229
78, -58274.62, -52236.54, 109333.87, 114515.18, 10974.42, -57881.52, -61050.03, 143506.73, 49197.39, -11545.53, 150271.63, -6798.06, -2102.43, -18120.42, 79569.62, -23235.31, 0.000, 0.000, 0.000, 16:50:08.229
79, -58269.05, -52231.44, 109340.86, 114524.84, 10992.05, -57877.29, -61056.67, 143515.05, 49197.39, -11545.53, 150271.63, -6798.06, -2102.43, -18120.42, 79569.62, -23235.31, 0.000, 0.000, 0.000, 16:50:08.229
80, -58269.05, -52231.44, 109340.86, 114524.84, 10992.05, -57877.29, -61056.67, 143515.05, 49188.52, -11540.16, 150265.20, -6804.14, -2110.32, -18128.14, 79568.01, -23238.24, 0.000, 0.000, 0.000, 16:50:08.230
81, -58268.54, -52232.49, 109343.05, 114532.05, 10983.45, -57873.43, -61057.05, 143505.14, 49188.52, -11540.16, 150265.20, -6804.14, -2110.32, -18128.14, 79568.01, -23238.24, 0.000, 0.000, 0.000, 16:50:08.230
82, -58268.54, -52232.49, 109343.05, 114532.05, 10983.45, -57873.43, -61057.05, 143505.14, 49191.54, -11541.01, 150267.58, -6803.33, -2111.26, -18125.59, 79579.25, -23239.00, 0.000, 0.000, 0.000, 16:50:08.230
83, -58270.37, -52234.84, 109342.79, 114536.02, 10981.57, -57873.54, -61062.53, 143513.89, 49191.54, -11541.01, 150267.58, -6803.33, -2111.26, -18125.59, 79579.25, -23239.00, 0.000, 0.000, 0.000, 16:50:08.230
84, -58270.37, -52234.84, 109342.79, 114536.02, 10981.57, -57873.54, -61062.53, 143513.89, 49199.50, -11541.14, 150267.23, -6804.07, -2110.43, -18121.10, 79585.73, -23233.14, 0.000, 0.000, 0.000, 16:50:08.230
85, -58277.28, -52235.45, 109343.59, 114534.73, 10991.07, -57880.89, -61074.89, 143514.25, 49199.50, -11541.14, 150267.23, -6804.07, -2110.43, -18121.10, 79585.73, -23233.14, 0.000, 0.000, 0.000, 16:50:08.230
86, -58277.28, -52235.45, 109343.59, 114534.73, 10991.07, -57880.89, -61074.89, 143514.25, 49182.64, -11540.81, 150256.00, -6816.95, -2122.86, -18138.39, 79574.13, -23236.98, 0.000, 0.000, 0.000, 16:50:08.231
87, -58263.57, -52222.21, 109348.26, 114540.30, 11006.38, -57884.60, -61080.32, 143512.67, 49182.64, -11540.81, 150256.00, -6816.95, -2122.86, -18138.39, 79574.13, -23236.98, -0.044, 0.868, 0.382, 16:50:08.231
88, -58263.57, -52222.21, 109348.26, 114540.30, 11006.38, -57884.60, -61080.32, 143512.67, 49183.94, -11541.30, 150253.27, -6813.64, -2125.81, -18141.75, 79565.30, -23247.27, 0.000, 0.000, 0.000, 16:50:08.231
89, -58266.61, -52221.83, 109339.95, 114534.11, 11009.26, -57893.48, -61107.86, 143507.63, 49183.94, -11541.30, 150253.27, -6813.64, -2125.81, -18141.75, 79565.30, -23247.27, 0.000, 0.000, 0.000, 16:50:08.231
90, -58266.61, -52221.83, 109339.95, 114534.11, 11009.26, -57893.48, -61107.86, 143507.63, 49191.16, -11540.63, 150254.36, -6806.28, -2120.71, -18134.82, 79566.20, -23245.77, 0.000, 0.000, 0.000, 16:50:08.232
91, -58273.19, -52223.57, 109349.70, 114548.95, 11004.12, -57884.15, -61096.23, 143525.69, 49191.16, -11540.63, 150254.36, -6806.28, -2120.71, -18134.82, 79566.20, -23245.77, 0.000, 0.000, 0.000, 16:50:08.232
92, -58273.19, -52223.57, 109349.70, 114548.95, 11004.12, -57884.15, -61096.23, 143525.69, 49185.73, -11545.14, 150261.19, -6800.25, -2122.45, -18125.81, 79571.18, -23230.77, 0.000, 0.000, 0.000, 16:50:08.232
93, -58269.18, -52220.45, 109353.94, 114557.31, 11016.08, -57879.04, -61070.98, 143516.95, 49185.73, -11545.14, 150261.19, -6800.25, -2122.45, -18125.81, 79571.18, -23230.77, 0.000, 0.000, 0.000, 16:50:08.232
94, -58269.18, -52220.45, 109353.94, 114557.31, 11016.08, -57879.04, -61070.98, 143516.95, 49175.69, -11551.09, 150249.34, -6817.13, -2142.12, -18143.65, 79555.73, -23231.64, 0.000, 0.000, 0.000, 16:50:08.232
95, -58267.57, -52225.32, 109350.45, 114551.77, 11021.49, -57886.08, -61105.91, 143514.27, 49175.69, -11551.09, 150249.34, -6817.13, -2142.12, -18143.65, 79555.73, -23231.64, 0.000, 0.000, 0.000, 16:50:08.233
96, -58267.57, -52225.32, 109350.45, 114551.77, 11021.49, -57886.08, -61105.91, 143514.27, 49179.43, -11552.16, 150250.80, -6839.39, -2134.97, -18143.69, 79557.45, -23236.16, 0.000, 0.000, 0.000, 16:50:08.233
97, -58265.81, -52219.71, 109354.81, 114552.38, 11043.37, -57890.70, -61066.86, 143510.67, 49179.43, -11552.16, 150250.80, -6839.39, -2134.97, -18143.69, 79557.45, -23236.16, -0.036, 0.866, 0.382, 16:50:08.233
98, -58265.81, -52219.71, 109354.81, 114552.38, 11043.37, -57890.70, -61066.86, 143510.67, 49176.92, -11553.79, 150248.13, -6849.60, -2133.36, -18141.39, 79560.98, -23251.74, 0.000, 0.000, 0.000, 16:50:08.233
99, -58256.09, -52211.13, 109352.51, 114559.10, 11071.47, -57879.75, -61064.83, 143521.66, 49176.92, -11553.79, 150248.13, -6849.60, -2133.36, -18141.39, 79560.98, -23251.74, 0.000, 0.000, 0.000, 16:50:08.234
100, -58256.09, -52211.13, 109352.51, 114559.10, 11071.47, -57879.75, -61064.83, 143521.66, 49167.33, -11551.38, 150232.00, -6865.63, -2149.52, -18155.27, 79552.63, -23260.72, 0.000, 0.000, 0.000, 16:50:08.234
101, -58267.40, -52224.25, 109341.89, 114552.95, 11061.68, -57887.55, -61109.13, 143508.86, 49167.33, -11551.38, 150232.00, -6865.63, -2149.52, -18155.27, 79552.63, -23260.72, 0.000, 0.000, 0.000, 16:50:08.234
102, -58267.40, -52224.25, 109341.89, 114552.95, 11061.68, -57887.55, -61109.13, 143508.86, 49162.93, -11554.53, 150230.58, -6874.73, -2159.27, -18166.54, 79537.52, -23258.87, 0.000, 0.000, 0.000, 16:50:08.234
103, -58241.43, -52212.18, 109349.34, 114549.47, 11080.63, -57892.40, -61080.10, 143507.66, 49162.93, -11554.53, 150230.58, -6874.73, -2159.27, -18166.54, 79537.52, -23258.87, 0.000, 0.000, 0.000, 16:50:08.234
104, -58241.43, -52212.18, 109349.34, 114549.47, 11080.63, -57892.40, -61080.10, 143507.66, 49153.32, -11551.47, 150228.17, -6889.08, -2163.85, -18169.51, 79539.02, -23260.59, 0.000, 0.000, 0.000, 16:50:08.235
105, -58255.82, -52224.38, 109359.48, 114552.55, 11064.72, -57881.00, -61102.76, 143509.70, 49153.32, -11551.47, 150228.17, -6889.08, -2163.85, -18169.51, 79539.02, -23260.59, 0.000, 0.000, 0.000, 16:50:08.235
106, -58255.82, -52224.38, 109359.48, 114552.55, 11064.72, -57881.00, -61102.76, 143509.70, 49173.86, -11556.66, 150254.09, -6852.89, -2130.41, -18150.82, 79549.37, -23233.05, 0.000, 0.000, 0.000, 16:50:08.235
107, -58260.11, -52225.50, 109366.52, 114547.16, 11078.91, -57880.64, -61085.86, 143510.44, 49173.86, -11556.66, 150254.09, -6852.89, -2130.41, -18150.82, 79549.37, -23233.05, -0.036, 0.862, 0.376, 16:50:08.235
108, -58260.11, -52225.50, 109366.52, 114547.16, 11078.91, -57880.64, -61085.86, 143510.44, 49144.93, -11566.29, 150225.47, -6859.42, -2167.92, -18191.64, 79541.25, -23252.12, 0.000, 0.000, 0.000, 16:50:08.235
109, -58246.12, -52225.61, 109363.57, 114542.74, 11099.61, -57884.73, -61069.39, 143510.38, 49144.93, -11566.29, 150225.47, -6859.42, -2167.92, -18191.64, 79541.25, -23252.12, 0.000, 0.000, 0.000, 16:50:08.236
110, -58246.12, -52225.61, 109363.57, 114542.74, 11099.61, -57884.73, -61069.39, 143510.38, 49155.39, -11569.87, 150235.72, -6846.36, -2157.70, -18170.67, 79550.99, -23242.13, 0.000, 0.000, 0.000, 16:50:08.236
111, -58255.39, -52228.27, 109370.77, 114553.83, 11100.73, -57871.35, -61087.83, 143515.05, 49155.39, -11569.87, 150235.72, -6846.36, -2157.70, -18170.67, 79550.99, -23242.13, 0.000, 0.000, 0.000, 16:50:08.236
112, -58255.39, -52228.27, 109370.77, 114553.83, 11100.73, -57871.35, -61087.83, 143515.05, 49139.91, -11573.00, 150214.00, -6878.62, -2184.75, -18199.93, 79536.87, -23263.74, 0.000, 0.000, 0.000, 16:50:08.236
113, -58258.30, -52237.70, 109362.48, 114535.95, 11102.42, -57885.94, -61110.41, 143498.03, 49139.91, -11573.00, 150214.00, -6878.62, -2184.75, -18199.93, 79536.87, -23263.74, 0.000, 0.000, 0.000, 16:50:08.236
114, -58258.30, -52237.70, 109362.48, 114535.95, 11102.42, -57885.94, -61110.41, 143498.03, 49145.88, -11564.73, 150212.69, -6900.43, -2179.68, -18195.39, 79532.65, -23274.78, 0.000, 0.000, 0.000, 16:50:08.237
115, -58246.39, -52237.75, 109361.20, 114540.23, 11117.22, -57879.30, -61118.65, 143509.13, 49145.88, -11564.73, 150212.69, -6900.43, -2179.68, -18195.39, 79532.65, -23274.78, 0.000, 0.000, 0.000, 16:50:08.237
116, -58246.39, -52237.75, 109361.20, 114540.23, 11117.22, -57879.30, -61118.65, 143509.13, 49137.02, -11553.48, 150199.97, -6907.83, -2188.44, -18199.33, 79532.02, -23269.71, -0.044, 0.872, 0.368, 16:50:08.237
117, -58250.16, -52240.59, 109364.55, 114552.75, 11119.39, -57874.41, -61082.67, 143519.39, 49137.02, -11553.48, 150199.97, -6907.83, -2188.44, -18199.33, 79532.02, -23269.71, 0.000, 0.000, 0.000, 16:50:08.237
118, -58250.16, -52240.59, 109364.55, 114552.75, 11119.39, -57874.41, -61082.67, 143519.39, 49152.16, -11559.96, 150212.81, -6867.10, -2169.57, -18188.08, 79532.38, -23229.63, 0.000, 0.000, 0.000, 16:50:08.237
119, -58259.86, -52244.16, 109356.09, 114550.34, 11114.87, -57881.34, -61090.78, 143500.66, 49152.16, -11559.96, 150212.81, -6867.10, -2169.57, -18188.08, 79532.38, -23229.63, 0.000, 0.000, 0.000, 16:50:08.237
120, -58259.86, -52244.16, 109356.09, 114550.34, 11114.87, -57881.34, -61090.78, 143500.66, 49151.20, -11570.80, 150207.03, -6857.90, -2176.88, -18184.51, 79526.52, -23240.14, 0.000, 0.000, 0.000, 16:50:08.238
121, -58256.64, -52242.13, 109347.16, 114548.66, 11124.33, -57889.54, -61110.02, 143508.28, 49151.20, -11570.80, 150207.03, -6857.90, -2176.88, -18184.51, 79526.52, -23240.14, 0.000, 0.000, 0.000, 16:50:08.694
122, -58256.64, -52242.13, 109347.16, 114548.66, 11124.33, -57889.54, -61110.02, 143508.28, 49151.91, -11568.39, 150199.92, -6851.88, -2186.07, -18177.67, 79517.87, -23226.23, 0.000, 0.000, 0.000, 16:50:08.694
123, -58268.85, -52244.23, 109346.88, 114557.07, 11121.65, -57878.30, -61119.41, 143512.13, 49151.91, -11568.39, 150199.92, -6851.88, -2186.07, -18177.67, 79517.87, -23226.23, 0.000, 0.000, 0.000, 16:50:08.694
124, -58268.85, -52244.23, 109346.88, 114557.07, 11121.65, -57878.30, -61119.41, 143512.13, 49146.95, -11566.25, 150204.05, -6845.87, -2187.21, -18181.65, 79517.83, -23223.17, 0.000, 0.000, 0.000, 16:50:08.694
125, -58241.34, -52222.57, 109349.16, 114558.37, 11147.51, -57876.33, -61121.69, 143514.64, 49146.95, -11566.25, 150204.05, -6845.87, -2187.21, -18181.65, 79517.83, -23223.17, 0.000, 0.000, 0.000, 16:50:08.694
126, -58241.34, -52222.57, 109349.16, 114558.37, 11147.51, -57876.33, -61121.69, 143514.64, 49132.29, -11559.76, 150193.77, -6861.96, -2196.13, -18190.14, 79509.22, -23236.76, -0.042, 0.874, 0.380, 16:50:08.695
127, -58249.20, -52222.41, 109354.72, 114573.54, 11135.24, -57873.61, -61111.28, 143516.64, 49132.29, -11559.76, 150193.77, -6861.96, -2196.13, -18190.14, 79509.22, -23236.76, 0.000, 0.000, 0.000, 16:50:08.695
128, -58249.20, -52222.41, 109354.72, 114573.54, 11135.24, -57873.61, -61111.28, 143516.64, 49130.14, -11559.85, 150194.83, -6890.15, -2201.51, -18189.87, 79513.69, -23240.70, 0.000, 0.000, 0.000, 16:50:08.695
129, -58244.98, -52222.30, 109356.51, 114567.62, 11148.02, -57875.53, -61108.39, 143504.09, 49130.14, -11559.85, 150194.83, -6890.15, -2201.51, -18189.87, 79513.69, -23240.70, 0.000, 0.000, 0.000, 16:50:08.695
130, -58244.98, -52222.30, 109356.51, 114567.62, 11148.02, -57875.53, -61108.39, 143504.09, 49128.89, -11558.85, 150197.13, -6895.31, -2198.54, -18193.63, 79521.36, -23249.50, 0.000, 0.000, 0.000, 16:50:08.695
131, -58250.25, -52227.53, 109357.85, 114560.11, 11157.34, -57886.72, -61109.18, 143506.80, 49128.89, -11558.85, 150197.13, -6895.31, -2198.54, -18193.63, 79521.36, -23249.50, 0.000, 0.000, 0.000, 16:50:08.695
132, -58250.25, -52227.53, 109357.85, 114560.11, 11157.34, -57886.72, -61109.18, 143506.80, 49132.64, -11561.42, 150193.66, -6901.30, -2200.73, -18196.71, 79521.98, -23249.48, 0.000, 0.000, 0.000, 16:50:08.696
133, -58260.47, -52237.07, 109361.09, 114555.73, 11146.99, -57887.75, -61133.20, 143495.88, 49132.64, -11561.42, 150193.66, -6901.30, -2200.73, -18196.71, 79521.98, -23249.48, 0.000, 0.000, 0.000, 16:50:08.696
134, -58260.47, -52237.07, 109361.09, 114555.73, 11146.99, -57887.75, -61133.20, 143495.88, 49122.09, -11566.11, 150185.50, -6881.59, -2212.24, -18205.41, 79513.69, -23263.61, 0.000, 0.000, 0.000, 16:50:08.696
135, -58250.54, -52232.74, 109370.03, 114560.09, 11159.91, -57881.74, -61127.62, 143520.36, 49122.09, -11566.11, 150185.50, -6881.59, -2212.24, -18205.41, 79513.69, -23263.61, 0.000, 0.000, 0.000, 16:50:08.696
136, -58250.54, -52232.74, 109370.03, 114560.09, 11159.91, -57881.74, -61127.62, 143520.36, 49114.27, -11569.73, 150180.69, -6869.90, -2208.58, -18213.56, 79518.97, -23269.98, -0.040, 0.880, 0.372, 16:50:08.697
137, -58257.92, -52238.68, 109375.22, 114561.94, 11167.15, -57876.29, -61090.55, 143515.55, 49114.27, -11569.73, 150180.69, -6869.90, -2208.58, -18213.56, 79518.97, -23269.98, 0.000, 0.000, 0.000, 16:50:08.697
138, -58257.92, -52238.68, 109375.22, 114561.94, 11167.15, -57876.29, -61090.55, 143515.55, 49126.90, -11576.26, 150186.50, -6860.42, -2203.86, -18213.59, 79528.82, -23285.33, 0.000, 0.000, 0.000, 16:50:08.697
139, -58264.29, -52247.13, 109367.46, 114553.36, 11161.05, -57872.84, -61122.88, 143522.94, 49126.90, -11576.26, 150186.50, -6860.42, -2203.86, -18213.59, 79528.82, -23285.33, 0.000, 0.000, 0.000, 16:50:08.697
140, -58264.29, -52247.13, 109367.46, 114553.36, 11161.05, -57872.84, -61122.88, 143522.94, 49125.42, -11574.87, 150171.05, -6867.44, -2220.44, -18229.41, 79535.30, -23309.85, 0.000, 0.000, 0.000, 16:50:08.697
141, -58264.11, -52252.79, 109357.41, 114537.60, 11166.44, -57885.32, -61127.77, 143518.42, 49125.42, -11574.87, 150171.05, -6867.44, -2220.44, -18229.41, 79535.30, -23309.85, 0.000, 0.000, 0.000, 16:50:08.697
142, -58264.11, -52252.79, 109357.41, 114537.60, 11166.44, -57885.32, -61127.77, 143518.42, 49120.80, -11575.61, 150165.98, -6868.49, -2225.18, -18229.86, 79524.46, -23301.34, 0.000, 0.000, 0.000, 16:50:08.698
143, -58269.66, -52251.43, 109367.91, 114555.01, 11160.32, -57862.92, -61142.43, 143526.02, 49120.80, -11575.61, 150165.98, -6868.49, -2225.18, -18229.86, 79524.46, -23301.34, 0.000, 0.000, 0.000, 16:50:08.698
144, -58269.66, -52251.43, 109367.91, 114555.01, 11160.32, -57862.92, -61142.43, 143526.02, 49123.52, -11587.12, 150176.72, -6861.63, -2213.05, -18214.84, 79529.65, -23301.67, 0.000, 0.000, 0.000, 16:50:08.698
145, -58267.11, -52245.21, 109357.13, 114553.40, 11168.76, -57866.72, -61113.22, 143527.70, 49123.52, -11587.12, 150176.72, -6861.63, -2213.05, -18214.84, 79529.65, -23301.67, 0.000, 0.000, 0.000, 16:50:08.698
146, -58267.11, -52245.21, 109357.13, 114553.40, 11168.76, -57866.72, -61113.22, 143527.70, 49118.07, -11588.08, 150159.13, -6907.29, -2233.61, -18221.39, 79512.57, -23326.10, -0.046, 0.876, 0.372, 16:50:08.698
147, -58264.60, -52247.40, 109347.88, 114550.79, 11172.92, -57866.83, -61114.96, 143512.61, 49118.07, -11588.08, 150159.13, -6907.29, -2233.61, -18221.39, 79512.57, -23326.10, 0.000, 0.000, 0.000, 16:50:08.699
148, -58264.60, -52247.40, 109347.88, 114550.79, 11172.92, -57866.83, -61114.96, 143512.61, 49107.94, -11577.02, 150150.03, -6923.14, -2249.79, -18232.12, 79498.52, -23342.53, 0.000, 0.000, 0.000, 16:50:08.699
149, -58265.41, -52250.73, 109344.57, 114552.80, 11178.06, -57865.65, -61138.61, 143512.98, 49107.94, -11577.02, 150150.03, -6923.14, -2249.79, -18232.12, 79498.52, -23342.53, 0.000, 0.000, 0.000, 16:50:08.699
150, -58265.41, -52250.73, 109344.57, 114552.80, 11178.06, -57865.65, -61138.61, 143512.98, 49113.55, -11568.68, 150159.30, -6915.83, -2246.28, -18220.11, 79490.16, -23312.91, 0.000, 0.000, 0.000, 16:50:08.699
151, -58271.44, -52252.92, 109338.96, 114552.33, 11175.31, -57871.46, -61161.97, 143517.64, 49113.55, -11568.68, 150159.30, -6915.83, -2246.28, -18220.11, 79490.16, -23312.91, 0.000, 0.000, 0.000, 16:50:08.700
152, -58271.44, -52252.92, 109338.96, 114552.33, 11175.31, -57871.46, -61161.97, 143517.64, 49113.91, -11574.67, 150158.39, -6922.33, -2248.50, -18227.53, 79487.65, -23338.42, 0.000, 0.000, 0.000, 16:50:08.700
153, -58264.00, -52241.19, 109349.87, 114553.85, 11191.67, -57882.59, -61147.78, 143507.14, 49113.91, -11574.67, 150158.39, -6922.33, -2248.50, -18227.53, 79487.65, -23338.42, 0.000, 0.000, 0.000, 16:50:08.700
154, -58264.00, -52241.19, 109349.87, 114553.85, 11191.67, -57882.59, -61147.78, 143507.14, 49099.85, -11575.86, 150150.63, -6905.24, -2259.81, -18245.26, 79478.62, -23373.49, 0.000, 0.000, 0.000, 16:50:08.700
155, -58259.33, -52236.29, 109348.93, 114545.13, 11188.46, -57897.97, -61165.99, 143502.80, 49099.85, -11575.86, 150150.63, -6905.24, -2259.81, -18245.26, 79478.62, -23373.49, 0.000, 0.000, 0.000, 16:50:08.701
156, -58259.33, -52236.29, 109348.93, 114545.13, 11188.46, -57897.97, -61165.99, 143502.80, 49093.08, -11575.74, 150144.06, -6895.11, -2266.71, -18258.13, 79473.48, -23344.96, -0.044, 0.876, 0.374, 16:50:08.701
157, -58261.25, -52237.43, 109353.60, 114545.24, 11197.98, -57903.73, -61122.43, 143489.00, 49093.08, -11575.74, 150144.06, -6895.11, -2266.71, -18258.13, 79473.48, -23344.96, 0.000, 0.000, 0.000, 16:50:08.702
158, -58261.25, -52237.43, 109353.60, 114545.24, 11197.98, -57903.73, -61122.43, 143489.00, 49101.06, -11577.20, 150145.89, -6895.65, -2260.43, -18242.78, 79480.72, -23348.14, 0.000, 0.000, 0.000, 16:50:08.702
159, -58274.57, -52245.59, 109356.89, 114548.82, 11203.01, -57907.02, -61137.76, 143491.64, 49101.06, -11577.20, 150145.89, -6895.65, -2260.43, -18242.78, 79480.72, -23348.14, 0.000, 0.000, 0.000, 16:50:08.702
160, -58274.57, -52245.59, 109356.89, 114548.82, 11203.01, -57907.02, -61137.76, 143491.64, 49096.28, -11570.87, 150137.73, -6901.93, -2269.33, -18256.08, 79479.88, -23352.03, 0.000, 0.000, 0.000, 16:50:08.702
161, -58267.75, -52246.53, 109362.86, 114551.13, 11219.79, -57908.96, -61131.86, 143517.78, 49096.28, -11570.87, 150137.73, -6901.93, -2269.33, -18256.08, 79479.88, -23352.03, 0.000, 0.000, 0.000, 16:50:08.702
162, -58267.75, -52246.53, 109362.86, 114551.13, 11219.79, -57908.96, -61131.86, 143517.78, 49084.18, -11576.37, 150122.20, -6922.63, -2280.48, -18275.63, 79493.41, -23342.02, 0.000, 0.000, 0.000, 16:50:08.703
163, -58280.05, -52254.96, 109367.64, 114564.27, 11211.72, -57894.70, -61137.52, 143520.09, 49084.18, -11576.37, 150122.20, -6922.63, -2280.48, -18275.63, 79493.41, -23342.02, 0.000, 0.000, 0.000, 16:50:08.703
164, -58280.05, -52254.96, 109367.64, 114564.27, 11211.72, -57894.70, -61137.52, 143520.09, 49101.73, -11587.97, 150137.64, -6911.36, -2262.11, -18247.81, 79514.20, -23310.66, 0.000, 0.000, 0.000, 16:50:08.703
165, -58287.31, -52253.55, 109359.30, 114561.49, 11218.61, -57887.93, -61130.10, 143524.17, 49101.73, -11587.97, 150137.64, -6911.36, -2262.11, -18247.81, 79514.20, -23310.66, 0.000, 0.000, 0.000, 16:50:08.703
166, -58287.31, -52253.55, 109359.30, 114561.49, 11218.61, -57887.93, -61130.10, 143524.17, 49096.84, -11585.71, 150123.83, -6959.35, -2279.54, -18258.09, 79502.63, -23330.33, -0.046, 0.878, 0.366, 16:50:08.703
167, -58296.12, -52257.82, 109352.48, 114563.57, 11210.25, -57888.71, -61138.88, 143531.86, 49096.84, -11585.71, 150123.83, -6959.35, -2279.54, -18258.09, 79502.63, -23330.33, 0.000, 0.000, 0.000, 16:50:08.704
168, -58296.12, -52257.82, 109352.48, 114563.57, 11210.25, -57888.71, -61138.88, 143531.86, 49107.99, -11585.15, 150141.09, -6940.69, -2267.11, -18234.69, 79504.51, -23311.84, 0.000, 0.000, 0.000, 16:50:08.704
169, -58295.58, -52253.82, 109360.89, 114583.62, 11204.55, -57863.43, -61149.12, 143538.41, 49107.99, -11585.15, 150141.09, -6940.69, -2267.11, -18234.69, 79504.51, -23311.84, 0.000, 0.000, 0.000, 16:50:08.704
170, -58295.58, -52253.82, 109360.89, 114583.62, 11204.55, -57863.43, -61149.12, 143538.41, 49100.84, -11589.18, 150137.59, -6937.98, -2268.48, -18241.68, 79501.66, -23330.28, 0.000, 0.000, 0.000, 16:50:08.704
171, -58289.17, -52255.56, 109353.36, 114572.13, 11214.52, -57874.61, -61155.58, 143514.13, 49100.84, -11589.18, 150137.59, -6937.98, -2268.48, -18241.68, 79501.66, -23330.28, 0.000, 0.000, 0.000, 16:50:08.705
172, -58289.17, -52255.56, 109353.36, 114572.13, 11214.52, -57874.61, -61155.58, 143514.13, 49095.49, -11587.30, 150129.48, -6944.44, -2275.97, -18243.85, 79488.66, -23354.15, 0.000, 0.000, 0.000, 16:50:08.705
173, -58299.61, -52261.11, 109357.83, 114575.48, 11201.20, -57876.53, -61196.53, 143502.89, 49095.49, -11587.30, 150129.48, -6944.44, -2275.97, -18243.85, 79488.66, -23354.15, 0.000, 0.000, 0.000, 16:50:08.705
174, -58299.61, -52261.11, 109357.83, 114575.48, 11201.20, -57876.53, -61196.53, 143502.89, 49102.87, -11596.15, 150138.39, -6929.96, -2266.96, -18237.21, 79485.13, -23346.22, 0.000, 0.000, 0.000, 16:50:08.705
175, -58294.04, -52257.01, 109356.55, 114572.02, 11215.72, -57882.97, -61190.89, 143498.11, 49102.87, -11596.15, 150138.39, -6929.96, -2266.96, -18237.21, 79485.13, -23346.22, 0.000, 0.000, 0.000, 16:50:08.706
176, -58294.04, -52257.01, 109356.55, 114572.02, 11215.72, -57882.97, -61190.89, 143498.11, 49068.11, -11597.09, 150100.78, -6940.64, -2312.82, -18286.14, 79456.52, -23391.23, -0.046, 0.884, 0.372, 16:50:08.706
177, -58279.02, -52252.43, 109346.90, 114560.89, 11224.80, -57904.16, -61209.63, 143472.98, 49068.11, -11597.09, 150100.78, -6940.64, -2312.82, -18286.14, 79456.52, -23391.23, 0.000, 0.000, 0.000, 16:50:08.706
178, -58279.02, -52252.43, 109346.90, 114560.89, 11224.80, -57904.16, -61209.63, 143472.98, 49090.31, -11586.92, 150121.34, -6907.87, -2283.21, -18260.21, 79463.60, -23371.01, 0.000, 0.000, 0.000, 16:50:08.706
179, -58289.64, -52251.74, 109355.86, 114570.43, 11222.56, -57900.96, -61196.21, 143494.63, 49090.31, -11586.92, 150121.34, -6907.87, -2283.21, -18260.21, 79463.60, -23371.01, 0.000, 0.000, 0.000, 16:50:08.707
180, -58289.64, -52251.74, 109355.86, 114570.43, 11222.56, -57900.96, -61196.21, 143494.63, 49075.64, -11591.37, 150104.59, -6921.96, -2313.96, -18275.28, 79449.23, -23341.17, 0.000, 0.000, 0.000, 16:50:08.707
181, -58286.17, -52250.40, 109357.18, 114566.99, 11224.69, -57908.90, -61181.86, 143503.72, 49075.64, -11591.37, 150104.59, -6921.96, -2313.96, -18275.28, 79449.23, -23341.17, 0.000, 0.000, 0.000, 16:50:08.707
182, -58286.17, -52250.40, 109357.18, 114566.99, 11224.69, -57908.90, -61181.86, 143503.72, 49077.23, -11593.33, 150114.84, -6917.64, -2303.15, -18276.04, 79470.98, -23313.79, 0.000, 0.000, 0.000, 16:50:08.707
183, -58290.93, -52249.41, 109367.91, 114570.45, 11239.73, -57909.79, -61137.76, 143489.33, 49077.23, -11593.33, 150114.84, -6917.64, -2303.15, -18276.04, 79470.98, -23313.79, 0.000, 0.000, 0.000, 16:50:08.708
184, -58290.93, -52249.41, 109367.91, 114570.45, 11239.73, -57909.79, -61137.76, 143489.33, 49061.34, -11595.62, 150092.05, -6940.66, -2327.46, -18298.50, 79473.28, -23322.41, 0.000, 0.000, 0.000, 16:50:08.708
185, -58274.46, -52248.14, 109362.43, 114558.74, 11249.39, -57915.47, -61145.77, 143498.69, 49061.34, -11595.62, 150092.05, -6940.66, -2327.46, -18298.50, 79473.28, -23322.41, 0.000, 0.000, 0.000, 16:50:08.708
186, -58274.46, -52248.14, 109362.43, 114558.74, 11249.39, -57915.47, -61145.77, 143498.69, 49066.46, -11598.61, 150089.77, -6947.68, -2323.26, -18294.90, 79465.73, -23315.86, -0.046, 0.882, 0.374, 16:50:08.709
187, -58283.58, -52259.02, 109367.62, 114559.95, 11234.39, -57917.88, -61166.87, 143497.48, 49066.46, -11598.61, 150089.77, -6947.68, -2323.26, -18294.90, 79465.73, -23315.86, 0.000, 0.000, 0.000, 16:50:08.709
188, -58283.58, -52259.02, 109367.62, 114559.95, 11234.39, -57917.88, -61166.87, 143497.48, 49060.07, -11613.74, 150095.06, -6951.10, -2314.05, -18307.69, 79462.30, -23314.90, 0.000, 0.000, 0.000, 16:50:08.709
189, -58279.94, -52262.45, 109367.46, 114564.02, 11241.38, -57910.46, -61167.71, 143513.30, 49060.07, -11613.74, 150095.06, -6951.10, -2314.05, -18307.69, 79462.30, -23314.90, 0.000, 0.000, 0.000, 16:50:08.709
190, -58279.94, -52262.45, 109367.46, 114564.02, 11241.38, -57910.46, -61167.71, 143513.30, 49063.35, -11620.65, 150094.58, -6977.30, -2313.47, -18301.61, 79451.71, -23301.63, 0.000, 0.000, 0.000, 16:50:08.710
191, -58288.61, -52266.80, 109368.18, 114566.48, 11242.03, -57908.27, -61181.39, 143508.59, 49063.35, -11620.65, 150094.58, -6977.30, -2313.47, -18301.61, 79451.71, -23301.63, 0.000, 0.000, 0.000, 16:50:08.710
192, -58288.61, -52266.80, 109368.18, 114566.48, 11242.03, -57908.27, -61181.39, 143508.59, 49069.54, -11625.25, 150100.59, -6973.39, -2308.89, -18297.72, 79454.48, -23298.72, 0.000, 0.000, 0.000, 16:50:08.710
193, -58285.23, -52261.35, 109367.88, 114564.51, 11250.77, -57904.63, -61184.55, 143514.41, 49069.54, -11625.25, 150100.59, -6973.39, -2308.89, -18297.72, 79454.48, -23298.72, 0.000, 0.000, 0.000, 16:50:08.710
194, -58285.23, -52261.35, 109367.88, 114564.51, 11250.77, -57904.63, -61184.55, 143514.41, 49058.79, -11623.82, 150088.97, -6982.80, -2316.58, -18296.82, 79446.66, -23298.18, 0.000, 0.000, 0.000, 16:50:08.710
195, -58291.56, -52262.00, 109371.28, 114571.95, 11248.45, -57894.41, -61195.12, 143516.13, 49058.79, -11623.82, 150088.97, -6982.80, -2316.58, -18296.82, 79446.66, -23298.18, 0.000, 0.000, 0.000, 16:50:08.711
196, -58291.56, -52262.00, 109371.28, 114571.95, 11248.45, -57894.41, -61195.12, 143516.13, 49056.36, -11628.03, 150084.34, -7000.75, -2320.87, -18307.78, 79444.20, -23289.73, -0.048, 0.880, 0.368, 16:50:08.711
197, -58294.29, -52259.43, 109379.45, 114578.57, 11257.66, -57892.78, -61151.75, 143511.69, 49056.36, -11628.03, 150084.34, -7000.75, -2320.87, -18307.78, 79444.20, -23289.73, 0.000, 0.000, 0.000, 16:50:08.711
198, -58294.29, -52259.43, 109379.45, 114578.57, 11257.66, -57892.78, -61151.75, 143511.69, 49055.11, -11629.50, 150089.56, -7011.29, -2322.12, -18290.63, 79451.77, -23281.33, 0.000, 0.000, 0.000, 16:50:08.711
199, -58299.36, -52263.27, 109373.85, 114576.18, 11247.91, -57899.71, -61170.82, 143503.20, 49055.11, -11629.50, 150089.56, -7011.29, -2322.12, -18290.63, 79451.77, -23281.33, 0.000, 0.000, 0.000, 16:50:08.711
200, -58299.36, -52263.27, 109373.85, 114576.18, 11247.91, -57899.71, -61170.82, 143503.20, 49052.69, -11631.09, 150083.89, -7015.77, -2340.92, -18307.20, 79430.95, -23292.53, 0.000, 0.000, 0.000, 16:50:08.711
201, -58276.45, -52247.18, 109363.23, 114568.22, 11264.61, -57903.58, -61210.07, 143506.22, 49052.69, -11631.09, 150083.89, -7015.77, -2340.92, -18307.20, 79430.95, -23292.53, 0.000, 0.000, 0.000, 16:50:08.712
202, -58276.45, -52247.18, 109363.23, 114568.22, 11264.61, -57903.58, -61210.07, 143506.22, 49033.22, -11622.21, 150065.63, -7045.09, -2355.72, -18321.63, 79416.48, -23327.78, 0.000, 0.000, 0.000, 16:50:08.712
203, -58279.71, -52253.04, 109366.05, 114567.77, 11268.07, -57900.80, -61187.05, 143506.89, 49033.22, -11622.21, 150065.63, -7045.09, -2355.72, -18321.63, 79416.48, -23327.78, 0.000, 0.000, 0.000, 16:50:08.712
204, -58279.71, -52253.04, 109366.05, 114567.77, 11268.07, -57900.80, -61187.05, 143506.89, 49056.02, -11622.46, 150081.28, -7024.33, -2329.88, -18298.12, 79443.13, -23315.15, 0.000, 0.000, 0.000, 16:50:08.712
205, -58293.82, -52255.29, 109371.30, 114572.13, 11269.26, -57891.89, -61176.10, 143519.42, 49056.02, -11622.46, 150081.28, -7024.33, -2329.88, -18298.12, 79443.13, -23315.15, -0.048, 0.876, 0.372, 16:50:08.712
206, -58293.82, -52255.29, 109371.30, 114572.13, 11269.26, -57891.89, -61176.10, 143519.42, 49056.89, -11633.75, 150078.91, -7020.24, -2331.91, -18297.23, 79440.06, -23324.54, 0.000, 0.000, 0.000, 16:50:08.713
207, -58297.50, -52259.61, 109362.81, 114559.77, 11283.72, -57906.62, -61182.85, 143506.63, 49056.89, -11633.75, 150078.91, -7020.24, -2331.91, -18297.23, 79440.06, -23324.54, 0.000, 0.000, 0.000, 16:50:08.713
208, -58297.50, -52259.61, 109362.81, 114559.77, 11283.72, -57906.62, -61182.85, 143506.63, 49043.52, -11642.91, 150059.28, -7023.79, -2348.41, -18316.99, 79447.80, -23345.28, 0.000, 0.000, 0.000, 16:50:08.713
209, -58290.13, -52259.05, 109365.25, 114557.88, 11299.72, -57915.63, -61167.71, 143506.39, 49043.52, -11642.91, 150059.28, -7023.79, -2348.41, -18316.99, 79447.80, -23345.28, 0.000, 0.000, 0.000, 16:50:08.713
210, -58290.13, -52259.05, 109365.25, 114557.88, 11299.72, -57915.63, -61167.71, 143506.39, 49037.04, -11640.23, 150045.94, -7037.29, -2363.88, -18329.84, 79440.91, -23353.30, 0.000, 0.000, 0.000, 16:50:08.713
211, -58294.46, -52265.91, 109363.55, 114546.27, 11296.42, -57929.55, -61193.89, 143505.81, 49037.04, -11640.23, 150045.94, -7037.29, -2363.88, -18329.84, 79440.91, -23353.30, 0.000, 0.000, 0.000, 16:50:08.714
212, -58294.46, -52265.91, 109363.55, 114546.27, 11296.42, -57929.55, -61193.89, 143505.81, 49040.57, -11638.31, 150048.58, -7030.52, -2351.00, -18323.27, 79446.77, -23348.43, 0.000, 0.000, 0.000, 16:50:08.714
213, -58287.74, -52266.11, 109363.75, 114549.87, 11306.07, -57923.34, -61193.02, 143510.39, 49040.57, -11638.31, 150048.58, -7030.52, -2351.00, -18323.27, 79446.77, -23348.43, 0.000, 0.000, 0.000, 16:50:08.714
214, -58287.74, -52266.11, 109363.75, 114549.87, 11306.07, -57923.34, -61193.02, 143510.39, 49035.28, -11636.21, 150034.92, -7042.68, -2361.95, -18326.96, 79432.27, -23347.54, 0.000, 0.000, 0.000, 16:50:08.714
215, -58302.55, -52281.09, 109355.99, 114546.61, 11297.71, -57933.86, -61189.22, 143505.73, 49035.28, -11636.21, 150034.92, -7042.68, -2361.95, -18326.96, 79432.27, -23347.54, -0.050, 0.876, 0.370, 16:50:08.714
216, -58302.55, -52281.09, 109355.99, 114546.61, 11297.71, -57933.86, -61189.22, 143505.73, 49046.86, -11637.41, 150040.39, -7035.52, -2351.38, -18320.56, 79443.10, -23345.48, 0.000, 0.000, 0.000, 16:50:08.714
217, -58302.60, -52288.04, 109348.89, 114542.70, 11310.85, -57940.12, -61197.09, 143502.44, 49046.86, -11637.41, 150040.39, -7035.52, -2351.38, -18320.56, 79443.10, -23345.48, 0.000, 0.000, 0.000, 16:50:08.715
218, -58302.60, -52288.04, 109348.89, 114542.70, 11310.85, -57940.12, -61197.09, 143502.44, 49038.56, -11629.90, 150040.19, -7036.51, -2350.26, -18323.78, 79434.09, -23361.46, 0.000, 0.000, 0.000, 16:50:08.715
219, -58293.04, -52287.37, 109352.69, 114540.05, 11320.17, -57938.18, -61176.43, 143509.44, 49038.56, -11629.90, 150040.19, -7036.51, -2350.26, -18323.78, 79434.09, -23361.46, 0.000, 0.000, 0.000, 16:50:08.715
220, -58293.04, -52287.37, 109352.69, 114540.05, 11320.17, -57938.18, -61176.43, 143509.44, 49036.24, -11627.27, 150043.19, -7034.52, -2346.28, -18318.91, 79426.72, -23375.70, 0.000, 0.000, 0.000, 16:50:08.715
221, -58289.68, -52283.90, 109367.38, 114546.79, 11314.41, -57931.27, -61156.05, 143529.33, 49036.24, -11627.27, 150043.19, -7034.52, -2346.28, -18318.91, 79426.72, -23375.70, 0.000, 0.000, 0.000, 16:50:08.715
222, -58289.68, -52283.90, 109367.38, 114546.79, 11314.41, -57931.27, -61156.05, 143529.33, 49035.99, -11626.28, 150047.55, -7017.08, -2338.64, -18297.18, 79432.64, -23369.20, 0.000, 0.000, 0.000, 16:50:08.716
223, -58286.33, -52277.51, 109364.18, 114537.51, 11327.04, -57935.96, -61172.41, 143511.53, 49035.99, -11626.28, 150047.55, -7017.08, -2338.64, -18297.18, 79432.64, -23369.20, 0.000, 0.000, 0.000, 16:50:08.716
224, -58286.33, -52277.51, 109364.18, 114537.51, 11327.04, -57935.96, -61172.41, 143511.53, 49026.79, -11626.89, 150040.39, -7021.46, -2351.40, -18314.30, 79427.68, -23384.04, 0.000, 0.000, 0.000, 16:50:08.716
225, -58265.48, -52261.80, 109363.22, 114533.76, 11340.09, -57941.02, -61188.70, 143517.28, 49026.79, -11626.89, 150040.39, -7021.46, -2351.40, -18314.30, 79427.68, -23384.04, -0.056, 0.878, 0.378, 16:50:08.716
226, -58265.48, -52261.80, 109363.22, 114533.76, 11340.09, -57941.02, -61188.70, 143517.28, 49019.23, -11623.69, 150038.38, -7025.02, -2359.14, -18318.44, 79411.38, -23401.85, 0.000, 0.000, 0.000, 16:50:08.717
227, -58254.93, -52254.02, 109366.21, 114532.08, 11323.95, -57940.26, -61196.53, 143512.67, 49019.23, -11623.69, 150038.38, -7025.02, -2359.14, -18318.44, 79411.38, -23401.85, 0.000, 0.000, 0.000, 16:50:08.717
228, -58254.93, -52254.02, 109366.21, 114532.08, 11323.95, -57940.26, -61196.53, 143512.67, 49014.80, -11623.17, 150036.89, -7024.26, -2365.89, -18318.08, 79398.53, -23406.61, 0.000, 0.000, 0.000, 16:50:08.718
229, -58252.60, -52254.75, 109369.70, 114529.35, 11323.15, -57937.33, -61188.95, 143522.88, 49014.80, -11623.17, 150036.89, -7024.26, -2365.89, -18318.08, 79398.53, -23406.61, 0.000, 0.000, 0.000, 16:50:08.718
230, -58252.60, -52254.75, 109369.70, 114529.35, 11323.15, -57937.33, -61188.95, 143522.88, 49020.55, -11623.13, 150035.92, -7024.66, -2366.38, -18318.75, 79410.83, -23403.13, 0.000, 0.000, 0.000, 16:50:08.718
231, -58261.52, -52265.17, 109366.48, 114523.79, 11326.46, -57947.01, -61175.89, 143511.47, 49020.55, -11623.13, 150035.92, -7024.66, -2366.38, -18318.75, 79410.83, -23403.13, 0.000, 0.000, 0.000, 16:50:08.718
232, -58261.52, -52265.17, 109366.48, 114523.79, 11326.46, -57947.01, -61175.89, 143511.47, 49028.77, -11628.25, 150040.27, -7028.64, -2352.68, -18311.87, 79422.92, -23401.52, 0.000, 0.000, 0.000, 16:50:08.718
233, -58256.36, -52259.27, 109372.05, 114527.95, 11328.98, -57949.55, -61178.91, 143513.27, 49028.77, -11628.25, 150040.27, -7028.64, -2352.68, -18311.87, 79422.92, -23401.52, 0.000, 0.000, 0.000, 16:50:08.719
234, -58256.36, -52259.27, 109372.05, 114527.95, 11328.98, -57949.55, -61178.91, 143513.27, 49019.27, -11626.89, 150029.48, -7048.29, -2363.23, -18322.06, 79412.84, -23410.59, 0.000, 0.000, 0.000, 16:50:08.719
235, -58263.93, -52265.64, 109369.23, 114531.70, 11310.21, -57950.34, -61205.58, 143521.27, 49019.27, -11626.89, 150029.48, -7048.29, -2363.23, -18322.06, 79412.84, -23410.59, -0.044, 0.880, 0.380, 16:50:08.719
236, -58263.93, -52265.64, 109369.23, 114531.70, 11310.21, -57950.34, -61205.58, 143521.27, 49021.84, -11631.11, 150034.36, -7047.82, -2362.62, -18320.05, 79406.76, -23405.58, 0.000, 0.000, 0.000, 16:50:08.719
237, -58267.26, -52266.07, 109376.11, 114533.98, 11301.33, -57953.51, -61216.69, 143520.86, 49021.84, -11631.11, 150034.36, -7047.82, -2362.62, -18320.05, 79406.76, -23405.58, 0.000, 0.000, 0.000, 16:50:08.720
238, -58267.26, -52266.07, 109376.11, 114533.98, 11301.33, -57953.51, -61216.69, 143520.86, 49010.29, -11635.78, 150025.28, -7052.09, -2366.89, -18331.49, 79393.77, -23418.39, 0.000, 0.000, 0.000, 16:50:08.720
239, -58258.12, -52256.97, 109380.59, 114534.34, 11318.05, -57961.87, -61155.27, 143524.91, 49010.29, -11635.78, 150025.28, -7052.09, -2366.89, -18331.49, 79393.77, -23418.39, 0.000, 0.000, 0.000, 16:50:08.720
240, -58258.12, -52256.97, 109380.59, 114534.34, 11318.05, -57961.87, -61155.27, 143524.91, 48995.09, -11638.02, 150009.61, -7069.43, -2385.78, -18341.66, 79388.72, -23446.24, 0.000, 0.000, 0.000, 16:50:08.720
241, -58255.21, -52254.82, 109378.33, 114541.66, 11329.07, -57947.90, -61159.07, 143531.19, 48995.09, -11638.02, 150009.61, -7069.43, -2385.78, -18341.66, 79388.72, -23446.24, 0.000, 0.000, 0.000, 16:50:09.174
242, -58255.21, -52254.82, 109378.33, 114541.66, 11329.07, -57947.90, -61159.07, 143531.19, 48992.86, -11637.39, 150011.00, -7056.69, -2388.13, -18339.36, 79387.07, -23439.92, 0.000, 0.000, 0.000, 16:50:09.175
243, -58258.75, -52256.10, 109377.85, 114547.01, 11326.50, -57943.05, -61169.48, 143534.34, 48992.86, -11637.39, 150011.00, -7056.69, -2388.13, -18339.36, 79387.07, -23439.92, 0.000, 0.000, 0.000, 16:50:09.175
244, -58258.75, -52256.10, 109377.85, 114547.01, 11326.50, -57943.05, -61169.48, 143534.34, 49013.20, -11639.76, 150021.03, -7025.42, -2369.33, -18318.71, 79396.52, -23420.51, 0.000, 0.000, 0.000, 16:50:09.175
245, -58279.45, -52261.68, 109375.22, 114552.20, 11318.45, -57941.57, -61158.13, 143524.50, 49013.20, -11639.76, 150021.03, -7025.42, -2369.33, -18318.71, 79396.52, -23420.51, -0.048, 0.870, 0.382, 16:50:09.175
246, -58279.45, -52261.68, 109375.22, 114552.20, 11318.45, -57941.57, -61158.13, 143524.50, 49014.56, -11645.21, 150018.00, -7021.49, -2375.30, -18313.05, 79400.93, -23434.64, 0.000, 0.000, 0.000, 16:50:09.175
247, -58281.81, -52255.67, 109372.00, 114553.09, 11321.87, -57945.75, -61190.80, 143532.42, 49014.56, -11645.21, 150018.00, -7021.49, -2375.30, -18313.05, 79400.93, -23434.64, 0.000, 0.000, 0.000, 16:50:09.175
248, -58281.81, -52255.67, 109372.00, 114553.09, 11321.87, -57945.75, -61190.80, 143532.42, 49005.15, -11640.52, 150005.14, -7027.95, -2385.38, -18318.84, 79387.65, -23443.89, 0.000, 0.000, 0.000, 16:50:09.176
249, -58274.44, -52245.79, 109373.61, 114555.08, 11325.63, -57945.20, -61174.46, 143530.77, 49005.15, -11640.52, 150005.14, -7027.95, -2385.38, -18318.84, 79387.65, -23443.89, 0.000, 0.000, 0.000, 16:50:09.176
250, -58274.44, -52245.79, 109373.61, 114555.08, 11325.63, -57945.20, -61174.46, 143530.77, 48999.43, -11633.08, 149999.78, -7031.50, -2392.64, -18329.08, 79381.01, -23448.66, 0.000, 0.000, 0.000, 16:50:09.176
251, -58279.31, -52241.43, 109382.48, 114560.20, 11314.72, -57937.93, -61192.05, 143540.34, 48999.43, -11633.08, 149999.78, -7031.50, -2392.64, -18329.08, 79381.01, -23448.66, 0.000, 0.000, 0.000, 16:50:09.176
252, -58279.31, -52241.43, 109382.48, 114560.20, 11314.72, -57937.93, -61192.05, 143540.34, 49009.42, -11633.43, 150017.89, -7018.02, -2376.39, -18316.87, 79384.97, -23457.80, 0.000, 0.000, 0.000, 16:50:09.176
253, -58280.41, -52239.89, 109378.64, 114550.36, 11324.26, -57952.77, -61173.14, 143525.73, 49009.42, -11633.43, 150017.89, -7018.02, -2376.39, -18316.87, 79384.97, -23457.80, 0.000, 0.000, 0.000, 16:50:09.176
254, -58280.41, -52239.89, 109378.64, 114550.36, 11324.26, -57952.77, -61173.14, 143525.73, 48998.11, -11633.12, 150000.72, -7039.99, -2395.57, -18352.59, 79369.63, -23514.84, 0.000, 0.000, 0.000, 16:50:09.177
255, -58282.37, -52239.80, 109379.45, 114546.18, 11318.01, -57955.61, -61186.71, 143523.88, 48998.11, -11633.12, 150000.72, -7039.99, -2395.57, -18352.59, 79369.63, -23514.84, -0.050, 0.870, 0.384, 16:50:09.177
0, -58282.37, -52239.80, 109379.45, 114546.18, 11318.01, -57955.61, -61186.71, 143523.88, 49006.87, -11631.85, 150008.77, -7026.20, -2386.21, -18341.17, 79385.59, -23521.75, 0.000, 0.000, 0.000, 16:50:09.177
1, -58286.04, -52242.71, 109378.37, 114537.98, 11322.28, -57958.50, -61181.84, 143522.16, 49006.87, -11631.85, 150008.77, -7026.20, -2386.21, -18341.17, 79385.59, -23521.75, 0.000, 0.000, 0.000, 16:50:09.177
2, -58286.04, -52242.71, 109378.37, 114537.98, 11322.28, -57958.50, -61181.84, 143522.16, 49009.06, -11634.78, 150006.03, -7031.77, -2390.32, -18343.56, 79385.15, -23535.18, 0.000, 0.000, 0.000, 16:50:09.177
3, -58296.77, -52243.85, 109374.80, 114532.68, 11317.74, -57960.95, -61218.07, 143513.45, 49009.06, -11634.78, 150006.03, -7031.77, -2390.32, -18343.56, 79385.15, -23535.18, 0.000, 0.000, 0.000, 16:50:09.178
4, -58296.77, -52243.85, 109374.80, 114532.68, 11317.74, -57960.95, -61218.07, 143513.45, 49011.81, -11639.38, 150005.88, -7029.85, -2391.79, -18345.93, 79387.47, -23522.75, 0.000, 0.000, 0.000, 16:50:09.178
5, -58294.80, -52243.04, 109375.58, 114537.33, 11328.24, -57963.97, -61164.94, 143526.63, 49011.81, -11639.38, 150005.88, -7029.85, -2391.79, -18345.93, 79387.47, -23522.75, 0.000, 0.000, 0.000, 16:50:09.178
6, -58294.80, -52243.04, 109375.58, 114537.33, 11328.24, -57963.97, -61164.94, 143526.63, 49004.99, -11634.95, 149996.61, -7037.18, -2397.29, -18348.50, 79398.42, -23503.82, 0.000, 0.000, 0.000, 16:50:09.178
7, -58288.81, -52246.82, 109374.73, 114537.22, 11347.33, -57960.39, -61173.14, 143522.69, 49004.99, -11634.95, 149996.61, -7037.18, -2397.29, -18348.50, 79398.42, -23503.82, 0.000, 0.000, 0.000, 16:50:09.178
8, -58288.81, -52246.82, 109374.73, 114537.22, 11347.33, -57960.39, -61173.14, 143522.69, 49001.13, -11631.74, 149990.50, -7048.20, -2402.34, -18349.91, 79387.76, -23512.76, 0.000, 0.000, 0.000, 16:50:09.178
9, -58278.39, -52251.05, 109366.52, 114528.66, 11352.54, -57962.63, -61160.43, 143507.25, 49001.13, -11631.74, 149990.50, -7048.20, -2402.34, -18349.91, 79387.76, -23512.76, -0.052, 0.874, 0.382, 16:50:09.179
10, -58278.39, -52251.05, 109366.52, 114528.66, 11352.54, -57962.63, -61160.43, 143507.25, 49006.78, -11629.21, 149989.55, -7049.70, -2397.76, -18343.63, 79377.95, -23523.31, 0.000, 0.000, 0.000, 16:50:09.179
11, -58291.61, -52257.68, 109370.37, 114535.50, 11339.06, -57949.06, -61177.19, 143523.47, 49006.78, -11629.21, 149989.55, -7049.70, -2397.76, -18343.63, 79377.95, -23523.31, 0.000, 0.000, 0.000, 16:50:09.179
12, -58291.61, -52257.68, 109370.37, 114535.50, 11339.06, -57949.06, -61177.19, 143523.47, 49016.77, -11637.77, 150004.91, -7032.17, -2386.52, -18330.84, 79386.04, -23514.04, 0.000, 0.000, 0.000, 16:50:09.179
13, -58295.20, -52256.84, 109362.45, 114533.20, 11342.66, -57943.52, -61177.13, 143532.86, 49016.77, -11637.77, 150004.91, -7032.17, -2386.52, -18330.84, 79386.04, -23514.04, 0.000, 0.000, 0.000, 16:50:09.179
14, -58295.20, -52256.84, 109362.45, 114533.20, 11342.66, -57943.52, -61177.13, 143532.86, 49006.11, -11643.94, 149995.78, -7033.94, -2398.72, -18335.25, 79380.36, -23516.78, 0.000, 0.000, 0.000, 16:50:09.180
15, -58276.56, -52252.07, 109358.79, 114537.69, 11359.16, -57943.81, -61188.93, 143535.13, 49006.11, -11643.94, 149995.78, -7033.94, -2398.72, -18335.25, 79380.36, -23516.78, 0.000, 0.000, 0.000, 16:50:09.180
16, -58276.56, -52252.07, 109358.79, 114537.69, 11359.16, -57943.81, -61188.93, 143535.13, 48994.69, -11641.01, 149983.28, -7047.84, -2418.15, -18354.96, 79360.94, -23521.70, 0.000, 0.000, 0.000, 16:50:09.180
17, -58271.11, -52254.09, 109364.40, 114544.33, 11351.56, -57952.77, -61181.15, 143533.36, 48994.69, -11641.01, 149983.28, -7047.84, -2418.15, -18354.96, 79360.94, -23521.70, 0.000, 0.000, 0.000, 16:50:09.180
18, -58271.11, -52254.09, 109364.40, 114544.33, 11351.56, -57952.77, -61181.15, 143533.36, 49010.20, -11639.69, 149994.06, -7031.84, -2400.02, -18341.53, 79364.67, -23524.72, 0.000, 0.000, 0.000, 16:50:09.180
19, -58290.13, -52260.86, 109367.10, 114546.45, 11337.54, -57955.07, -61173.44, 143523.75, 49010.20, -11639.69, 149994.06, -7031.84, -2400.02, -18341.53, 79364.67, -23524.72, -0.050, 0.868, 0.386, 16:50:09.181
20, -58290.13, -52260.86, 109367.10, 114546.45, 11337.54, -57955.07, -61173.44, 143523.75, 49004.61, -11643.45, 149990.34, -7035.28, -2407.71, -18356.64, 79365.48, -23488.13, 0.000, 0.000, 0.000, 16:50:09.181
21, -58278.80, -52252.61, 109364.16, 114542.90, 11348.94, -57964.42, -61192.86, 143515.67, 49004.61, -11643.45, 149990.34, -7035.28, -2407.71, -18356.64, 79365.48, -23488.13, 0.000, 0.000, 0.000, 16:50:09.181
22, -58278.80, -52252.61, 109364.16, 114542.90, 11348.94, -57964.42, -61192.86, 143515.67, 49001.75, -11635.56, 149981.41, -7046.10, -2412.36, -18360.46, 79346.59, -23500.15, 0.000, 0.000, 0.000, 16:50:09.181
23, -58284.16, -52255.05, 109375.53, 114548.80, 11348.43, -57960.98, -61198.43, 143534.63, 49001.75, -11635.56, 149981.41, -7046.10, -2412.36, -18360.46, 79346.59, -23500.15, 0.000, 0.000, 0.000, 16:50:09.181
24, -58284.16, -52255.05, 109375.53, 114548.80, 11348.43, -57960.98, -61198.43, 143534.63, 48996.30, -11637.19, 149974.75, -7057.63, -2418.03, -18366.99, 79353.49, -23487.23, 0.000, 0.000, 0.000, 16:50:09.181
25, -58296.79, -52266.31, 109372.09, 114545.06, 11357.37, -57970.12, -61205.54, 143520.19, 48996.30, -11637.19, 149974.75, -7057.63, -2418.03, -18366.99, 79353.49, -23487.23, 0.000, 0.000, 0.000, 16:50:09.182
26, -58296.79, -52266.31, 109372.09, 114545.06, 11357.37, -57970.12, -61205.54, 143520.19, 49000.01, -11641.28, 149975.06, -7051.82, -2416.74, -18364.04, 79358.79, -23466.00, 0.000, 0.000, 0.000, 16:50:09.182
27, -58299.72, -52261.53, 109371.64, 114544.44, 11366.17, -57974.10, -61204.66, 143520.34, 49000.01, -11641.28, 149975.06, -7051.82, -2416.74, -18364.04, 79358.79, -23466.00, 0.000, 0.000, 0.000, 16:50:09.182
28, -58299.72, -52261.53, 109371.64, 114544.44, 11366.17, -57974.10, -61204.66, 143520.34, 49009.42, -11640.90, 149981.39, -7047.71, -2410.39, -18359.45, 79348.96, -23467.01, 0.000, 0.000, 0.000, 16:50:09.183
29, -58307.30, -52258.53, 109375.60, 114541.78, 11361.19, -57972.04, -61210.34, 143517.58, 49009.42, -11640.90, 149981.39, -7047.71, -2410.39, -18359.45, 79348.96, -23467.01, -0.052, 0.870, 0.386, 16:50:09.183
30, -58307.30, -52258.53, 109375.60, 114541.78, 11361.19, -57972.04, -61210.34, 143517.58, 49007.11, -11653.15, 149983.70, -7044.17, -2409.79, -18366.07, 79350.37, -23468.48, 0.000, 0.000, 0.000, 16:50:09.183
31, -58309.64, -52252.54, 109371.82, 114542.65, 11367.18, -57970.54, -61201.00, 143505.59, 49007.11, -11653.15, 149983.70, -7044.17, -2409.79, -18366.07, 79350.37, -23468.48, 0.000, 0.000, 0.000, 16:50:09.183
32, -58309.64, -52252.54, 109371.82, 114542.65, 11367.18, -57970.54, -61201.00, 143505.59, 49005.30, -11662.49, 149981.34, -7041.45, -2414.57, -18365.85, 79323.48, -23483.32, 0.000, 0.000, 0.000, 16:50:09.183
33, -58316.68, -52248.39, 109363.02, 114547.91, 11361.75, -57964.91, -61213.63, 143506.36, 49005.30, -11662.49, 149981.34, -7041.45, -2414.57, -18365.85, 79323.48, -23483.32, 0.000, 0.000, 0.000, 16:50:09.184
34, -58316.68, -52248.39, 109363.02, 114547.91, 11361.75, -57964.91, -61213.63, 143506.36, 49006.42, -11664.53, 149980.30, -7040.08, -2424.16, -18365.31, 79232.86, -23466.63, 0.000, 0.000, 0.000, 16:50:09.184
35, -58304.03, -52237.16, 109356.62, 114540.28, 11378.42, -57969.79, -61211.75, 143508.95, 49006.42, -11664.53, 149980.30, -7040.08, -2424.16, -18365.31, 79232.86, -23466.63, 0.000, 0.000, 0.000, 16:50:09.184
36, -58304.03, -52237.16, 109356.62, 114540.28, 11378.42, -57969.79, -61211.75, 143508.95, 48990.48, -11664.12, 149959.44, -7063.75, -2440.03, -18388.53, 79180.29, -23492.82, 0.000, 0.000, 0.000, 16:50:09.184
37, -58303.85, -52242.44, 109353.58, 114538.02, 11368.07, -57968.49, -61225.70, 143503.53, 48990.48, -11664.12, 149959.44, -7063.75, -2440.03, -18388.53, 79180.29, -23492.82, 0.000, 0.000, 0.000, 16:50:09.184
38, -58303.85, -52242.44, 109353.58, 114538.02, 11368.07, -57968.49, -61225.70, 143503.53, 49001.41, -11663.94, 149963.22, -7061.23, -2431.87, -18371.55, 79154.25, -23516.38, 0.000, 0.000, 0.000, 16:50:09.184
39, -58311.14, -52254.11, 109351.75, 114537.40, 11365.71, -57970.36, -61237.47, 143508.75, 49001.41, -11663.94, 149963.22, -7061.23, -2431.87, -18371.55, 79154.25, -23516.38, -0.054, 0.876, 0.390, 16:50:09.185
40, -58311.14, -52254.11, 109351.75, 114537.40, 11365.71, -57970.36, -61237.47, 143508.75, 49002.18, -11660.19, 149968.16, -7058.66, -2430.73, -18367.28, 79147.62, -23496.51, 0.000, 0.000, 0.000, 16:50:09.185
41, -58308.79, -52256.70, 109360.55, 114544.73, 11374.60, -57962.63, -61191.61, 143509.34, 49002.18, -11660.19, 149968.16, -7058.66, -2430.73, -18367.28, 79147.62, -23496.51, 0.000, 0.000, 0.000, 16:50:09.185
42, -58308.79, -52256.70, 109360.55, 114544.73, 11374.60, -57962.63, -61191.61, 143509.34, 49003.92, -11653.06, 149960.69, -7055.95, -2430.64, -18373.07, 79135.43, -23491.46, 0.000, 0.000, 0.000, 16:50:09.185
43, -58317.89, -52267.72, 109361.34, 114542.56, 11372.68, -57967.50, -61220.33, 143508.45, 49003.92, -11653.06, 149960.69, -7055.95, -2430.64, -18373.07, 79135.43, -23491.46, 0.000, 0.000, 0.000, 16:50:09.186
44, -58317.89, -52267.72, 109361.34, 114542.56, 11372.68, -57967.50, -61220.33, 143508.45, 49008.57, -11647.47, 149966.83, -7052.15, -2419.35, -18360.71, 79121.64, -23486.83, 0.000, 0.000, 0.000, 16:50:09.186
45, -58309.29, -52256.50, 109366.21, 114541.94, 11384.17, -57969.61, -61229.38, 143512.20, 49008.57, -11647.47, 149966.83, -7052.15, -2419.35, -18360.71, 79121.64, -23486.83, 0.000, 0.000, 0.000, 16:50:09.186
46, -58309.29, -52256.50, 109366.21, 114541.94, 11384.17, -57969.61, -61229.38, 143512.20, 48984.14, -11646.82, 149944.30, -7072.20, -2447.18, -18393.12, 79087.64, -23509.70, 0.000, 0.000, 0.000, 16:50:09.186
47, -58306.36, -52255.23, 109370.52, 114543.61, 11393.71, -57976.82, -61231.28, 143497.23, 48984.14, -11646.82, 149944.30, -7072.20, -2447.18, -18393.12, 79087.64, -23509.70, 0.000, 0.000, 0.000, 16:50:09.186
48, -58306.36, -52255.23, 109370.52, 114543.61, 11393.71, -57976.82, -61231.28, 143497.23, 48986.46, -11637.97, 149948.48, -7063.42, -2446.47, -18380.82, 79086.80, -23494.99, -0.054, 0.874, 0.384, 16:50:09.187
49, -58308.10, -52253.95, 109365.85, 114542.29, 11390.94, -57978.14, -61224.46, 143514.02, 48986.46, -11637.97, 149948.48, -7063.42, -2446.47, -18380.82, 79086.80, -23494.99, 0.000, 0.000, 0.000, 16:50:09.187
50, -58308.10, -52253.95, 109365.85, 114542.29, 11390.94, -57978.14, -61224.46, 143514.02, 49003.45, -11632.27, 149955.05, -7059.17, -2430.48, -18365.58, 79082.73, -23506.84, 0.000, 0.000, 0.000, 16:50:09.187
51, -58329.91, -52264.93, 109364.89, 114543.12, 11380.12, -57974.79, -61236.43, 143508.81, 49003.45, -11632.27, 149955.05, -7059.17, -2430.48, -18365.58, 79082.73, -23506.84, 0.000, 0.000, 0.000, 16:50:09.187
52, -58329.91, -52264.93, 109364.89, 114543.12, 11380.12, -57974.79, -61236.43, 143508.81, 49005.95, -11651.03, 149954.39, -7059.53, -2427.94, -18377.83, 79074.97, -23506.68, 0.000, 0.000, 0.000, 16:50:09.187
53, -58328.91, -52262.40, 109358.45, 114535.56, 11388.30, -57973.88, -61234.19, 143497.97, 49005.95, -11651.03, 149954.39, -7059.53, -2427.94, -18377.83, 79074.97, -23506.68, 0.000, 0.000, 0.000, 16:50:09.187
54, -58328.91, -52262.40, 109358.45, 114535.56, 11388.30, -57973.88, -61234.19, 143497.97, 49009.75, -11656.79, 149955.05, -7064.72, -2431.33, -18373.56, 79065.63, -23517.10, 0.000, 0.000, 0.000, 16:50:09.188
55, -58333.80, -52263.74, 109351.55, 114529.30, 11386.40, -57978.21, -61226.68, 143494.58, 49009.75, -11656.79, 149955.05, -7064.72, -2431.33, -18373.56, 79065.63, -23517.10, 0.000, 0.000, 0.000, 16:50:09.188
56, -58333.80, -52263.74, 109351.55, 114529.30, 11386.40, -57978.21, -61226.68, 143494.58, 48998.42, -11655.92, 149945.89, -7077.84, -2445.48, -18384.35, 79037.62, -23533.50, 0.000, 0.000, 0.000, 16:50:09.188
57, -58320.97, -52255.32, 109351.41, 114538.72, 11389.71, -57977.74, -61259.02, 143505.86, 48998.42, -11655.92, 149945.89, -7077.84, -2445.48, -18384.35, 79037.62, -23533.50, 0.000, 0.000, 0.000, 16:50:09.188
58, -58320.97, -52255.32, 109351.41, 114538.72, 11389.71, -57977.74, -61259.02, 143505.86, 48992.47, -11655.12, 149941.47, -7076.74, -2452.32, -18389.63, 79021.53, -23522.24, -0.050, 0.874, 0.384, 16:50:09.188
59, -58311.39, -52248.99, 109361.07, 114547.10, 11413.34, -57973.02, -61218.88, 143506.38, 48992.47, -11655.12, 149941.47, -7076.74, -2452.32, -18389.63, 79021.53, -23522.24, 0.000, 0.000, 0.000, 16:50:09.189
60, -58311.39, -52248.99, 109361.07, 114547.10, 11413.34, -57973.02, -61218.88, 143506.38, 48985.37, -11649.71, 149931.36, -7079.09, -2462.20, -18405.97, 79022.20, -23523.96, 0.000, 0.000, 0.000, 16:50:09.189
61, -58320.37, -52259.47, 109369.38, 114556.46, 11413.83, -57968.51, -61213.29, 143518.02, 48985.37, -11649.71, 149931.36, -7079.09, -2462.20, -18405.97, 79022.20, -23523.96, 0.000, 0.000, 0.000, 16:50:09.189
62, -58320.37, -52259.47, 109369.38, 114556.46, 11413.83, -57968.51, -61213.29, 143518.02, 48987.09, -11643.63, 149936.55, -7076.25, -2460.55, -18398.95, 79021.69, -23510.21, 0.000, 0.000, 0.000, 16:50:09.189
63, -58310.98, -52259.00, 109363.38, 114546.20, 11427.08, -57978.48, -61244.85, 143504.05, 48987.09, -11643.63, 149936.55, -7076.25, -2460.55, -18398.95, 79021.69, -23510.21, 0.000, 0.000, 0.000, 16:50:09.190
64, -58310.98, -52259.00, 109363.38, 114546.20, 11427.08, -57978.48, -61244.85, 143504.05, 48985.90, -11638.44, 149933.03, -7082.66, -2465.40, -18418.11, 79007.31, -23519.42, 0.000, 0.000, 0.000, 16:50:09.190
65, -58315.66, -52260.39, 109366.19, 114537.42, 11430.08, -57983.62, -61266.38, 143494.84, 48985.90, -11638.44, 149933.03, -7082.66, -2465.40, -18418.11, 79007.31, -23519.42, 0.000, 0.000, 0.000, 16:50:09.190
66, -58315.66, -52260.39, 109366.19, 114537.42, 11430.08, -57983.62, -61266.38, 143494.84, 48982.62, -11639.49, 149929.59, -7093.19, -2467.21, -18433.84, 78992.88, -23526.04, 0.000, 0.000, 0.000, 16:50:09.190
67, -58315.34, -52259.74, 109368.52, 114527.56, 11442.01, -57992.96, -61257.59, 143501.95, 48982.62, -11639.49, 149929.59, -7093.19, -2467.21, -18433.84, 78992.88, -23526.04, 0.000, 0.000, 0.000, 16:50:09.190
68, -58315.34, -52259.74, 109368.52, 114527.56, 11442.01, -57992.96, -61257.59, 143501.95, 48969.77, -11635.54, 149915.05, -7109.51, -2478.94, -18448.01, 78978.84, -23539.61, -0.048, 0.874, 0.380, 16:50:09.190
69, -58304.61, -52257.53, 109367.77, 114526.76, 11454.80, -57996.25, -61264.30, 143498.70, 48969.77, -11635.54, 149915.05, -7109.51, -2478.94, -18448.01, 78978.84, -23539.61, 0.000, 0.000, 0.000, 16:50:09.190
70, -58304.61, -52257.53, 109367.77, 114526.76, 11454.80, -57996.25, -61264.30, 143498.70, 48968.67, -11627.15, 149905.98, -7110.67, -2478.16, -18447.12, 78960.59, -23551.67, 0.000, 0.000, 0.000, 16:50:09.191
71, -58309.62, -52260.75, 109378.68, 114540.66, 11451.63, -57988.09, -61273.77, 143496.45, 48968.67, -11627.15, 149905.98, -7110.67, -2478.16, -18447.12, 78960.59, -23551.67, 0.000, 0.000, 0.000, 16:50:09.191
72, -58309.62, -52260.75, 109378.68, 114540.66, 11451.63, -57988.09, -61273.77, 143496.45, 48976.61, -11624.76, 149918.64, -7089.55, -2467.70, -18429.46, 78958.49, -23534.53, 0.000, 0.000, 0.000, 16:50:09.191
73, -58320.53, -52258.76, 109373.50, 114541.22, 11455.60, -57989.54, -61283.07, 143482.89, 48976.61, -11624.76, 149918.64, -7089.55, -2467.70, -18429.46, 78958.49, -23534.53, 0.000, 0.000, 0.000, 16:50:09.191
74, -58320.53, -52258.76, 109373.50, 114541.22, 11455.60, -57989.54, -61283.07, 143482.89, 48988.34, -11624.94, 149931.50, -7074.15, -2458.71, -18406.50, 78957.36, -23510.08, 0.000, 0.000, 0.000, 16:50:09.191
75, -58332.02, -52255.02, 109387.00, 114558.16, 11453.84, -57971.30, -61283.27, 143511.34, 48988.34, -11624.94, 149931.50, -7074.15, -2458.71, -18406.50, 78957.36, -23510.08, 0.000, 0.000, 0.000, 16:50:09.191
76, -58332.02, -52255.02, 109387.00, 114558.16, 11453.84, -57971.30, -61283.27, 143511.34, 48993.30, -11636.90, 149942.27, -7066.12, -2450.31, -18394.26, 78960.09, -23496.42, 0.000, 0.000, 0.000, 16:50:09.192
77, -58332.60, -52250.60, 109395.42, 114571.41, 11465.98, -57966.79, -61269.41, 143514.95, 48993.30, -11636.90, 149942.27, -7066.12, -2450.31, -18394.26, 78960.09, -23496.42, 0.000, 0.000, 0.000, 16:50:09.192
78, -58332.60, -52250.60, 109395.42, 114571.41, 11465.98, -57966.79, -61269.41, 143514.95, 48963.68, -11646.20, 149908.97, -7088.61, -2487.44, -18424.05, 78944.68, -23506.03, -0.050, 0.870, 0.378, 16:50:09.192
79, -58312.30, -52240.92, 109386.21, 114563.86, 11484.42, -57978.05, -61287.05, 143507.38, 48963.68, -11646.20, 149908.97, -7088.61, -2487.44, -18424.05, 78944.68, -23506.03, 0.000, 0.000, 0.000, 16:50:09.192
80, -58312.30, -52240.92, 109386.21, 114563.86, 11484.42, -57978.05, -61287.05, 143507.38, 48973.74, -11638.82, 149912.41, -7090.29, -2475.77, -18416.05, 78937.10, -23529.48, 0.000, 0.000, 0.000, 16:50:09.192
81, -58337.92, -52253.23, 109386.80, 114561.52, 11463.05, -57984.11, -61302.96, 143491.94, 48973.74, -11638.82, 149912.41, -7090.29, -2475.77, -18416.05, 78937.10, -23529.48, 0.000, 0.000, 0.000, 16:50:09.193
82, -58337.92, -52253.23, 109386.80, 114561.52, 11463.05, -57984.11, -61302.96, 143491.94, 48981.39, -11646.64, 149925.39, -7082.35, -2467.39, -18414.17, 78951.99, -23558.20, 0.000, 0.000, 0.000, 16:50:09.193
83, -58329.76, -52244.07, 109386.98, 114564.53, 11492.62, -57981.90, -61269.06, 143509.13, 48981.39, -11646.64, 149925.39, -7082.35, -2467.39, -18414.17, 78951.99, -23558.20, 0.000, 0.000, 0.000, 16:50:09.193
84, -58329.76, -52244.07, 109386.98, 114564.53, 11492.62, -57981.90, -61269.06, 143509.13, 48963.13, -11647.78, 149909.97, -7095.40, -2485.67, -18434.71, 78940.88, -23570.45, 0.000, 0.000, 0.000, 16:50:09.194
85, -58320.91, -52242.82, 109378.99, 114561.74, 11508.62, -57986.04, -61286.11, 143500.70, 48963.13, -11647.78, 149909.97, -7095.40, -2485.67, -18434.71, 78940.88, -23570.45, 0.000, 0.000, 0.000, 16:50:09.194
86, -58320.91, -52242.82, 109378.99, 114561.74, 11508.62, -57986.04, -61286.11, 143500.70, 48961.96, -11643.49, 149898.89, -7098.22, -2491.88, -18440.52, 78924.19, -23584.53, 0.000, 0.000, 0.000, 16:50:09.194
87, -58314.40, -52233.12, 109383.87, 114565.49, 11504.49, -57981.79, -61292.23, 143510.08, 48961.96, -11643.49, 149898.89, -7098.22, -2491.88, -18440.52, 78924.19, -23584.53, 0.000, 0.000, 0.000, 16:50:09.195
88, -58314.40, -52233.12, 109383.87, 114565.49, 11504.49, -57981.79, -61292.23, 143510.08, 48952.62, -11642.13, 149894.33, -7100.23, -2504.45, -18454.31, 78920.63, -23589.09, -0.046, 0.874, 0.380, 16:50:09.195
89, -58306.11, -52229.97, 109377.84, 114554.20, 11498.38, -58000.72, -61305.16, 143486.22, 48952.62, -11642.13, 149894.33, -7100.23, -2504.45, -18454.31, 78920.63, -23589.09, 0.000, 0.000, 0.000, 16:50:09.195
90, -58306.11, -52229.97, 109377.84, 114554.20, 11498.38, -58000.72, -61305.16, 143486.22, 48954.83, -11635.58, 149898.06, -7099.94, -2507.49, -18454.36, 78919.91, -23596.76, 0.000, 0.000, 0.000, 16:50:09.195
91, -58303.25, -52226.86, 109379.98, 114562.72, 11518.39, -57992.52, -61293.02, 143499.25, 48954.83, -11635.58, 149898.06, -7099.94, -2507.49, -18454.36, 78919.91, -23596.76, 0.000, 0.000, 0.000, 16:50:09.195
92, -58303.25, -52226.86, 109379.98, 114562.72, 11518.39, -57992.52, -61293.02, 143499.25, 48957.67, -11637.08, 149893.39, -7105.02, -2504.29, -18456.88, 78902.41, -23578.45, 0.000, 0.000, 0.000, 16:50:09.195
93, -58326.16, -52240.70, 109369.97, 114556.40, 11510.10, -57986.05, -61318.21, 143494.28, 48957.67, -11637.08, 149893.39, -7105.02, -2504.29, -18456.88, 78902.41, -23578.45, 0.000, 0.000, 0.000, 16:50:09.195
94, -58326.16, -52240.70, 109369.97, 114556.40, 11510.10, -57986.05, -61318.21, 143494.28, 48954.59, -11644.14, 149883.27, -7124.44, -2518.26, -18464.89, 78880.58, -23579.28, 0.000, 0.000, 0.000, 16:50:09.196
95, -58325.02, -52244.09, 109371.59, 114558.07, 11515.60, -57985.00, -61285.44, 143493.81, 48954.59, -11644.14, 149883.27, -7124.44, -2518.26, -18464.89, 78880.58, -23579.28, 0.000, 0.000, 0.000, 16:50:09.196
96, -58325.02, -52244.09, 109371.59, 114558.07, 11515.60, -57985.00, -61285.44, 143493.81, 48962.12, -11648.63, 149884.33, -7123.90, -2509.72, -18450.69, 78874.74, -23581.51, 0.000, 0.000, 0.000, 16:50:09.196
97, -58335.01, -52254.51, 109370.95, 114545.71, 11525.21, -57997.41, -61302.63, 143485.09, 48962.12, -11648.63, 149884.33, -7123.90, -2509.72, -18450.69, 78874.74, -23581.51, 0.000, 0.000, 0.000, 16:50:09.196
98, -58335.01, -52254.51, 109370.95, 114545.71, 11525.21, -57997.41, -61302.63, 143485.09, 48961.41, -11647.02, 149886.45, -7128.69, -2512.89, -18457.24, 78874.12, -23585.18, -0.044, 0.870, 0.382, 16:50:09.196
99, -58344.27, -52256.34, 109383.40, 114559.33, 11520.65, -57989.57, -61321.11, 143493.45, 48961.41, -11647.02, 149886.45, -7128.69, -2512.89, -18457.24, 78874.12, -23585.18, 0.000, 0.000, 0.000, 16:50:09.197
100, -58344.27, -52256.34, 109383.40, 114559.33, 11520.65, -57989.57, -61321.11, 143493.45, 48951.14, -11650.38, 149888.06, -7121.18, -2518.24, -18456.73, 78865.94, -23582.70, 0.000, 0.000, 0.000, 16:50:09.197
101, -58324.62, -52244.36, 109383.53, 114560.60, 11541.23, -57990.53, -61313.40, 143492.25, 48951.14, -11650.38, 149888.06, -7121.18, -2518.24, -18456.73, 78865.94, -23582.70, 0.000, 0.000, 0.000, 16:50:09.197
102, -58324.62, -52244.36, 109383.53, 114560.60, 11541.23, -57990.53, -61313.40, 143492.25, 48941.16, -11649.42, 149870.63, -7137.65, -2534.73, -18476.96, 78854.80, -23615.24, 0.000, 0.000, 0.000, 16:50:09.197
103, -58334.27, -52250.17, 109379.45, 114559.28, 11518.28, -57998.30, -61342.55, 143487.44, 48941.16, -11649.42, 149870.63, -7137.65, -2534.73, -18476.96, 78854.80, -23615.24, 0.000, 0.000, 0.000, 16:50:09.198
104, -58334.27, -52250.17, 109379.45, 114559.28, 11518.28, -57998.30, -61342.55, 143487.44, 48949.45, -11652.32, 149873.53, -7135.24, -2523.67, -18462.63, 78864.73, -23611.11, 0.000, 0.000, 0.000, 16:50:09.198
105, -58331.52, -52243.56, 109381.70, 114560.91, 11520.04, -57995.09, -61312.22, 143484.81, 48949.45, -11652.32, 149873.53, -7135.24, -2523.67, -18462.63, 78864.73, -23611.11, 0.000, 0.000, 0.000, 16:50:09.655
106, -58331.52, -52243.56, 109381.70, 114560.91, 11520.04, -57995.09, -61312.22, 143484.81, 48947.39, -11659.14, 149867.59, -7140.47, -2534.98, -18464.64, 78846.31, -23613.43, 0.000, 0.000, 0.000, 16:50:09.655
107, -58337.52, -52245.30, 109382.73, 114562.68, 11513.27, -57995.18, -61315.41, 143490.27, 48947.39, -11659.14, 149867.59, -7140.47, -2534.98, -18464.64, 78846.31, -23613.43, 0.000, 0.000, 0.000, 16:50:09.655
108, -58337.52, -52245.30, 109382.73, 114562.68, 11513.27, -57995.18, -61315.41, 143490.27, 48935.19, -11669.04, 149872.22, -7142.10, -2537.91, -18468.91, 78848.64, -23598.70, -0.044, 0.862, 0.388, 16:50:09.655
109, -58334.36, -52239.54, 109393.37, 114565.49, 11525.23, -57986.23, -61263.49, 143490.69, 48935.19, -11669.04, 149872.22, -7142.10, -2537.91, -18468.91, 78848.64, -23598.70, 0.000, 0.000, 0.000, 16:50:09.655
110, -58334.36, -52239.54, 109393.37, 114565.49, 11525.23, -57986.23, -61263.49, 143490.69, 48935.81, -11672.55, 149866.92, -7142.81, -2545.17, -18475.79, 78839.95, -23611.24, 0.000, 0.000, 0.000, 16:50:09.656
111, -58341.83, -52252.36, 109379.55, 114558.81, 11519.98, -57990.77, -61305.89, 143491.06, 48935.81, -11672.55, 149866.92, -7142.81, -2545.17, -18475.79, 78839.95, -23611.24, 0.000, 0.000, 0.000, 16:50:09.656
112, -58341.83, -52252.36, 109379.55, 114558.81, 11519.98, -57990.77, -61305.89, 143491.06, 48939.03, -11670.65, 149854.34, -7153.18, -2552.46, -18475.17, 78831.78, -23613.19, 0.000, 0.000, 0.000, 16:50:09.656
113, -58349.54, -52263.07, 109371.02, 114549.73, 11517.23, -57997.25, -61316.73, 143482.86, 48939.03, -11670.65, 149854.34, -7153.18, -2552.46, -18475.17, 78831.78, -23613.19, 0.000, 0.000, 0.000, 16:50:09.656
114, -58349.54, -52263.07, 109371.02, 114549.73, 11517.23, -57997.25, -61316.73, 143482.86, 48938.27, -11664.84, 149846.42, -7161.70, -2553.89, -18483.97, 78821.68, -23621.10, 0.000, 0.000, 0.000, 16:50:09.656
115, -58357.65, -52276.97, 109368.65, 114542.85, 11515.08, -58004.03, -61329.68, 143469.34, 48938.27, -11664.84, 149846.42, -7161.70, -2553.89, -18483.97, 78821.68, -23621.10, 0.000, 0.000, 0.000, 16:50:09.656
116, -58357.65, -52276.97, 109368.65, 114542.85, 11515.08, -58004.03, -61329.68, 143469.34, 48952.80, -11662.11, 149851.77, -7154.61, -2542.96, -18470.38, 78822.48, -23614.91, 0.000, 0.000, 0.000, 16:50:09.657
117, -58370.24, -52282.61, 109371.46, 114546.41, 11515.39, -58004.50, -61315.55, 143484.14, 48952.80, -11662.11, 149851.77, -7154.61, -2542.96, -18470.38, 78822.48, -23614.91, 0.000, 0.000, 0.000, 16:50:09.657
118, -58370.24, -52282.61, 109371.46, 114546.41, 11515.39, -58004.50, -61315.55, 143484.14, 48944.24, -11661.96, 149853.47, -7152.89, -2547.03, -18460.01, 78827.20, -23579.70, -0.046, 0.868, 0.394, 16:50:09.657
119, -58359.24, -52274.87, 109381.81, 114557.29, 11531.47, -57984.65, -61300.57, 143500.14, 48944.24, -11661.96, 149853.47, -7152.89, -2547.03, -18460.01, 78827.20, -23579.70, 0.000, 0.000, 0.000, 16:50:09.657
120, -58359.24, -52274.87, 109381.81, 114557.29, 11531.47, -57984.65, -61300.57, 143500.14, 48943.21, -11654.49, 149844.66, -7158.48, -2557.33, -18465.85, 78819.67, -23581.02, 0.000, 0.000, 0.000, 16:50:09.657
121, -58367.60, -52284.75, 109379.11, 114556.58, 11524.96, -57993.05, -61331.82, 143487.64, 48943.21, -11654.49, 149844.66, -7158.48, -2557.33, -18465.85, 78819.67, -23581.02, 0.000, 0.000, 0.000, 16:50:09.657
122, -58367.60, -52284.75, 109379.11, 114556.58, 11524.96, -57993.05, -61331.82, 143487.64, 48947.43, -11656.70, 149844.17, -7160.85, -2549.17, -18469.38, 78809.48, -23592.98, 0.000, 0.000, 0.000, 16:50:09.658
123, -58364.92, -52282.54, 109385.19, 114559.26, 11525.65, -57993.61, -61329.52, 143487.28, 48947.43, -11656.70, 149844.17, -7160.85, -2549.17, -18469.38, 78809.48, -23592.98, 0.000, 0.000, 0.000, 16:50:09.658
124, -58364.92, -52282.54, 109385.19, 114559.26, 11525.65, -57993.61, -61329.52, 143487.28, 48946.23, -11659.83, 149846.89, -7160.31, -2546.38, -18467.23, 78812.67, -23591.44, 0.000, 0.000, 0.000, 16:50:09.658
125, -58363.67, -52279.70, 109393.75, 114563.08, 11529.36, -57989.48, -61323.51, 143487.98, 48946.23, -11659.83, 149846.89, -7160.31, -2546.38, -18467.23, 78812.67, -23591.44, 0.000, 0.000, 0.000, 16:50:09.658
126, -58363.67, -52279.70, 109393.75, 114563.08, 11529.36, -57989.48, -61323.51, 143487.98, 48937.46, -11658.36, 149846.94, -7163.13, -2551.47, -18472.73, 78803.64, -23604.47, 0.000, 0.000, 0.000, 16:50:09.658
127, -58363.58, -52276.08, 109385.81, 114562.23, 11527.82, -57987.42, -61353.75, 143488.98, 48937.46, -11658.36, 149846.94, -7163.13, -2551.47, -18472.73, 78803.64, -23604.47, 0.000, 0.000, 0.000, 16:50:09.658
128, -58363.58, -52276.08, 109385.81, 114562.23, 11527.82, -57987.42, -61353.75, 143488.98, 48932.15, -11655.07, 149836.09, -7169.25, -2562.54, -18482.57, 78786.23, -23611.38, -0.048, 0.870, 0.394, 16:50:09.659
129, -58367.82, -52279.90, 109384.20, 114563.93, 11533.50, -57987.42, -61309.80, 143499.56, 48932.15, -11655.07, 149836.09, -7169.25, -2562.54, -18482.57, 78786.23, -23611.38, 0.000, 0.000, 0.000, 16:50:09.659
130, -58367.82, -52279.90, 109384.20, 114563.93, 11533.50, -57987.42, -61309.80, 143499.56, 48936.04, -11655.92, 149836.23, -7171.87, -2558.83, -18472.02, 78803.24, -23600.42, 0.000, 0.000, 0.000, 16:50:09.659
131, -58368.76, -52279.34, 109382.57, 114570.75, 11529.39, -57978.32, -61298.83, 143498.59, 48936.04, -11655.92, 149836.23, -7171.87, -2558.83, -18472.02, 78803.24, -23600.42, 0.000, 0.000, 0.000, 16:50:09.659
132, -58368.76, -52279.34, 109382.57, 114570.75, 11529.39, -57978.32, -61298.83, 143498.59, 48935.14, -11653.53, 149835.03, -7173.84, -2564.15, -18475.01, 78799.55, -23611.85, 0.000, 0.000, 0.000, 16:50:09.659
133, -58364.18, -52279.32, 109374.05, 114563.17, 11531.91, -57987.29, -61314.52, 143491.64, 48935.14, -11653.53, 149835.03, -7173.84, -2564.15, -18475.01, 78799.55, -23611.85, 0.000, 0.000, 0.000, 16:50:09.659
134, -58364.18, -52279.32, 109374.05, 114563.17, 11531.91, -57987.29, -61314.52, 143491.64, 48938.98, -11652.32, 149838.25, -7164.94, -2561.40, -18469.34, 78796.85, -23612.54, 0.000, 0.000, 0.000, 16:50:09.660
135, -58356.38, -52277.49, 109372.54, 114564.48, 11537.03, -57987.31, -61318.05, 143487.27, 48938.98, -11652.32, 149838.25, -7164.94, -2561.40, -18469.34, 78796.85, -23612.54, 0.000, 0.000, 0.000, 16:50:09.660
136, -58356.38, -52277.49, 109372.54, 114564.48, 11537.03, -57987.31, -61318.05, 143487.27, 48935.34, -11652.92, 149830.80, -7168.43, -2569.20, -18480.29, 78779.37, -23626.60, 0.000, 0.000, 0.000, 16:50:09.660
137, -58353.59, -52278.94, 109374.30, 114564.76, 11532.29, -57999.96, -61316.78, 143488.41, 48935.34, -11652.92, 149830.80, -7168.43, -2569.20, -18480.29, 78779.37, -23626.60, -0.048, 0.866, 0.388, 16:50:09.660
138, -58353.59, -52278.94, 109374.30, 114564.76, 11532.29, -57999.96, -61316.78, 143488.41, 48923.05, -11658.63, 149827.16, -7179.65, -2582.57, -18496.09, 78762.25, -23623.40, 0.000, 0.000, 0.000, 16:50:09.660
139, -58344.13, -52271.63, 109379.15, 114564.94, 11540.81, -58000.52, -61321.81, 143484.02, 48923.05, -11658.63, 149827.16, -7179.65, -2582.57, -18496.09, 78762.25, -23623.40, 0.000, 0.000, 0.000, 16:50:09.660
140, -58344.13, -52271.63, 109379.15, 114564.94, 11540.81, -58000.52, -61321.81, 143484.02, 48925.71, -11659.12, 149826.59, -7184.01, -2580.87, -18486.30, 78756.10, -23632.63, 0.000, 0.000, 0.000, 16:50:09.661
141, -58350.64, -52273.78, 109392.74, 114569.20, 11544.99, -57993.34, -61328.16, 143494.44, 48925.71, -11659.12, 149826.59, -7184.01, -2580.87, -18486.30, 78756.10, -23632.63, 0.000, 0.000, 0.000, 16:50:09.661
142, -58350.64, -52273.78, 109392.74, 114569.20, 11544.99, -57993.34, -61328.16, 143494.44, 48927.34, -11670.38, 149832.03, -7184.90, -2571.01, -18485.43, 78768.53, -23625.21, 0.000, 0.000, 0.000, 16:50:09.661
143, -58346.59, -52268.86, 109395.18, 114565.43, 11562.27, -57991.96, -61329.18, 143490.17, 48927.34, -11670.38, 149832.03, -7184.90, -2571.01, -18485.43, 78768.53, -23625.21, 0.000, 0.000, 0.000, 16:50:09.661
144, -58346.59, -52268.86, 109395.18, 114565.43, 11562.27, -57991.96, -61329.18, 143490.17, 48923.36, -11674.96, 149822.16, -7190.18, -2578.23, -18497.30, 78753.51, -23636.39, 0.000, 0.000, 0.000, 16:50:09.661
145, -58351.06, -52275.18, 109392.30, 114564.51, 11550.22, -57994.44, -61364.95, 143470.13, 48923.36, -11674.96, 149822.16, -7190.18, -2578.23, -18497.30, 78753.51, -23636.39, 0.000, 0.000, 0.000, 16:50:09.661
146, -58351.06, -52275.18, 109392.30, 114564.51, 11550.22, -57994.44, -61364.95, 143470.13, 48926.00, -11681.40, 149822.98, -7182.15, -2565.38, -18487.75, 78750.78, -23653.64, 0.000, 0.000, 0.000, 16:50:09.662
147, -58334.79, -52267.90, 109395.29, 114567.08, 11559.47, -57999.02, -61371.63, 143480.52, 48926.00, -11681.40, 149822.98, -7182.15, -2565.38, -18487.75, 78750.78, -23653.64, -0.050, 0.872, 0.392, 16:50:09.662
148, -58334.79, -52267.90, 109395.29, 114567.08, 11559.47, -57999.02, -61371.63, 143480.52, 48896.90, -11683.79, 149789.23, -7211.50, -2596.49, -18523.70, 78730.84, -23671.99, 0.000, 0.000, 0.000, 16:50:09.662
149, -58334.41, -52265.42, 109394.38, 114564.98, 11550.75, -58005.55, -61367.67, 143466.39, 48896.90, -11683.79, 149789.23, -7211.50, -2596.49, -18523.70, 78730.84, -23671.99, 0.000, 0.000, 0.000, 16:50:09.662
150, -58334.41, -52265.42, 109394.38, 114564.98, 11550.75, -58005.55, -61367.67, 143466.39, 48918.40, -11682.97, 149808.20, -7197.78, -2572.78, -18494.91, 78730.58, -23659.83, 0.000, 0.000, 0.000, 16:50:09.662
151, -58354.10, -52269.75, 109397.70, 114568.69, 11549.41, -57998.82, -61375.25, 143476.27, 48918.40, -11682.97, 149808.20, -7197.78, -2572.78, -18494.91, 78730.58, -23659.83, 0.000, 0.000, 0.000, 16:50:09.663
152, -58354.10, -52269.75, 109397.70, 114568.69, 11549.41, -57998.82, -61375.25, 143476.27, 48921.98, -11687.03, 149803.78, -7197.06, -2575.55, -18500.27, 78729.59, -23661.29, 0.000, 0.000, 0.000, 16:50:09.663
153, -58367.60, -52276.71, 109389.16, 114563.82, 11558.02, -57998.35, -61367.36, 143465.53, 48921.98, -11687.03, 149803.78, -7197.06, -2575.55, -18500.27, 78729.59, -23661.29, 0.000, 0.000, 0.000, 16:50:09.663
154, -58367.60, -52276.71, 109389.16, 114563.82, 11558.02, -57998.35, -61367.36, 143465.53, 48918.78, -11688.96, 149796.14, -7199.61, -2578.30, -18506.62, 78737.05, -23673.40, 0.000, 0.000, 0.000, 16:50:09.663
155, -58367.69, -52281.40, 109389.79, 114573.30, 11572.84, -57998.04, -61334.21, 143486.42, 48918.78, -11688.96, 149796.14, -7199.61, -2578.30, -18506.62, 78737.05, -23673.40, 0.000, 0.000, 0.000, 16:50:09.663
156, -58367.69, -52281.40, 109389.79, 114573.30, 11572.84, -57998.04, -61334.21, 143486.42, 48914.42, -11695.62, 149787.69, -7204.70, -2590.50, -18514.66, 78735.27, -23666.52, 0.000, 0.000, 0.000, 16:50:09.664
157, -58365.34, -52288.98, 109374.93, 114561.49, 11575.36, -58006.95, -61360.99, 143484.84, 48914.42, -11695.62, 149787.69, -7204.70, -2590.50, -18514.66, 78735.27, -23666.52, -0.040, 0.868, 0.386, 16:50:09.664
158, -58365.34, -52288.98, 109374.93, 114561.49, 11575.36, -58006.95, -61360.99, 143484.84, 48916.59, -11692.93, 149784.64, -7207.90, -2591.48, -18515.65, 78728.85, -23659.86, 0.000, 0.000, 0.000, 16:50:09.664
159, -58355.91, -52274.87, 109383.42, 114561.98, 11591.41, -57999.09, -61338.30, 143488.22, 48916.59, -11692.93, 149784.64, -7207.90, -2591.48, -18515.65, 78728.85, -23659.86, 0.000, 0.000, 0.000, 16:50:09.664
160, -58355.91, -52274.87, 109383.42, 114561.98, 11591.41, -57999.09, -61338.30, 143488.22, 48907.43, -11688.22, 149774.36, -7217.13, -2604.18, -18511.60, 78716.05, -23668.42, 0.000, 0.000, 0.000, 16:50:09.664
161, -58373.99, -52290.77, 109377.81, 114553.40, 11567.90, -58013.70, -61351.00, 143470.97, 48907.43, -11688.22, 149774.36, -7217.13, -2604.18, -18511.60, 78716.05, -23668.42, 0.000, 0.000, 0.000, 16:50:09.665
162, -58373.99, -52290.77, 109377.81, 114553.40, 11567.90, -58013.70, -61351.00, 143470.97, 48936.73, -11689.40, 149793.52, -7194.51, -2579.32, -18491.69, 78718.05, -23656.30, 0.000, 0.000, 0.000, 16:50:09.665
163, -58382.87, -52289.69, 109373.54, 114560.95, 11562.74, -58006.04, -61380.82, 143481.81, 48936.73, -11689.40, 149793.52, -7194.51, -2579.32, -18491.69, 78718.05, -23656.30, 0.000, 0.000, 0.000, 16:50:09.665
164, -58382.87, -52289.69, 109373.54, 114560.95, 11562.74, -58006.04, -61380.82, 143481.81, 48916.52, -11690.70, 149773.78, -7208.59, -2600.22, -18513.66, 78704.49, -23638.44, 0.000, 0.000, 0.000, 16:50:09.665
165, -58366.32, -52281.55, 109377.21, 114563.37, 11574.40, -58007.60, -61366.06, 143480.17, 48916.52, -11690.70, 149773.78, -7208.59, -2600.22, -18513.66, 78704.49, -23638.44, 0.000, 0.000, 0.000, 16:50:09.665
166, -58366.32, -52281.55, 109377.21, 114563.37, 11574.40, -58007.60, -61366.06, 143480.17, 48909.66, -11691.26, 149774.92, -7217.27, -2605.52, -18519.38, 78698.77, -23638.58, 0.000, 0.000, 0.000, 16:50:09.666
167, -58358.17, -52283.59, 109382.73, 114556.33, 11576.55, -58009.55, -61382.83, 143469.81, 48909.66, -11691.26, 149774.92, -7217.27, -2605.52, -18519.38, 78698.77, -23638.58, -0.034, 0.872, 0.384, 16:50:09.666
168, -58358.17, -52283.59, 109382.73, 114556.33, 11576.55, -58009.55, -61382.83, 143469.81, 48910.04, -11691.19, 149777.17, -7215.66, -2600.87, -18523.78, 78680.66, -23646.29, 0.000, 0.000, 0.000, 16:50:09.666
169, -58368.89, -52281.29, 109400.54, 114568.58, 11565.98, -57998.17, -61396.57, 143478.69, 48910.04, -11691.19, 149777.17, -7215.66, -2600.87, -18523.78, 78680.66, -23646.29, 0.000, 0.000, 0.000, 16:50:09.666
170, -58368.89, -52281.29, 109400.54, 114568.58, 11565.98, -57998.17, -61396.57, 143478.69, 48909.68, -11697.11, 149786.64, -7198.42, -2594.10, -18508.79, 78679.34, -23632.97, 0.000, 0.000, 0.000, 16:50:09.666
171, -58359.06, -52274.20, 109398.28, 114575.40, 11580.91, -57992.63, -61398.56, 143487.05, 48909.68, -11697.11, 149786.64, -7198.42, -2594.10, -18508.79, 78679.34, -23632.97, 0.000, 0.000, 0.000, 16:50:09.666
172, -58359.06, -52274.20, 109398.28, 114575.40, 11580.91, -57992.63, -61398.56, 143487.05, 48903.00, -11696.51, 149774.98, -7207.68, -2601.34, -18518.33, 78684.53, -23631.58, 0.000, 0.000, 0.000, 16:50:09.667
173, -58366.06, -52279.84, 109400.81, 114582.41, 11585.80, -57993.21, -61369.51, 143476.94, 48903.00, -11696.51, 149774.98, -7207.68, -2601.34, -18518.33, 78684.53, -23631.58, 0.000, 0.000, 0.000, 16:50:09.667
174, -58366.06, -52279.84, 109400.81, 114582.41, 11585.80, -57993.21, -61369.51, 143476.94, 48904.18, -11694.39, 149774.61, -7213.73, -2600.38, -18516.18, 78696.04, -23631.74, 0.000, 0.000, 0.000, 16:50:09.667
175, -58363.53, -52280.39, 109396.90, 114585.09, 11594.99, -57995.11, -61365.57, 143480.80, 48904.18, -11694.39, 149774.61, -7213.73, -2600.38, -18516.18, 78696.04, -23631.74, 0.000, 0.000, 0.000, 16:50:09.667
176, -58363.53, -52280.39, 109396.90, 114585.09, 11594.99, -57995.11, -61365.57, 143480.80, 48910.15, -11683.97, 149772.48, -7220.46, -2602.70, -18507.49, 78694.37, -23636.95, 0.000, 0.000, 0.000, 16:50:09.667
177, -58372.14, -52288.26, 109386.05, 114575.22, 11587.50, -57994.80, -61389.55, 143474.92, 48910.15, -11683.97, 149772.48, -7220.46, -2602.70, -18507.49, 78694.37, -23636.95, -0.032, 0.870, 0.380, 16:50:09.668
178, -58372.14, -52288.26, 109386.05, 114575.22, 11587.50, -57994.80, -61389.55, 143474.92, 48900.43, -11680.10, 149761.22, -7229.22, -2619.18, -18512.96, 78672.59, -23641.42, 0.000, 0.000, 0.000, 16:50:09.668
179, -58366.80, -52282.76, 109382.82, 114574.84, 11588.95, -57992.16, -61397.58, 143463.66, 48900.43, -11680.10, 149761.22, -7229.22, -2619.18, -18512.96, 78672.59, -23641.42, 0.000, 0.000, 0.000, 16:50:09.668
180, -58366.80, -52282.76, 109382.82, 114574.84, 11588.95, -57992.16, -61397.58, 143463.66, 48903.80, -11682.88, 149767.55, -7224.53, -2610.91, -18509.55, 78664.03, -23637.53, 0.000, 0.000, 0.000, 16:50:09.668
181, -58363.24, -52281.18, 109383.42, 114575.17, 11588.02, -57996.88, -61382.16, 143470.41, 48903.80, -11682.88, 149767.55, -7224.53, -2610.91, -18509.55, 78664.03, -23637.53, 0.000, 0.000, 0.000, 16:50:09.668
182, -58363.24, -52281.18, 109383.42, 114575.17, 11588.02, -57996.88, -61382.16, 143470.41, 48896.63, -11685.96, 149764.97, -7224.75, -2618.66, -18514.96, 78651.31, -23643.47, 0.000, 0.000, 0.000, 16:50:09.668
183, -58370.93, -52288.64, 109383.17, 114577.88, 11585.89, -57998.37, -61370.00, 143478.53, 48896.63, -11685.96, 149764.97, -7224.75, -2618.66, -18514.96, 78651.31, -23643.47, 0.000, 0.000, 0.000, 16:50:09.669
184, -58370.93, -52288.64, 109383.17, 114577.88, 11585.89, -57998.37, -61370.00, 143478.53, 48909.95, -11683.55, 149770.41, -7216.19, -2611.40, -18504.32, 78649.66, -23623.02, 0.000, 0.000, 0.000, 16:50:09.669
185, -58376.18, -52289.56, 109372.89, 114575.48, 11594.05, -57996.56, -61387.14, 143474.25, 48909.95, -11683.55, 149770.41, -7216.19, -2611.40, -18504.32, 78649.66, -23623.02, 0.000, 0.000, 0.000, 16:50:09.669
186, -58376.18, -52289.56, 109372.89, 114575.48, 11594.05, -57996.56, -61387.14, 143474.25, 48898.86, -11688.49, 149753.00, -7235.39, -2625.61, -18515.36, 78630.26, -23638.33, 0.000, 0.000, 0.000, 16:50:09.669
187, -58362.73, -52285.85, 109366.32, 114558.68, 11607.13, -58011.27, -61398.34, 143472.25, 48898.86, -11688.49, 149753.00, -7235.39, -2625.61, -18515.36, 78630.26, -23638.33, -0.042, 0.874, 0.380, 16:50:09.669
188, -58362.73, -52285.85, 109366.32, 114558.68, 11607.13, -58011.27, -61398.34, 143472.25, 48896.59, -11691.39, 149751.44, -7246.93, -2625.15, -18514.73, 78621.56, -23643.47, 0.000, 0.000, 0.000, 16:50:09.669
189, -58364.25, -52286.61, 109383.40, 114565.54, 11604.44, -58001.21, -61382.49, 143482.14, 48896.59, -11691.39, 149751.44, -7246.93, -2625.15, -18514.73, 78621.56, -23643.47, 0.000, 0.000, 0.000, 16:50:09.670
190, -58364.25, -52286.61, 109383.40, 114565.54, 11604.44, -58001.21, -61382.49, 143482.14, 48895.27, -11702.32, 149745.33, -7246.48, -2625.08, -18520.70, 78620.54, -23641.53, 0.000, 0.000, 0.000, 16:50:09.670
191, -58376.12, -52300.82, 109374.21, 114547.95, 11561.42, -58016.21, -61421.68, 143471.03, 48895.27, -11702.32, 149745.33, -7246.48, -2625.08, -18520.70, 78620.54, -23641.53, 0.000, 0.000, 0.000, 16:50:09.670
192, -58376.12, -52300.82, 109374.21, 114547.95, 11561.42, -58016.21, -61421.68, 143471.03, 48915.76, -11710.15, 149763.41, -7225.11, -2602.79, -18488.04, 78621.48, -23617.77, 0.000, 0.000, 0.000, 16:50:09.670
193, -58374.73, -52293.07, 109387.38, 114557.23, 11557.17, -58002.13, -61387.03, 143492.11, 48915.76, -11710.15, 149763.41, -7225.11, -2602.79, -18488.04, 78621.48, -23617.77, 0.000, 0.000, 0.000, 16:50:09.670
194, -58374.73, -52293.07, 109387.38, 114557.23, 11557.17, -58002.13, -61387.03, 143492.11, 48891.04, -11719.15, 149747.00, -7239.42, -2613.05, -18500.92, 78615.73, -23618.24, 0.000, 0.000, 0.000, 16:50:09.670
195, -58366.04, -52287.93, 109390.22, 114554.34, 11567.43, -58012.39, -61359.87, 143461.42, 48891.04, -11719.15, 149747.00, -7239.42, -2613.05, -18500.92, 78615.73, -23618.24, 0.000, 0.000, 0.000, 16:50:09.671
196, -58366.04, -52287.93, 109390.22, 114554.34, 11567.43, -58012.39, -61359.87, 143461.42, 48885.32, -11720.07, 149743.81, -7239.57, -2615.36, -18507.20, 78613.36, -23651.36, 0.000, 0.000, 0.000, 16:50:09.671
197, -58343.84, -52279.01, 109391.45, 114556.91, 11583.72, -58024.77, -61367.63, 143489.92, 48885.32, -11720.07, 149743.81, -7239.57, -2615.36, -18507.20, 78613.36, -23651.36, -0.036, 0.874, 0.386, 16:50:09.671
198, -58343.84, -52279.01, 109391.45, 114556.91, 11583.72, -58024.77, -61367.63, 143489.92, 48872.82, -11711.93, 149735.98, -7247.35, -2623.80, -18520.05, 78603.35, -23635.94, 0.000, 0.000, 0.000, 16:50:09.671
199, -58345.56, -52278.94, 109400.88, 114561.23, 11571.30, -58013.57, -61396.39, 143475.17, 48872.82, -11711.93, 149735.98, -7247.35, -2623.80, -18520.05, 78603.35, -23635.94, 0.000, 0.000, 0.000, 16:50:09.672
200, -58345.56, -52278.94, 109400.88, 114561.23, 11571.30, -58013.57, -61396.39, 143475.17, 48874.10, -11711.51, 149742.36, -7231.26, -2619.33, -18507.27, 78603.23, -23641.42, 0.000, 0.000, 0.000, 16:50:09.672
201, -58328.13, -52272.57, 109406.16, 114568.13, 11591.68, -58009.30, -61383.63, 143502.67, 48874.10, -11711.51, 149742.36, -7231.26, -2619.33, -18507.27, 78603.23, -23641.42, 0.000, 0.000, 0.000, 16:50:09.672
202, -58328.13, -52272.57, 109406.16, 114568.13, 11591.68, -58009.30, -61383.63, 143502.67, 48862.10, -11707.89, 149730.53, -7231.10, -2632.03, -18513.44, 78597.34, -23649.87, 0.000, 0.000, 0.000, 16:50:09.672
203, -58317.24, -52272.66, 109406.47, 114569.52, 11596.38, -58016.84, -61352.68, 143502.23, 48862.10, -11707.89, 149730.53, -7231.10, -2632.03, -18513.44, 78597.34, -23649.87, 0.000, 0.000, 0.000, 16:50:09.672
204, -58317.24, -52272.66, 109406.47, 114569.52, 11596.38, -58016.84, -61352.68, 143502.23, 48872.91, -11707.55, 149740.97, -7216.06, -2620.56, -18500.67, 78595.21, -23654.65, 0.000, 0.000, 0.000, 16:50:09.672
205, -58325.78, -52269.93, 109401.08, 114576.06, 11583.05, -58012.90, -61362.18, 143492.70, 48872.91, -11707.55, 149740.97, -7216.06, -2620.56, -18500.67, 78595.21, -23654.65, 0.000, 0.000, 0.000, 16:50:09.673
206, -58325.78, -52269.93, 109401.08, 114576.06, 11583.05, -58012.90, -61362.18, 143492.70, 48877.95, -11709.77, 149744.64, -7202.40, -2619.74, -18490.75, 78575.97, -23656.75, 0.000, 0.000, 0.000, 16:50:09.673
207, -58331.57, -52271.36, 109388.23, 114569.95, 11576.68, -58018.71, -61393.54, 143479.98, 48877.95, -11709.77, 149744.64, -7202.40, -2619.74, -18490.75, 78575.97, -23656.75, -0.034, 0.874, 0.390, 16:50:09.673
208, -58331.57, -52271.36, 109388.23, 114569.95, 11576.68, -58018.71, -61393.54, 143479.98, 48866.12, -11710.82, 149731.27, -7217.06, -2638.36, -18505.79, 78550.06, -23675.66, 0.000, 0.000, 0.000, 16:50:09.673
209, -58316.06, -52262.42, 109380.23, 114552.95, 11588.13, -58028.57, -61416.22, 143468.13, 48866.12, -11710.82, 149731.27, -7217.06, -2638.36, -18505.79, 78550.06, -23675.66, 0.000, 0.000, 0.000, 16:50:09.673
210, -58316.06, -52262.42, 109380.23, 114552.95, 11588.13, -58028.57, -61416.22, 143468.13, 48875.21, -11708.27, 149735.16, -7209.31, -2622.46, -18500.14, 78545.30, -23674.50, 0.000, 0.000, 0.000, 16:50:09.673
211, -58317.24, -52256.25, 109393.66, 114552.71, 11592.58, -58020.66, -61381.93, 143487.84, 48875.21, -11708.27, 149735.16, -7209.31, -2622.46, -18500.14, 78545.30, -23674.50, 0.000, 0.000, 0.000, 16:50:09.674
212, -58317.24, -52256.25, 109393.66, 114552.71, 11592.58, -58020.66, -61381.93, 143487.84, 48860.53, -11711.17, 149725.38, -7220.73, -2632.52, -18514.33, 78541.93, -23661.62, 0.000, 0.000, 0.000, 16:50:09.674
213, -58324.73, -52256.81, 109392.88, 114549.91, 11590.43, -58028.68, -61381.29, 143493.13, 48860.53, -11711.17, 149725.38, -7220.73, -2632.52, -18514.33, 78541.93, -23661.62, 0.000, 0.000, 0.000, 16:50:09.674
214, -58324.73, -52256.81, 109392.88, 114549.91, 11590.43, -58028.68, -61381.29, 143493.13, 48866.77, -11716.87, 149731.06, -7222.27, -2629.73, -18513.88, 78531.80, -23661.20, 0.000, 0.000, 0.000, 16:50:09.674
215, -58325.60, -52260.37, 109383.66, 114547.52, 11588.51, -58035.50, -61410.97, 143480.98, 48866.77, -11716.87, 149731.06, -7222.27, -2629.73, -18513.88, 78531.80, -23661.20, 0.000, 0.000, 0.000, 16:50:09.674
216, -58325.60, -52260.37, 109383.66, 114547.52, 11588.51, -58035.50, -61410.97, 143480.98, 48862.39, -11717.57, 149719.09, -7233.18, -2645.89, -18527.88, 78520.58, -23683.24, 0.000, 0.000, 0.000, 16:50:09.675
217, -58324.68, -52265.17, 109378.64, 114539.74, 11586.50, -58047.43, -61393.11, 143464.20, 48862.39, -11717.57, 149719.09, -7233.18, -2645.89, -18527.88, 78520.58, -23683.24, -0.038, 0.870, 0.394, 16:50:09.675
218, -58324.68, -52265.17, 109378.64, 114539.74, 11586.50, -58047.43, -61393.11, 143464.20, 48867.30, -11713.68, 149720.00, -7230.21, -2642.87, -18526.38, 78520.02, -23703.87, 0.000, 0.000, 0.000, 16:50:09.675
219, -58330.29, -52267.14, 109385.43, 114543.41, 11579.66, -58041.87, -61414.93, 143478.03, 48867.30, -11713.68, 149720.00, -7230.21, -2642.87, -18526.38, 78520.02, -23703.87, 0.000, 0.000, 0.000, 16:50:09.675
220, -58330.29, -52267.14, 109385.43, 114543.41, 11579.66, -58041.87, -61414.93, 143478.03, 48859.21, -11720.03, 149721.25, -7231.44, -2642.51, -18528.81, 78518.61, -23700.25, 0.000, 0.000, 0.000, 16:50:09.676
221, -58335.04, -52266.09, 109397.52, 114549.27, 11584.39, -58037.33, -61400.08, 143484.77, 48859.21, -11720.03, 149721.25, -7231.44, -2642.51, -18528.81, 78518.61, -23700.25, 0.000, 0.000, 0.000, 16:50:09.676
222, -58335.04, -52266.09, 109397.52, 114549.27, 11584.39, -58037.33, -61400.08, 143484.77, 48862.99, -11725.25, 149715.44, -7235.80, -2642.27, -18531.00, 78520.06, -23707.04, 0.000, 0.000, 0.000, 16:50:09.676
223, -58336.15, -52266.96, 109389.84, 114547.57, 11591.41, -58049.51, -61393.07, 143480.88, 48862.99, -11725.25, 149715.44, -7235.80, -2642.27, -18531.00, 78520.06, -23707.04, 0.000, 0.000, 0.000, 16:50:09.676
224, -58336.15, -52266.96, 109389.84, 114547.57, 11591.41, -58049.51, -61393.07, 143480.88, 48861.25, -11719.56, 149708.20, -7235.21, -2650.58, -18530.22, 78513.65, -23713.59, 0.000, 0.000, 0.000, 16:50:09.677
225, -58339.35, -52268.64, 109389.84, 114549.73, 11594.72, -58047.19, -61417.25, 143472.84, 48861.25, -11719.56, 149708.20, -7235.21, -2650.58, -18530.22, 78513.65, -23713.59, 0.000, 0.000, 0.000, 16:50:10.136
226, -58339.35, -52268.64, 109389.84, 114549.73, 11594.72, -58047.19, -61417.25, 143472.84, 48854.23, -11715.11, 149697.98, -7246.39, -2663.17, -18545.60, 78497.98, -23733.48, 0.000, 0.000, 0.000, 16:50:10.136
227, -58334.43, -52267.72, 109389.88, 114544.35, 11601.92, -58048.86, -61415.04, 143470.77, 48854.23, -11715.11, 149697.98, -7246.39, -2663.17, -18545.60, 78497.98, -23733.48, -0.032, 0.872, 0.388, 16:50:10.136
228, -58334.43, -52267.72, 109389.88, 114544.35, 11601.92, -58048.86, -61415.04, 143470.77, 48864.06, -11709.94, 149708.00, -7243.17, -2656.82, -18539.10, 78491.75, -23748.95, 0.000, 0.000, 0.000, 16:50:10.137
229, -58346.75, -52271.54, 109393.14, 114550.25, 11599.44, -58047.93, -61409.98, 143469.73, 48864.06, -11709.94, 149708.00, -7243.17, -2656.82, -18539.10, 78491.75, -23748.95, 0.000, 0.000, 0.000, 16:50:10.137
230, -58346.75, -52271.54, 109393.14, 114550.25, 11599.44, -58047.93, -61409.98, 143469.73, 48871.21, -11705.25, 149718.53, -7228.82, -2647.12, -18532.28, 78484.88, -23730.02, 0.000, 0.000, 0.000, 16:50:10.137
231, -58346.32, -52264.55, 109395.20, 114560.71, 11606.14, -58037.35, -61372.86, 143494.75, 48871.21, -11705.25, 149718.53, -7228.82, -2647.12, -18532.28, 78484.88, -23730.02, 0.000, 0.000, 0.000, 16:50:10.137
232, -58346.32, -52264.55, 109395.20, 114560.71, 11606.14, -58037.35, -61372.86, 143494.75, 48862.95, -11703.84, 149720.42, -7222.36, -2647.81, -18524.75, 78485.31, -23696.74, 0.000, 0.000, 0.000, 16:50:10.137
233, -58356.80, -52265.71, 109388.74, 114558.68, 11602.25, -58045.76, -61363.16, 143463.73, 48862.95, -11703.84, 149720.42, -7222.36, -2647.81, -18524.75, 78485.31, -23696.74, 0.000, 0.000, 0.000, 16:50:10.138
234, -58356.80, -52265.71, 109388.74, 114558.68, 11602.25, -58045.76, -61363.16, 143463.73, 48874.90, -11699.66, 149719.47, -7219.57, -2635.27, -18522.46, 78481.80, -23699.24, 0.000, 0.000, 0.000, 16:50:10.138
235, -58362.59, -52264.48, 109382.51, 114547.21, 11603.08, -58047.95, -61408.35, 143475.19, 48874.90, -11699.66, 149719.47, -7219.57, -2635.27, -18522.46, 78481.80, -23699.24, 0.000, 0.000, 0.000, 16:50:10.138
236, -58362.59, -52264.48, 109382.51, 114547.21, 11603.08, -58047.95, -61408.35, 143475.19, 48867.28, -11701.00, 149710.42, -7232.78, -2652.97, -18532.90, 78472.93, -23683.13, -0.036, 0.874, 0.388, 16:50:10.138
237, -58348.58, -52263.96, 109376.89, 114529.82, 11614.35, -58062.72, -61395.88, 143458.83, 48867.28, -11701.00, 149710.42, -7232.78, -2652.97, -18532.90, 78472.93, -23683.13, 0.000, 0.000, 0.000, 16:50:10.138
238, -58348.58, -52263.96, 109376.89, 114529.82, 11614.35, -58062.72, -61395.88, 143458.83, 48858.41, -11700.62, 149698.41, -7247.82, -2662.52, -18547.32, 78463.78, -23689.36, 0.000, 0.000, 0.000, 16:50:10.138
239, -58342.34, -52264.08, 109376.52, 114530.42, 11607.19, -58064.44, -61433.99, 143463.19, 48858.41, -11700.62, 149698.41, -7247.82, -2662.52, -18547.32, 78463.78, -23689.36, 0.000, 0.000, 0.000, 16:50:10.139
240, -58342.34, -52264.08, 109376.52, 114530.42, 11607.19, -58064.44, -61433.99, 143463.19, 48859.82, -11701.45, 149696.84, -7247.20, -2666.43, -18546.98, 78457.80, -23683.35, 0.000, 0.000, 0.000, 16:50:10.139
241, -58355.38, -52271.95, 109382.05, 114529.84, 11595.10, -58062.59, -61421.74, 143452.69, 48859.82, -11701.45, 149696.84, -7247.20, -2666.43, -18546.98, 78457.80, -23683.35, 0.000, 0.000, 0.000, 16:50:10.139
242, -58355.38, -52271.95, 109382.05, 114529.84, 11595.10, -58062.59, -61421.74, 143452.69, 48872.33, -11708.25, 149707.64, -7235.46, -2651.23, -18532.12, 78471.41, -23619.94, 0.000, 0.000, 0.000, 16:50:10.139
243, -58348.60, -52271.39, 109376.73, 114523.45, 11613.41, -58065.05, -61434.35, 143455.97, 48872.33, -11708.25, 149707.64, -7235.46, -2651.23, -18532.12, 78471.41, -23619.94, 0.000, 0.000, 0.000, 16:50:10.139
244, -58348.60, -52271.39, 109376.73, 114523.45, 11613.41, -58065.05, -61434.35, 143455.97, 48855.95, -11706.26, 149685.16, -7258.86, -2668.62, -18546.65, 78440.52, -23608.87, 0.000, 0.000, 0.000, 16:50:10.139
245, -58354.64, -52279.52, 109383.40, 114527.52, 11610.57, -58064.00, -61465.30, 143453.02, 48855.95, -11706.26, 149685.16, -7258.86, -2668.62, -18546.65, 78440.52, -23608.87, 0.000, 0.000, 0.000, 16:50:10.140
246, -58354.64, -52279.52, 109383.40, 114527.52, 11610.57, -58064.00, -61465.30, 143453.02, 48857.34, -11704.65, 149691.33, -7251.89, -2658.23, -18538.38, 78443.11, -23604.71, -0.038, 0.874, 0.380, 16:50:10.140
247, -58346.28, -52265.51, 109391.65, 114539.90, 11620.40, -58056.87, -61434.28, 143475.22, 48857.34, -11704.65, 149691.33, -7251.89, -2658.23, -18538.38, 78443.11, -23604.71, 0.000, 0.000, 0.000, 16:50:10.140
248, -58346.28, -52265.51, 109391.65, 114539.90, 11620.40, -58056.87, -61434.28, 143475.22, 48843.32, -11699.89, 149681.11, -7257.72, -2677.98, -18551.21, 78440.43, -23616.72, 0.000, 0.000, 0.000, 16:50:10.140
249, -58349.94, -52265.53, 109388.70, 114544.30, 11619.38, -58056.11, -61436.43, 143454.05, 48843.32, -11699.89, 149681.11, -7257.72, -2677.98, -18551.21, 78440.43, -23616.72, 0.000, 0.000, 0.000, 16:50:10.140
250, -58349.94, -52265.53, 109388.70, 114544.30, 11619.38, -58056.11, -61436.43, 143454.05, 48857.78, -11699.80, 149690.19, -7242.03, -2660.35, -18539.34, 78436.36, -23624.88, 0.000, 0.000, 0.000, 16:50:10.140
251, -58359.13, -52260.61, 109386.73, 114556.89, 11619.08, -58052.84, -61451.25, 143483.02, 48857.78, -11699.80, 149690.19, -7242.03, -2660.35, -18539.34, 78436.36, -23624.88, 0.000, 0.000, 0.000, 16:50:10.141
252, -58359.13, -52260.61, 109386.73, 114556.89, 11619.08, -58052.84, -61451.25, 143483.02, 48852.64, -11702.41, 149691.69, -7237.03, -2670.65, -18543.07, 78433.95, -23620.61, 0.000, 0.000, 0.000, 16:50:10.141
253, -58351.73, -52252.79, 109383.89, 114556.09, 11626.08, -58056.84, -61429.83, 143469.86, 48852.64, -11702.41, 149691.69, -7237.03, -2670.65, -18543.07, 78433.95, -23620.61, 0.000, 0.000, 0.000, 16:50:10.141
254, -58351.73, -52252.79, 109383.89, 114556.09, 11626.08, -58056.84, -61429.83, 143469.86, 48845.06, -11696.60, 149679.81, -7245.23, -2680.62, -18552.80, 78420.91, -23614.33, 0.000, 0.000, 0.000, 16:50:10.141
255, -58343.35, -52254.40, 109376.27, 114558.30, 11628.83, -58056.89, -61459.47, 143468.28, 48845.06, -11696.60, 149679.81, -7245.23, -2680.62, -18552.80, 78420.91, -23614.33, 0.000, 0.000, 0.000, 16:50:10.141
0, -58343.35, -52254.40, 109376.27, 114558.30, 11628.83, -58056.89, -61459.47, 143468.28, 48849.60, -11685.89, 149671.23, -7247.69, -2680.35, -18548.46, 78420.42, -23605.41, -0.040, 0.880, 0.368, 16:50:10.141
1, -58343.48, -52261.75, 109371.59, 114554.52, 11622.73, -58065.79, -61415.51, 143465.67, 48849.60, -11685.89, 149671.23, -7247.69, -2680.35, -18548.46, 78420.42, -23605.41, 0.000, 0.000, 0.000, 16:50:10.142
2, -58343.48, -52261.75, 109371.59, 114554.52, 11622.73, -58065.79, -61415.51, 143465.67, 48857.96, -11679.64, 149677.25, -7246.28, -2681.38, -18549.53, 78418.86, -23584.04, 0.000, 0.000, 0.000, 16:50:10.142
3, -58354.08, -52270.58, 109372.05, 114550.07, 11616.51, -58062.59, -61425.96, 143459.50, 48857.96, -11679.64, 149677.25, -7246.28, -2681.38, -18549.53, 78418.86, -23584.04, 0.000, 0.000, 0.000, 16:50:10.142
4, -58354.08, -52270.58, 109372.05, 114550.07, 11616.51, -58062.59, -61425.96, 143459.50, 48857.13, -11683.08, 149686.50, -7240.53, -2674.94, -18541.69, 78408.71, -23607.33, 0.000, 0.000, 0.000, 16:50:10.142
5, -58350.25, -52264.99, 109367.87, 114541.58, 11625.70, -58073.25, -61449.79, 143458.44, 48857.13, -11683.08, 149686.50, -7240.53, -2674.94, -18541.69, 78408.71, -23607.33, 0.000, 0.000, 0.000, 16:50:10.142
6, -58350.25, -52264.99, 109367.87, 114541.58, 11625.70, -58073.25, -61449.79, 143458.44, 48854.30, -11691.35, 149676.97, -7248.72, -2682.37, -18568.11, 78393.53, -23621.88, 0.000, 0.000, 0.000, 16:50:10.142
7, -58350.66, -52270.04, 109362.73, 114529.66, 11617.23, -58079.35, -61472.08, 143453.56, 48854.30, -11691.35, 149676.97, -7248.72, -2682.37, -18568.11, 78393.53, -23621.88, 0.000, 0.000, 0.000, 16:50:10.143
8, -58350.66, -52270.04, 109362.73, 114529.66, 11617.23, -58079.35, -61472.08, 143453.56, 48864.42, -11694.68, 149677.22, -7244.78, -2674.03, -18556.15, 78388.75, -23633.21, 0.000, 0.000, 0.000, 16:50:10.143
9, -58358.10, -52276.66, 109368.55, 114525.10, 11616.09, -58080.07, -61479.95, 143449.98, 48864.42, -11694.68, 149677.22, -7244.78, -2674.03, -18556.15, 78388.75, -23633.21, 0.000, 0.000, 0.000, 16:50:10.143
10, -58358.10, -52276.66, 109368.55, 114525.10, 11616.09, -58080.07, -61479.95, 143449.98, 48862.14, -11696.51, 149674.88, -7247.73, -2681.02, -18556.78, 78388.77, -23643.16, -0.046, 0.876, 0.362, 16:50:10.143
11, -58363.33, -52276.95, 109380.74, 114529.09, 11623.47, -58077.39, -61474.96, 143447.77, 48862.14, -11696.51, 149674.88, -7247.73, -2681.02, -18556.78, 78388.77, -23643.16, 0.000, 0.000, 0.000, 16:50:10.143
12, -58363.33, -52276.95, 109380.74, 114529.09, 11623.47, -58077.39, -61474.96, 143447.77, 48849.87, -11706.66, 149675.72, -7247.80, -2686.63, -18552.48, 78397.09, -23636.92, 0.000, 0.000, 0.000, 16:50:10.143
13, -58338.34, -52259.94, 109387.29, 114528.70, 11649.68, -58084.58, -61456.45, 143461.61, 48849.87, -11706.66, 149675.72, -7247.80, -2686.63, -18552.48, 78397.09, -23636.92, 0.000, 0.000, 0.000, 16:50:10.144
14, -58338.34, -52259.94, 109387.29, 114528.70, 11649.68, -58084.58, -61456.45, 143461.61, 48827.29, -11700.85, 149658.14, -7272.77, -2707.24, -18583.89, 78382.09, -23660.91, 0.000, 0.000, 0.000, 16:50:10.144
15, -58334.63, -52262.38, 109392.67, 114533.51, 11633.84, -58089.99, -61481.09, 143451.13, 48827.29, -11700.85, 149658.14, -7272.77, -2707.24, -18583.89, 78382.09, -23660.91, 0.000, 0.000, 0.000, 16:50:10.144
16, -58334.63, -52262.38, 109392.67, 114533.51, 11633.84, -58089.99, -61481.09, 143451.13, 48839.86, -11694.37, 149671.56, -7255.69, -2690.12, -18568.71, 78381.48, -23657.40, 0.000, 0.000, 0.000, 16:50:10.144
17, -58340.78, -52265.11, 109388.30, 114542.31, 11624.43, -58086.35, -61513.52, 143450.03, 48839.86, -11694.37, 149671.56, -7255.69, -2690.12, -18568.71, 78381.48, -23657.40, 0.000, 0.000, 0.000, 16:50:10.144
18, -58340.78, -52265.11, 109388.30, 114542.31, 11624.43, -58086.35, -61513.52, 143450.03, 48842.32, -11686.39, 149671.14, -7248.47, -2694.15, -18557.24, 78373.64, -23655.59, 0.000, 0.000, 0.000, 16:50:10.144
19, -58334.45, -52259.27, 109382.55, 114554.01, 11627.76, -58081.36, -61492.64, 143442.73, 48842.32, -11686.39, 149671.14, -7248.47, -2694.15, -18557.24, 78373.64, -23655.59, 0.000, 0.000, 0.000, 16:50:10.145
20, -58334.45, -52259.27, 109382.55, 114554.01, 11627.76, -58081.36, -61492.64, 143442.73, 48842.94, -11679.90, 149665.67, -7243.71, -2700.29, -18549.09, 78373.51, -23648.08, -0.048, 0.876, 0.368, 16:50:10.145
21, -58330.65, -52257.73, 109383.13, 114563.35, 11631.38, -58075.62, -61476.14, 143457.17, 48842.94, -11679.90, 149665.67, -7243.71, -2700.29, -18549.09, 78373.51, -23648.08, 0.000, 0.000, 0.000, 16:50:10.145
22, -58330.65, -52257.73, 109383.13, 114563.35, 11631.38, -58075.62, -61476.14, 143457.17, 48830.80, -11679.77, 149653.11, -7258.33, -2717.59, -18553.24, 78360.36, -23646.74, 0.000, 0.000, 0.000, 16:50:10.145
23, -58327.86, -52259.27, 109386.04, 114561.00, 11629.43, -58080.47, -61499.55, 143454.05, 48830.80, -11679.77, 149653.11, -7258.33, -2717.59, -18553.24, 78360.36, -23646.74, 0.000, 0.000, 0.000, 16:50:10.145
24, -58327.86, -52259.27, 109386.04, 114561.00, 11629.43, -58080.47, -61499.55, 143454.05, 48835.79, -11680.04, 149659.03, -7263.40, -2715.18, -18553.65, 78343.11, -23660.39, 0.000, 0.000, 0.000, 16:50:10.145
25, -58327.14, -52256.97, 109395.31, 114556.60, 11629.90, -58081.57, -61509.74, 143449.20, 48835.79, -11680.04, 149659.03, -7263.40, -2715.18, -18553.65, 78343.11, -23660.39, 0.000, 0.000, 0.000, 16:50:10.146
26, -58327.14, -52256.97, 109395.31, 114556.60, 11629.90, -58081.57, -61509.74, 143449.20, 48830.76, -11685.36, 149653.84, -7266.35, -2709.43, -18565.69, 78348.77, -23679.82, 0.000, 0.000, 0.000, 16:50:10.146
27, -58337.27, -52267.90, 109399.78, 114556.91, 11635.02, -58075.84, -61448.27, 143447.59, 48830.76, -11685.36, 149653.84, -7266.35, -2709.43, -18565.69, 78348.77, -23679.82, 0.000, 0.000, 0.000, 16:50:10.146
28, -58337.27, -52267.90, 109399.78, 114556.91, 11635.02, -58075.84, -61448.27, 143447.59, 48830.80, -11692.51, 149650.31, -7268.59, -2714.73, -18563.64, 78357.86, -23670.54, 0.000, 0.000, 0.000, 16:50:10.146
29, -58330.50, -52269.13, 109395.70, 114556.48, 11644.12, -58074.17, -61459.02, 143461.34, 48830.80, -11692.51, 149650.31, -7268.59, -2714.73, -18563.64, 78357.86, -23670.54, 0.000, 0.000, 0.000, 16:50:10.146
30, -58330.50, -52269.13, 109395.70, 114556.48, 11644.12, -58074.17, -61459.02, 143461.34, 48824.77, -11699.01, 149639.53, -7280.30, -2725.93, -18573.96, 78345.77, -23669.96, -0.044, 0.874, 0.368, 16:50:10.147
31, -58334.41, -52270.56, 109394.51, 114554.32, 11629.86, -58070.57, -61490.30, 143458.47, 48824.77, -11699.01, 149639.53, -7280.30, -2725.93, -18573.96, 78345.77, -23669.96, 0.000, 0.000, 0.000, 16:50:10.147
32, -58334.41, -52270.56, 109394.51, 114554.32, 11629.86, -58070.57, -61490.30, 143458.47, 48836.97, -11707.73, 149648.02, -7270.91, -2716.36, -18564.49, 78343.47, -23662.61, 0.000, 0.000, 0.000, 16:50:10.147
33, -58342.61, -52274.96, 109394.40, 114545.22, 11621.07, -58069.59, -61491.91, 143452.33, 48836.97, -11707.73, 149648.02, -7270.91, -2716.36, -18564.49, 78343.47, -23662.61, 0.000, 0.000, 0.000, 16:50:10.147
34, -58342.61, -52274.96, 109394.40, 114545.22, 11621.07, -58069.59, -61491.91, 143452.33, 48839.14, -11721.99, 149639.50, -7284.17, -2714.89, -18568.35, 78344.27, -23666.83, 0.000, 0.000, 0.000, 16:50:10.147
35, -58342.50, -52285.24, 109399.98, 114543.52, 11627.33, -58075.80, -61490.61, 143451.81, 48839.14, -11721.99, 149639.50, -7284.17, -2714.89, -18568.35, 78344.27, -23666.83, 0.000, 0.000, 0.000, 16:50:10.148
36, -58342.50, -52285.24, 109399.98, 114543.52, 11627.33, -58075.80, -61490.61, 143451.81, 48834.40, -11726.22, 149628.27, -7295.07, -2717.64, -18585.41, 78340.13, -23669.96, 0.000, 0.000, 0.000, 16:50:10.148
37, -58343.73, -52296.29, 109402.82, 114541.04, 11625.39, -58079.55, -61503.93, 143454.14, 48834.40, -11726.22, 149628.27, -7295.07, -2717.64, -18585.41, 78340.13, -23669.96, 0.000, 0.000, 0.000, 16:50:10.148
38, -58343.73, -52296.29, 109402.82, 114541.04, 11625.39, -58079.55, -61503.93, 143454.14, 48843.70, -11728.07, 149636.11, -7290.71, -2706.80, -18575.57, 78344.49, -23678.07, 0.000, 0.000, 0.000, 16:50:10.148
39, -58347.46, -52298.59, 109404.92, 114534.09, 11636.03, -58086.95, -61512.60, 143454.86, 48843.70, -11728.07, 149636.11, -7290.71, -2706.80, -18575.57, 78344.49, -23678.07, 0.000, 0.000, 0.000, 16:50:10.148
40, -58347.46, -52298.59, 109404.92, 114534.09, 11636.03, -58086.95, -61512.60, 143454.86, 48824.90, -11727.18, 149616.63, -7313.02, -2728.01, -18604.94, 78324.45, -23687.37, -0.044, 0.876, 0.372, 16:50:10.149
41, -58340.49, -52292.57, 109405.77, 114535.37, 11643.67, -58085.99, -61491.34, 143444.70, 48824.90, -11727.18, 149616.63, -7313.02, -2728.01, -18604.94, 78324.45, -23687.37, 0.000, 0.000, 0.000, 16:50:10.149
42, -58340.49, -52292.57, 109405.77, 114535.37, 11643.67, -58085.99, -61491.34, 143444.70, 48829.15, -11722.77, 149620.19, -7307.43, -2728.61, -18598.24, 78331.80, -23665.20, 0.000, 0.000, 0.000, 16:50:10.149
43, -58347.62, -52297.80, 109399.70, 114544.08, 11635.89, -58086.82, -61506.77, 143451.56, 48829.15, -11722.77, 149620.19, -7307.43, -2728.61, -18598.24, 78331.80, -23665.20, 0.000, 0.000, 0.000, 16:50:10.149
44, -58347.62, -52297.80, 109399.70, 114544.08, 11635.89, -58086.82, -61506.77, 143451.56, 48839.05, -11729.75, 149625.34, -7300.44, -2727.96, -18588.60, 78330.97, -23668.82, 0.000, 0.000, 0.000, 16:50:10.150
45, -58352.16, -52306.63, 109382.10, 114537.04, 11620.38, -58092.20, -61510.64, 143432.50, 48839.05, -11729.75, 149625.34, -7300.44, -2727.96, -18588.60, 78330.97, -23668.82, 0.000, 0.000, 0.000, 16:50:10.150
46, -58352.16, -52306.63, 109382.10, 114537.04, 11620.38, -58092.20, -61510.64, 143432.50, 48825.93, -11731.45, 149604.05, -7315.81, -2747.19, -18597.41, 78310.32, -23697.41, 0.000, 0.000, 0.000, 16:50:10.150
47, -58346.81, -52304.22, 109383.55, 114542.05, 11623.67, -58092.23, -61496.64, 143429.48, 48825.93, -11731.45, 149604.05, -7315.81, -2747.19, -18597.41, 78310.32, -23697.41, 0.000, 0.000, 0.000, 16:50:10.150
48, -58346.81, -52304.22, 109383.55, 114542.05, 11623.67, -58092.23, -61496.64, 143429.48, 48837.58, -11721.50, 149617.70, -7293.51, -2726.89, -18578.32, 78312.06, -23677.87, 0.000, 0.000, 0.000, 16:50:10.150
49, -58356.58, -52296.40, 109400.59, 114567.13, 11625.63, -58079.33, -61501.83, 143450.83, 48837.58, -11721.50, 149617.70, -7293.51, -2726.89, -18578.32, 78312.06, -23677.87, 0.000, 0.000, 0.000, 16:50:10.151
50, -58356.58, -52296.40, 109400.59, 114567.13, 11625.63, -58079.33, -61501.83, 143450.83, 48835.50, -11718.68, 149630.86, -7278.29, -2734.18, -18583.33, 78312.64, -23669.58, -0.048, 0.878, 0.370, 16:50:10.151
51, -58358.91, -52290.96, 109394.24, 114559.84, 11628.20, -58088.18, -61541.12, 143439.59, 48835.50, -11718.68, 149630.86, -7278.29, -2734.18, -18583.33, 78312.64, -23669.58, 0.000, 0.000, 0.000, 16:50:10.151
52, -58358.91, -52290.96, 109394.24, 114559.84, 11628.20, -58088.18, -61541.12, 143439.59, 48822.46, -11715.78, 149614.33, -7288.75, -2754.18, -18604.21, 78295.41, -23687.04, 0.000, 0.000, 0.000, 16:50:10.151
53, -58336.78, -52279.01, 109394.13, 114555.39, 11645.33, -58084.02, -61476.46, 143440.70, 48822.46, -11715.78, 149614.33, -7288.75, -2754.18, -18604.21, 78295.41, -23687.04, 0.000, 0.000, 0.000, 16:50:10.151
54, -58336.78, -52279.01, 109394.13, 114555.39, 11645.33, -58084.02, -61476.46, 143440.70, 48817.04, -11699.46, 149605.14, -7298.40, -2759.50, -18605.64, 78292.68, -23688.42, 0.000, 0.000, 0.000, 16:50:10.151
55, -58347.17, -52285.22, 109395.58, 114554.16, 11633.64, -58071.04, -61522.46, 143441.53, 48817.04, -11699.46, 149605.14, -7298.40, -2759.50, -18605.64, 78292.68, -23688.42, 0.000, 0.000, 0.000, 16:50:10.152
56, -58347.17, -52285.22, 109395.58, 114554.16, 11633.64, -58071.04, -61522.46, 143441.53, 48817.95, -11689.40, 149604.36, -7301.24, -2752.28, -18594.79, 78292.30, -23668.06, 0.000, 0.000, 0.000, 16:50:10.152
57, -58351.42, -52286.76, 109396.25, 114555.16, 11638.31, -58068.02, -61522.84, 143446.30, 48817.95, -11689.40, 149604.36, -7301.24, -2752.28, -18594.79, 78292.30, -23668.06, 0.000, 0.000, 0.000, 16:50:10.152
58, -58351.42, -52286.76, 109396.25, 114555.16, 11638.31, -58068.02, -61522.84, 143446.30, 48822.36, -11691.84, 149604.33, -7308.86, -2751.07, -18601.14, 78285.55, -23682.52, 0.000, 0.000, 0.000, 16:50:10.152
59, -58356.51, -52296.15, 109392.14, 114542.92, 11632.54, -58078.88, -61529.61, 143434.64, 48822.36, -11691.84, 149604.33, -7308.86, -2751.07, -18601.14, 78285.55, -23682.52, 0.000, 0.000, 0.000, 16:50:10.152
