%OpenBCI Raw EEG Data
%
%Sample Rate = 250.0 Hz
%First Column = SampleIndex
%Last Column = Timestamp 
%Other Columns = EEG data in microvolts followed by Accel Data (in G) interleaved with Aux Data
0, 0.00, 0.00, 0.00, 0.00, 0.00, 0.00, 0.00, 0.00, 37564.83, 11820.34, 76033.77, -9784.74, 3242.10, -3945.73, 93749.98, 373.32, 0.000, 0.000, 0.000, 17:01:15.442
1, -28252.34, -29616.13, 64060.63, 47820.46, 30660.49, -37670.91, -23603.58, 66022.55, 37564.83, 11820.34, 76033.77, -9784.74, 3242.10, -3945.73, 93749.98, 373.32, -0.440, 0.624, 0.558, 17:01:15.458
2, -28252.34, -29616.13, 64060.63, 47820.46, 30660.49, -37670.91, -23603.58, 66022.55, 90811.70, 35470.52, 162290.25, -5409.01, 24810.03, 9353.94, 169252.03, 23182.04, 0.000, 0.000, 0.000, 17:01:15.937
3, -56509.70, -59237.91, 128110.65, 95645.81, 61301.24, -75333.84, -47209.86, 132056.14, 90811.70, 35470.52, 162290.25, -5409.01, 24810.03, 9353.94, 169252.03, 23182.04, 0.000, 0.000, 0.000, 17:01:15.938
4, -56509.70, -59237.91, 128110.65, 95645.81, 61301.24, -75333.84, -47209.86, 132056.14, 90826.09, 35462.45, 162286.98, -5395.38, 24817.48, 9372.71, 169274.20, 23203.39, 0.000, 0.000, 0.000, 17:01:15.938
5, -56496.00, -59230.33, 128107.07, 95634.55, 61293.11, -75346.19, -47217.57, 132048.33, 90826.09, 35462.45, 162286.98, -5395.38, 24817.48, 9372.71, 169274.20, 23203.39, 0.000, 0.000, 0.000, 17:01:15.938
6, -56496.00, -59230.33, 128107.07, 95634.55, 61293.11, -75346.19, -47217.57, 132048.33, 90811.96, 35446.94, 162277.55, -5413.46, 24800.00, 9354.90, 169290.97, 23197.69, 0.000, 0.000, 0.000, 17:01:15.939
7, -56486.52, -59227.25, 128112.98, 95637.68, 61276.34, -75349.20, -47234.35, 132051.55, 90811.96, 35446.94, 162277.55, -5413.46, 24800.00, 9354.90, 169290.97, 23197.69, 0.000, 0.000, 0.000, 17:01:15.939
8, -56486.52, -59227.25, 128112.98, 95637.68, 61276.34, -75349.20, -47234.35, 132051.55, 90818.27, 35440.03, 162277.66, -5408.99, 24802.72, 9363.06, 169312.31, 23204.17, -0.436, 0.624, 0.548, 17:01:15.939
9, -56494.68, -59227.45, 128113.83, 95634.26, 61268.92, -75353.80, -47243.14, 132054.08, 90818.27, 35440.03, 162277.66, -5408.99, 24802.72, 9363.06, 169312.31, 23204.17, 0.000, 0.000, 0.000, 17:01:15.940
10, -56494.68, -59227.45, 128113.83, 95634.26, 61268.92, -75353.80, -47243.14, 132054.08, 90835.88, 35446.09, 162284.64, -5390.68, 24820.63, 9378.17, 169334.78, 23221.99, 0.000, 0.000, 0.000, 17:01:15.940
11, -56494.88, -59228.48, 128121.24, 95636.43, 61279.54, -75349.13, -47232.43, 132060.14, 90835.88, 35446.09, 162284.64, -5390.68, 24820.63, 9378.17, 169334.78, 23221.99, 0.000, 0.000, 0.000, 17:01:15.940
12, -56494.88, -59228.48, 128121.24, 95636.43, 61279.54, -75349.13, -47232.43, 132060.14, 90840.75, 35443.29, 162285.81, -5386.77, 24826.35, 9385.32, 169354.56, 23233.88, 0.000, 0.000, 0.000, 17:01:15.940
13, -56494.57, -59232.12, 128122.09, 95631.71, 61277.84, -75354.92, -47233.88, 132051.94, 90840.75, 35443.29, 162285.81, -5386.77, 24826.35, 9385.32, 169354.56, 23233.88, 0.000, 0.000, 0.000, 17:01:15.940
14, -56494.57, -59232.12, 128122.09, 95631.71, 61277.84, -75354.92, -47233.88, 132051.94, 90825.64, 35431.87, 162279.25, -5412.27, 24798.61, 9353.76, 169373.88, 23215.30, 0.000, 0.000, 0.000, 17:01:15.940
15, -56496.29, -59234.49, 128111.73, 95631.40, 61252.72, -75363.62, -47252.70, 132042.28, 90825.64, 35431.87, 162279.25, -5412.27, 24798.61, 9353.76, 169373.88, 23215.30, 0.000, 0.000, 0.000, 17:01:15.941
16, -56496.29, -59234.49, 128111.73, 95631.40, 61252.72, -75363.62, -47252.70, 132042.28, 90845.69, 35422.91, 162281.53, -5383.13, 24822.82, 9379.71, 169392.98, 23223.98, 0.000, 0.000, 0.000, 17:01:15.941
17, -56499.75, -59234.27, 128110.88, 95638.53, 61231.26, -75352.49, -47248.82, 132051.22, 90845.69, 35422.91, 162281.53, -5383.13, 24822.82, 9379.71, 169392.98, 23223.98, 0.000, 0.000, 0.000, 17:01:15.941
18, -56499.75, -59234.27, 128110.88, 95638.53, 61231.26, -75352.49, -47248.82, 132051.22, 90850.85, 35411.09, 162292.72, -5376.69, 24826.35, 9378.37, 169411.89, 23239.44, -0.444, 0.624, 0.548, 17:01:15.941
19, -56485.98, -59230.82, 128112.20, 95631.33, 61254.26, -75363.20, -47248.52, 132047.13, 90850.85, 35411.09, 162292.72, -5376.69, 24826.35, 9378.37, 169411.89, 23239.44, 0.000, 0.000, 0.000, 17:01:15.941
20, -56485.98, -59230.82, 128112.20, 95631.33, 61254.26, -75363.20, -47248.52, 132047.13, 90858.19, 35394.99, 162296.50, -5375.91, 24833.17, 9374.01, 169430.03, 23237.52, 0.000, 0.000, 0.000, 17:01:15.941
21, -56496.47, -59238.96, 128102.29, 95626.99, 61263.85, -75370.28, -47253.89, 132042.55, 90858.19, 35394.99, 162296.50, -5375.91, 24833.17, 9374.01, 169430.03, 23237.52, 0.000, 0.000, 0.000, 17:01:15.942
22, -56496.47, -59238.96, 128102.29, 95626.99, 61263.85, -75370.28, -47253.89, 132042.55, 90866.52, 35376.64, 162299.98, -5365.51, 24843.36, 9382.10, 169448.64, 23253.26, 0.000, 0.000, 0.000, 17:01:15.942
23, -56493.34, -59232.32, 128108.82, 95625.14, 61280.66, -75373.43, -47255.03, 132043.70, 90866.52, 35376.64, 162299.98, -5365.51, 24843.36, 9382.10, 169448.64, 23253.26, 0.000, 0.000, 0.000, 17:01:15.942
24, -56493.34, -59232.32, 128108.82, 95625.14, 61280.66, -75373.43, -47255.03, 132043.70, 90868.82, 35350.58, 162300.97, -5361.78, 24848.46, 9385.52, 169465.59, 23253.84, 0.000, 0.000, 0.000, 17:01:15.942
25, -56493.72, -59229.71, 128109.35, 95623.04, 61293.80, -75372.70, -47257.40, 132046.53, 90868.82, 35350.58, 162300.97, -5361.78, 24848.46, 9385.52, 169465.59, 23253.84, 0.000, 0.000, 0.000, 17:01:15.942
26, -56493.72, -59229.71, 128109.35, 95623.04, 61293.80, -75372.70, -47257.40, 132046.53, 90861.80, 35324.45, 162301.78, -5376.94, 24836.79, 9371.37, 169484.52, 23239.20, 0.000, 0.000, 0.000, 17:01:15.942
27, -56499.29, -59228.48, 128100.26, 95616.29, 61281.33, -75382.13, -47267.95, 132044.88, 90861.80, 35324.45, 162301.78, -5376.94, 24836.79, 9371.37, 169484.52, 23239.20, 0.000, 0.000, 0.000, 17:01:15.943
28, -56499.29, -59228.48, 128100.26, 95616.29, 61281.33, -75382.13, -47267.95, 132044.88, 90861.05, 35293.76, 162298.73, -5382.34, 24829.55, 9363.62, 169501.78, 23235.62, -0.448, 0.626, 0.554, 17:01:15.943
29, -56475.48, -59210.55, 128101.38, 95609.25, 61301.18, -75394.20, -47266.72, 132030.44, 90861.05, 35293.76, 162298.73, -5382.34, 24829.55, 9363.62, 169501.78, 23235.62, 0.000, 0.000, 0.000, 17:01:15.943
30, -56475.48, -59210.55, 128101.38, 95609.25, 61301.18, -75394.20, -47266.72, 132030.44, 90828.59, 35240.43, 162277.81, -5417.66, 24794.92, 9332.72, 169517.44, 23195.32, 0.000, 0.000, 0.000, 17:01:15.943
31, -56489.27, -59211.85, 128105.63, 95628.41, 61289.44, -75382.55, -47267.55, 132046.41, 90828.59, 35240.43, 162277.81, -5417.66, 24794.92, 9332.72, 169517.44, 23195.32, 0.000, 0.000, 0.000, 17:01:15.943
32, -56489.27, -59211.85, 128105.63, 95628.41, 61289.44, -75382.55, -47267.55, 132046.41, 90831.34, 35217.25, 162277.23, -5403.82, 24805.27, 9345.62, 169535.58, 23211.06, 0.000, 0.000, 0.000, 17:01:15.944
33, -56506.08, -59215.76, 128104.03, 95633.26, 61285.64, -75380.92, -47269.71, 132045.47, 90831.34, 35217.25, 162277.23, -5403.82, 24805.27, 9345.62, 169535.58, 23211.06, 0.000, 0.000, 0.000, 17:01:15.944
34, -56506.08, -59215.76, 128104.03, 95633.26, 61285.64, -75380.92, -47269.71, 132045.47, 90854.09, 35228.25, 162285.75, -5382.41, 24831.16, 9369.47, 169557.05, 23234.91, 0.000, 0.000, 0.000, 17:01:15.944
35, -56503.91, -59205.37, 128110.96, 95637.52, 61282.36, -75372.88, -47258.54, 132048.14, 90854.09, 35228.25, 162285.75, -5382.41, 24831.16, 9369.47, 169557.05, 23234.91, 0.000, 0.000, 0.000, 17:01:15.944
36, -56503.91, -59205.37, 128110.96, 95637.52, 61282.36, -75372.88, -47258.54, 132048.14, 90860.24, 35237.32, 162291.42, -5369.51, 24840.57, 9383.42, 169575.55, 23250.53, 0.000, 0.000, 0.000, 17:01:15.945
37, -56507.71, -59199.26, 128117.16, 95638.40, 61283.30, -75374.30, -47257.78, 132052.06, 90860.24, 35237.32, 162291.42, -5369.51, 24840.57, 9383.42, 169575.55, 23250.53, -0.452, 0.622, 0.554, 17:01:15.945
38, -56507.71, -59199.26, 128117.16, 95638.40, 61283.30, -75374.30, -47257.78, 132052.06, 90856.02, 35244.97, 162295.45, -5373.38, 24831.92, 9370.97, 169589.61, 23256.95, 0.000, 0.000, 0.000, 17:01:15.946
39, -56489.09, -59185.47, 128124.77, 95634.06, 61308.26, -75382.77, -47251.34, 132041.03, 90856.02, 35244.97, 162295.45, -5373.38, 24831.92, 9370.97, 169589.61, 23256.95, 0.000, 0.000, 0.000, 17:01:15.946
40, -56489.09, -59185.47, 128124.77, 95634.06, 61308.26, -75382.77, -47251.34, 132041.03, 90826.09, 35236.25, 162284.92, -5402.22, 24800.96, 9336.08, 169604.81, 23229.27, 0.000, 0.000, 0.000, 17:01:15.947
41, -56478.63, -59188.00, 128123.08, 95633.26, 61310.99, -75381.05, -47257.46, 132041.94, 90826.09, 35236.25, 162284.92, -5402.22, 24800.96, 9336.08, 169604.81, 23229.27, 0.000, 0.000, 0.000, 17:01:15.948
42, -56478.63, -59188.00, 128123.08, 95633.26, 61310.99, -75381.05, -47257.46, 132041.94, 90825.46, 35216.96, 162280.91, -5397.59, 24809.21, 9340.68, 169623.58, 23219.82, 0.000, 0.000, 0.000, 17:01:15.948
43, -56495.35, -59201.68, 128121.20, 95634.30, 61284.14, -75377.43, -47271.10, 132046.97, 90825.46, 35216.96, 162280.91, -5397.59, 24809.21, 9340.68, 169623.58, 23219.82, 0.000, 0.000, 0.000, 17:01:15.948
44, -56495.35, -59201.68, 128121.20, 95634.30, 61284.14, -75377.43, -47271.10, 132046.97, 90832.73, 35202.05, 162288.36, -5394.30, 24812.78, 9341.69, 169642.52, 23227.17, 0.000, 0.000, 0.000, 17:01:15.948
45, -56472.91, -59182.30, 128130.79, 95625.27, 61279.27, -75386.15, -47265.33, 132038.03, 90832.73, 35202.05, 162288.36, -5394.30, 24812.78, 9341.69, 169642.52, 23227.17, 0.000, 0.000, 0.000, 17:01:15.948
46, -56472.91, -59182.30, 128130.79, 95625.27, 61279.27, -75386.15, -47265.33, 132038.03, 90813.16, 35182.29, 162275.72, -5411.40, 24786.25, 9321.66, 169655.25, 23203.46, 0.000, 0.000, 0.000, 17:01:15.948
47, -56489.27, -59193.47, 128124.02, 95625.61, 61238.12, -75387.54, -47283.30, 132037.58, 90813.16, 35182.29, 162275.72, -5411.40, 24786.25, 9321.66, 169655.25, 23203.46, -0.452, 0.624, 0.550, 17:01:15.948
48, -56489.27, -59193.47, 128124.02, 95625.61, 61238.12, -75387.54, -47283.30, 132037.58, 90811.45, 35166.71, 162273.95, -5411.36, 24782.21, 9318.17, 169672.72, 23207.99, 0.000, 0.000, 0.000, 17:01:15.949
49, -56462.07, -59177.25, 128134.30, 95610.50, 61258.66, -75392.23, -47269.07, 132033.19, 90811.45, 35166.71, 162273.95, -5411.36, 24782.21, 9318.17, 169672.72, 23207.99, 0.000, 0.000, 0.000, 17:01:15.949
50, -56462.07, -59177.25, 128134.30, 95610.50, 61258.66, -75392.23, -47269.07, 132033.19, 90793.25, 35141.70, 162261.05, -5441.24, 24761.33, 9294.39, 169691.83, 23176.14, 0.000, 0.000, 0.000, 17:01:15.949
51, -56483.01, -59193.63, 128123.86, 95608.84, 61225.07, -75390.82, -47293.41, 132036.84, 90793.25, 35141.70, 162261.05, -5441.24, 24761.33, 9294.39, 169691.83, 23176.14, 0.000, 0.000, 0.000, 17:01:15.949
52, -56483.01, -59193.63, 128123.86, 95608.84, 61225.07, -75390.82, -47293.41, 132036.84, 90802.69, 35132.85, 162260.88, -5430.49, 24770.92, 9308.76, 169710.31, 23187.36, 0.000, 0.000, 0.000, 17:01:15.949
53, -56486.99, -59194.91, 128114.20, 95611.66, 61224.36, -75393.26, -47295.33, 132037.06, 90802.69, 35132.85, 162260.88, -5430.49, 24770.92, 9308.76, 169710.31, 23187.36, 0.000, 0.000, 0.000, 17:01:15.949
54, -56486.99, -59194.91, 128114.20, 95611.66, 61224.36, -75393.26, -47295.33, 132037.06, 90812.63, 35135.98, 162261.05, -5420.59, 24774.83, 9318.35, 169726.09, 23201.27, 0.000, 0.000, 0.000, 17:01:15.950
55, -56480.09, -59191.60, 128119.45, 95613.43, 61236.54, -75390.76, -47292.54, 132034.23, 90812.63, 35135.98, 162261.05, -5420.59, 24774.83, 9318.35, 169726.09, 23201.27, 0.000, 0.000, 0.000, 17:01:15.950
56, -56480.09, -59191.60, 128119.45, 95613.43, 61236.54, -75390.76, -47292.54, 132034.23, 90800.20, 35136.94, 162258.03, -5427.67, 24756.25, 9302.28, 169746.77, 23196.17, 0.000, 0.000, 0.000, 17:01:15.950
57, -56472.29, -59190.19, 128115.16, 95609.65, 61223.66, -75396.25, -47299.80, 132023.69, 90800.20, 35136.94, 162258.03, -5427.67, 24756.25, 9302.28, 169746.77, 23196.17, -0.456, 0.622, 0.550, 17:01:15.950
58, -56472.29, -59190.19, 128115.16, 95609.65, 61223.66, -75396.25, -47299.80, 132023.69, 90779.53, 35137.81, 162245.09, -5454.79, 24723.35, 9268.22, 169767.44, 23166.98, 0.000, 0.000, 0.000, 17:01:15.950
59, -56471.93, -59194.30, 128109.45, 95611.93, 61213.34, -75394.13, -47312.56, 132023.95, 90779.53, 35137.81, 162245.09, -5454.79, 24723.35, 9268.22, 169767.44, 23166.98, 0.000, 0.000, 0.000, 17:01:15.950
60, -56471.93, -59194.30, 128109.45, 95611.93, 61213.34, -75394.13, -47312.56, 132023.95, 90792.83, 35143.73, 162240.33, -5429.22, 24743.31, 9293.83, 169782.06, 23178.33, 0.000, 0.000, 0.000, 17:01:15.951
61, -56467.70, -59189.52, 128122.85, 95623.91, 61238.28, -75384.14, -47294.66, 132036.48, 90792.83, 35143.73, 162240.33, -5429.22, 24743.31, 9293.83, 169782.06, 23178.33, 0.000, 0.000, 0.000, 17:01:15.951
62, -56467.70, -59189.52, 128122.85, 95623.91, 61238.28, -75384.14, -47294.66, 132036.48, 90789.66, 35156.10, 162236.72, -5428.86, 24744.41, 9290.77, 169795.09, 23176.90, 0.000, 0.000, 0.000, 17:01:15.951
63, -56482.95, -59204.67, 128118.20, 95617.14, 61236.65, -75393.30, -47301.14, 132022.52, 90789.66, 35156.10, 162236.72, -5428.86, 24744.41, 9290.77, 169795.09, 23176.90, 0.000, 0.000, 0.000, 17:01:15.951
64, -56482.95, -59204.67, 128118.20, 95617.14, 61236.65, -75393.30, -47301.14, 132022.52, 90780.09, 35165.60, 162231.53, -5454.52, 24722.06, 9266.81, 169812.05, 23161.46, 0.000, 0.000, 0.000, 17:01:15.951
65, -56479.26, -59193.16, 128114.36, 95607.62, 61248.41, -75400.61, -47300.78, 132019.84, 90780.09, 35165.60, 162231.53, -5454.52, 24722.06, 9266.81, 169812.05, 23161.46, 0.000, 0.000, 0.000, 17:01:15.952
66, -56479.26, -59193.16, 128114.36, 95607.62, 61248.41, -75400.61, -47300.78, 132019.84, 90775.93, 35169.22, 162216.55, -5461.42, 24720.78, 9270.86, 169829.63, 23147.11, 0.000, 0.000, 0.000, 17:01:15.952
67, -56504.83, -59208.07, 128110.98, 95616.42, 61226.54, -75385.08, -47314.30, 132032.55, 90775.93, 35169.22, 162216.55, -5461.42, 24720.78, 9270.86, 169829.63, 23147.11, -0.452, 0.626, 0.550, 17:01:15.952
68, -56504.83, -59208.07, 128110.98, 95616.42, 61226.54, -75385.08, -47314.30, 132032.55, 90780.27, 35191.75, 162218.16, -5445.42, 24730.13, 9287.40, 169847.45, 23171.20, 0.000, 0.000, 0.000, 17:01:15.952
69, -56488.58, -59208.90, 128115.05, 95616.47, 61243.11, -75385.73, -47301.74, 132035.13, 90780.27, 35191.75, 162218.16, -5445.42, 24730.13, 9287.40, 169847.45, 23171.20, 0.000, 0.000, 0.000, 17:01:15.952
70, -56488.58, -59208.90, 128115.05, 95616.47, 61243.11, -75385.73, -47301.74, 132035.13, 90783.44, 35199.95, 162214.25, -5444.39, 24728.27, 9285.47, 169863.22, 23170.40, 0.000, 0.000, 0.000, 17:01:15.952
71, -56490.32, -59219.78, 128105.35, 95604.51, 61226.34, -75395.94, -47321.21, 132025.11, 90783.44, 35199.95, 162214.25, -5444.39, 24728.27, 9285.47, 169863.22, 23170.40, 0.000, 0.000, 0.000, 17:01:15.953
72, -56490.32, -59219.78, 128105.35, 95604.51, 61226.34, -75395.94, -47321.21, 132025.11, 90788.80, 35207.17, 162216.23, -5444.04, 24730.42, 9288.13, 169882.03, 23177.24, 0.000, 0.000, 0.000, 17:01:15.953
73, -56472.73, -59212.00, 128104.98, 95596.17, 61224.20, -75399.00, -47315.94, 132024.33, 90788.80, 35207.17, 162216.23, -5444.04, 24730.42, 9288.13, 169882.03, 23177.24, 0.000, 0.000, 0.000, 17:01:15.953
74, -56472.73, -59212.00, 128104.98, 95596.17, 61224.20, -75399.00, -47315.94, 132024.33, 90773.25, 35211.04, 162208.08, -5469.07, 24713.76, 9267.32, 169901.97, 23160.32, 0.000, 0.000, 0.000, 17:01:15.953
75, -56465.15, -59218.02, 128104.48, 95594.02, 61206.18, -75402.29, -47321.12, 132021.72, 90773.25, 35211.04, 162208.08, -5469.07, 24713.76, 9267.32, 169901.97, 23160.32, 0.000, 0.000, 0.000, 17:01:15.953
76, -56465.15, -59218.02, 128104.48, 95594.02, 61206.18, -75402.29, -47321.12, 132021.72, 90793.14, 35214.50, 162205.33, -5446.16, 24737.48, 9293.63, 169920.80, 23170.76, 0.000, 0.000, 0.000, 17:01:15.953
77, -56470.34, -59209.30, 128107.34, 95596.04, 61197.15, -75403.79, -47333.28, 132021.58, 90793.14, 35214.50, 162205.33, -5446.16, 24737.48, 9293.63, 169920.80, 23170.76, -0.456, 0.624, 0.550, 17:01:15.954
78, -56470.34, -59209.30, 128107.34, 95596.04, 61197.15, -75403.79, -47333.28, 132021.58, 90797.74, 35221.97, 162212.30, -5440.71, 24738.26, 9297.32, 169939.56, 23179.83, 0.000, 0.000, 0.000, 17:01:15.954
79, -56468.93, -59201.79, 128112.20, 95596.59, 61201.89, -75400.75, -47345.06, 132023.17, 90797.74, 35221.97, 162212.30, -5440.71, 24738.26, 9297.32, 169939.56, 23179.83, 0.000, 0.000, 0.000, 17:01:15.954
80, -56468.93, -59201.79, 128112.20, 95596.59, 61201.89, -75400.75, -47345.06, 132023.17, 90788.83, 35225.92, 162215.05, -5447.08, 24731.15, 9289.83, 169960.42, 23186.87, 0.000, 0.000, 0.000, 17:01:15.954
81, -56449.64, -59184.76, 128120.33, 95599.55, 61221.79, -75398.00, -47330.71, 132021.17, 90788.83, 35225.92, 162215.05, -5447.08, 24731.15, 9289.83, 169960.42, 23186.87, 0.000, 0.000, 0.000, 17:01:15.955
82, -56449.64, -59184.76, 128120.33, 95599.55, 61221.79, -75398.00, -47330.71, 132021.17, 90780.35, 35217.41, 162211.77, -5451.97, 24723.76, 9281.00, 169979.80, 23174.67, 0.000, 0.000, 0.000, 17:01:15.955
83, -56446.51, -59179.04, 128126.34, 95594.25, 61237.07, -75402.31, -47339.50, 132016.70, 90780.35, 35217.41, 162211.77, -5451.97, 24723.76, 9281.00, 169979.80, 23174.67, 0.000, 0.000, 0.000, 17:01:15.955
84, -56446.51, -59179.04, 128126.34, 95594.25, 61237.07, -75402.31, -47339.50, 132016.70, 90765.73, 35207.80, 162206.77, -5462.36, 24711.33, 9270.92, 169996.91, 23162.11, 0.000, 0.000, 0.000, 17:01:15.955
85, -56433.32, -59164.55, 128127.37, 95599.59, 61240.52, -75400.55, -47338.96, 132017.41, 90765.73, 35207.80, 162206.77, -5462.36, 24711.33, 9270.92, 169996.91, 23162.11, 0.000, 0.000, 0.000, 17:01:15.955
86, -56433.32, -59164.55, 128127.37, 95599.59, 61240.52, -75400.55, -47338.96, 132017.41, 90765.16, 35195.57, 162201.70, -5458.77, 24712.98, 9270.45, 170013.47, 23151.56, 0.000, 0.000, 0.000, 17:01:15.955
87, -56451.65, -59174.72, 128118.56, 95589.53, 61215.64, -75413.51, -47352.57, 132004.81, 90765.16, 35195.57, 162201.70, -5458.77, 24712.98, 9270.45, 170013.47, 23151.56, -0.458, 0.616, 0.548, 17:01:15.956
88, -56451.65, -59174.72, 128118.56, 95589.53, 61215.64, -75413.51, -47352.57, 132004.81, 90772.64, 35195.88, 162206.45, -5462.65, 24711.48, 9267.50, 170030.36, 23152.90, 0.000, 0.000, 0.000, 17:01:15.956
89, -56455.74, -59180.06, 128119.66, 95588.41, 61209.16, -75409.77, -47355.54, 132010.50, 90772.64, 35195.88, 162206.45, -5462.65, 24711.48, 9267.50, 170030.36, 23152.90, 0.000, 0.000, 0.000, 17:01:15.956
90, -56455.74, -59180.06, 128119.66, 95588.41, 61209.16, -75409.77, -47355.54, 132010.50, 90773.63, 35206.97, 162209.78, -5461.36, 24714.48, 9272.89, 170049.98, 23156.70, 0.000, 0.000, 0.000, 17:01:15.956
91, -56465.36, -59190.75, 128112.73, 95581.66, 61204.68, -75410.76, -47364.77, 132010.20, 90773.63, 35206.97, 162209.78, -5461.36, 24714.48, 9272.89, 170049.98, 23156.70, 0.000, 0.000, 0.000, 17:01:15.956
92, -56465.36, -59190.75, 128112.73, 95581.66, 61204.68, -75410.76, -47364.77, 132010.20, 90809.28, 35233.97, 162220.58, -5429.10, 24752.61, 9301.46, 170068.47, 23177.22, 0.000, 0.000, 0.000, 17:01:15.957
93, -56453.04, -59184.45, 128120.04, 95566.18, 61242.86, -75424.22, -47356.62, 131995.27, 90809.28, 35233.97, 162220.58, -5429.10, 24752.61, 9301.46, 170068.47, 23177.22, 0.000, 0.000, 0.000, 17:01:15.957
94, -56453.04, -59184.45, 128120.04, 95566.18, 61242.86, -75424.22, -47356.62, 131995.27, 90764.44, 35242.75, 162207.75, -5483.55, 24697.04, 9248.91, 170084.92, 23141.61, 0.000, 0.000, 0.000, 17:01:15.957
95, -56448.88, -59191.48, 128107.95, 95560.79, 61270.78, -75421.84, -47375.23, 131998.33, 90764.44, 35242.75, 162207.75, -5483.55, 24697.04, 9248.91, 170084.92, 23141.61, 0.000, 0.000, 0.000, 17:01:15.957
96, -56448.88, -59191.48, 128107.95, 95560.79, 61270.78, -75421.84, -47375.23, 131998.33, 90758.18, 35250.33, 162194.98, -5492.02, 24684.42, 9250.49, 170100.59, 23135.93, 0.000, 0.000, 0.000, 17:01:15.957
97, -56440.81, -59195.87, 128111.03, 95564.01, 61283.72, -75416.80, -47368.24, 132003.20, 90758.18, 35250.33, 162194.98, -5492.02, 24684.42, 9250.49, 170100.59, 23135.93, -0.460, 0.618, 0.544, 17:01:15.958
98, -56440.81, -59195.87, 128111.03, 95564.01, 61283.72, -75416.80, -47368.24, 132003.20, 90735.07, 35257.93, 162180.25, -5514.91, 24667.12, 9234.82, 170118.52, 23117.13, 0.000, 0.000, 0.000, 17:01:15.958
99, -56454.85, -59206.91, 128106.74, 95573.53, 61273.93, -75407.72, -47372.64, 132011.34, 90735.07, 35257.93, 162180.25, -5514.91, 24667.12, 9234.82, 170118.52, 23117.13, 0.000, 0.000, 0.000, 17:01:15.958
100, -56454.85, -59206.91, 128106.74, 95573.53, 61273.93, -75407.72, -47372.64, 132011.34, 90750.38, 35278.29, 162177.14, -5495.67, 24678.05, 9253.13, 170134.77, 23132.65, 0.000, 0.000, 0.000, 17:01:15.958
101, -56448.14, -59204.81, 128108.02, 95564.41, 61270.62, -75413.69, -47365.60, 132003.98, 90750.38, 35278.29, 162177.14, -5495.67, 24678.05, 9253.13, 170134.77, 23132.65, 0.000, 0.000, 0.000, 17:01:15.959
102, -56448.14, -59204.81, 128108.02, 95564.41, 61270.62, -75413.69, -47365.60, 132003.98, 90705.03, 35262.20, 162161.98, -5548.33, 24627.46, 9199.13, 170149.81, 23091.68, 0.000, 0.000, 0.000, 17:01:15.960
103, -56448.79, -59220.88, 128099.32, 95566.38, 61256.61, -75414.76, -47383.80, 132002.94, 90705.03, 35262.20, 162161.98, -5548.33, 24627.46, 9199.13, 170149.81, 23091.68, 0.000, 0.000, 0.000, 17:01:15.960
104, -56448.79, -59220.88, 128099.32, 95566.38, 61256.61, -75414.76, -47383.80, 132002.94, 90752.75, 35268.35, 162159.63, -5492.81, 24682.47, 9254.27, 170165.03, 23121.02, 0.000, 0.000, 0.000, 17:01:15.960
105, -56468.48, -59241.04, 128099.48, 95571.59, 61222.16, -75411.63, -47391.66, 132006.88, 90752.75, 35268.35, 162159.63, -5492.81, 24682.47, 9254.27, 170165.03, 23121.02, 0.000, 0.000, 0.000, 17:01:15.960
106, -56468.48, -59241.04, 128099.48, 95571.59, 61222.16, -75411.63, -47391.66, 132006.88, 90742.38, 35296.55, 162175.05, -5499.11, 24671.63, 9243.83, 170183.89, 23136.94, 0.000, 0.000, 0.000, 17:01:15.961
107, -56443.72, -59237.35, 128113.24, 95574.73, 61233.50, -75412.62, -47375.44, 132016.28, 90742.38, 35296.55, 162175.05, -5499.11, 24671.63, 9243.83, 170183.89, 23136.94, -0.462, 0.614, 0.544, 17:01:15.961
108, -56443.72, -59237.35, 128113.24, 95574.73, 61233.50, -75412.62, -47375.44, 132016.28, 90734.20, 35298.59, 162171.58, -5510.40, 24656.54, 9231.85, 170202.05, 23131.02, 0.000, 0.000, 0.000, 17:01:15.961
109, -56456.28, -59260.38, 128110.27, 95576.41, 61225.45, -75411.54, -47389.99, 132013.64, 90734.20, 35298.59, 162171.58, -5510.40, 24656.54, 9231.85, 170202.05, 23131.02, 0.000, 0.000, 0.000, 17:01:15.961
110, -56456.28, -59260.38, 128110.27, 95576.41, 61225.45, -75411.54, -47389.99, 132013.64, 90729.26, 35300.73, 162167.67, -5518.51, 24647.11, 9225.15, 170215.70, 23137.61, 0.000, 0.000, 0.000, 17:01:15.962
111, -56439.81, -59256.08, 128122.38, 95572.05, 61247.49, -75415.88, -47380.64, 132011.66, 90729.26, 35300.73, 162167.67, -5518.51, 24647.11, 9225.15, 170215.70, 23137.61, 0.000, 0.000, 0.000, 17:01:15.962
112, -56439.81, -59256.08, 128122.38, 95572.05, 61247.49, -75415.88, -47380.64, 132011.66, 90712.59, 35281.58, 162155.59, -5535.25, 24632.49, 9207.55, 170231.22, 23123.44, 0.000, 0.000, 0.000, 17:01:15.963
113, -56459.86, -59276.24, 128119.59, 95572.55, 61215.95, -75419.77, -47393.07, 132010.11, 90712.59, 35281.58, 162155.59, -5535.25, 24632.49, 9207.55, 170231.22, 23123.44, 0.000, 0.000, 0.000, 17:01:15.964
114, -56459.86, -59276.24, 128119.59, 95572.55, 61215.95, -75419.77, -47393.07, 132010.11, 90721.26, 35278.05, 162158.77, -5525.93, 24643.51, 9215.47, 170250.58, 23133.63, 0.000, 0.000, 0.000, 17:01:15.964
115, -56448.73, -59266.70, 128129.98, 95573.77, 61241.88, -75421.96, -47395.96, 132006.42, 90721.26, 35278.05, 162158.77, -5525.93, 24643.51, 9215.47, 170250.58, 23133.63, 0.000, 0.000, 0.000, 17:01:15.964
116, -56448.73, -59266.70, 128129.98, 95573.77, 61241.88, -75421.96, -47395.96, 132006.42, 90712.45, 35281.13, 162152.00, -5531.77, 24638.89, 9211.49, 170269.34, 23123.68, 0.000, 0.000, 0.000, 17:01:15.965
117, -56460.62, -59280.33, 128130.61, 95581.60, 61243.40, -75414.27, -47395.89, 132017.09, 90712.45, 35281.13, 162152.00, -5531.77, 24638.89, 9211.49, 170269.34, 23123.68, -0.462, 0.616, 0.546, 17:01:15.965
118, -56460.62, -59280.33, 128130.61, 95581.60, 61243.40, -75414.27, -47395.89, 132017.09, 90734.76, 35289.85, 162158.45, -5498.40, 24668.88, 9243.94, 170287.00, 23154.60, 0.000, 0.000, 0.000, 17:01:15.965
119, -56460.48, -59287.51, 128140.47, 95585.11, 61248.56, -75416.77, -47387.89, 132019.14, 90734.76, 35289.85, 162158.45, -5498.40, 24668.88, 9243.94, 170287.00, 23154.60, 0.000, 0.000, 0.000, 17:01:15.966
120, -56460.48, -59287.51, 128140.47, 95585.11, 61248.56, -75416.77, -47387.89, 132019.14, 90725.93, 35290.57, 162164.36, -5511.22, 24662.40, 9227.22, 170304.80, 23145.57, 0.000, 0.000, 0.000, 17:01:15.966
121, -56456.75, -59294.41, 128127.21, 95571.07, 61237.79, -75433.96, -47392.80, 132003.25, 90725.93, 35290.57, 162164.36, -5511.22, 24662.40, 9227.22, 170304.80, 23145.57, 0.000, 0.000, 0.000, 17:01:15.966
122, -56456.75, -59294.41, 128127.21, 95571.07, 61237.79, -75433.96, -47392.80, 132003.25, 90727.96, 35298.61, 162163.69, -5523.74, 24650.53, 9212.07, 170320.02, 23123.44, 0.000, 0.000, 0.000, 17:01:16.418
123, -56457.38, -59303.11, 128125.83, 95557.55, 61227.84, -75445.65, -47405.43, 131992.91, 90727.96, 35298.61, 162163.69, -5523.74, 24650.53, 9212.07, 170320.02, 23123.44, 0.000, 0.000, 0.000, 17:01:16.418
124, -56457.38, -59303.11, 128125.83, 95557.55, 61227.84, -75445.65, -47405.43, 131992.91, 90738.38, 35301.92, 162158.81, -5512.39, 24659.52, 9229.08, 170335.58, 23130.61, 0.000, 0.000, 0.000, 17:01:16.418
125, -56477.45, -59317.13, 128129.80, 95562.45, 61211.52, -75437.27, -47404.23, 132001.06, 90738.38, 35301.92, 162158.81, -5512.39, 24659.52, 9229.08, 170335.58, 23130.61, 0.000, 0.000, 0.000, 17:01:16.419
126, -56477.45, -59317.13, 128129.80, 95562.45, 61211.52, -75437.27, -47404.23, 132001.06, 90762.30, 35302.66, 162173.67, -5490.59, 24684.13, 9255.21, 170351.06, 23162.15, -0.462, 0.616, 0.546, 17:01:16.419
127, -56470.92, -59312.90, 128141.09, 95558.64, 61214.77, -75434.92, -47398.28, 132003.61, 90762.30, 35302.66, 162173.67, -5490.59, 24684.13, 9255.21, 170351.06, 23162.15, 0.000, 0.000, 0.000, 17:01:16.419
128, -56470.92, -59312.90, 128141.09, 95558.64, 61214.77, -75434.92, -47398.28, 132003.61, 90753.71, 35293.58, 162174.42, -5497.97, 24675.36, 9250.83, 170364.91, 23161.97, 0.000, 0.000, 0.000, 17:01:16.420
129, -56475.39, -59320.79, 128137.59, 95563.94, 61213.04, -75426.49, -47405.70, 132008.38, 90753.71, 35293.58, 162174.42, -5497.97, 24675.36, 9250.83, 170364.91, 23161.97, 0.000, 0.000, 0.000, 17:01:16.420
130, -56475.39, -59320.79, 128137.59, 95563.94, 61213.04, -75426.49, -47405.70, 132008.38, 90773.80, 35299.06, 162182.38, -5475.69, 24692.82, 9271.95, 170382.73, 23184.32, 0.000, 0.000, 0.000, 17:01:16.420
131, -56470.96, -59326.80, 128139.93, 95564.16, 61228.06, -75428.28, -47408.18, 132011.50, 90773.80, 35299.06, 162182.38, -5475.69, 24692.82, 9271.95, 170382.73, 23184.32, 0.000, 0.000, 0.000, 17:01:16.420
132, -56470.96, -59326.80, 128139.93, 95564.16, 61228.06, -75428.28, -47408.18, 132011.50, 90770.30, 35309.47, 162186.94, -5480.78, 24690.45, 9262.94, 170397.58, 23177.37, 0.000, 0.000, 0.000, 17:01:16.421
133, -56469.89, -59337.69, 128130.97, 95559.72, 61202.74, -75431.30, -47419.11, 132005.91, 90770.30, 35309.47, 162186.94, -5480.78, 24690.45, 9262.94, 170397.58, 23177.37, 0.000, 0.000, 0.000, 17:01:16.421
134, -56469.89, -59337.69, 128130.97, 95559.72, 61202.74, -75431.30, -47419.11, 132005.91, 90755.74, 35329.52, 162186.42, -5497.75, 24669.29, 9247.90, 170411.27, 23163.60, 0.000, 0.000, 0.000, 17:01:16.421
135, -56434.87, -59323.90, 128139.51, 95552.63, 61225.72, -75435.13, -47402.28, 132006.09, 90755.74, 35329.52, 162186.42, -5497.75, 24669.29, 9247.90, 170411.27, 23163.60, 0.000, 0.000, 0.000, 17:01:16.421
136, -56434.87, -59323.90, 128139.51, 95552.63, 61225.72, -75435.13, -47402.28, 132006.09, 90710.66, 35315.53, 162161.30, -5551.28, 24621.18, 9200.76, 170428.17, 23111.37, -0.468, 0.614, 0.544, 17:01:16.421
137, -56457.80, -59342.67, 128129.41, 95544.20, 61221.76, -75430.30, -47420.95, 132008.73, 90710.66, 35315.53, 162161.30, -5551.28, 24621.18, 9200.76, 170428.17, 23111.37, 0.000, 0.000, 0.000, 17:01:16.421
138, -56457.80, -59342.67, 128129.41, 95544.20, 61221.76, -75430.30, -47420.95, 132008.73, 90742.38, 35322.84, 162159.48, -5521.57, 24655.65, 9229.01, 170445.41, 23137.77, 0.000, 0.000, 0.000, 17:01:16.422
139, -56453.87, -59340.62, 128140.06, 95544.30, 61248.92, -75432.24, -47415.96, 132015.70, 90742.38, 35322.84, 162159.48, -5521.57, 24655.65, 9229.01, 170445.41, 23137.77, 0.000, 0.000, 0.000, 17:01:16.422
140, -56453.87, -59340.62, 128140.06, 95544.30, 61248.92, -75432.24, -47415.96, 132015.70, 90720.59, 35318.53, 162150.36, -5544.08, 24631.85, 9205.68, 170458.44, 23129.67, 0.000, 0.000, 0.000, 17:01:16.422
141, -56481.71, -59359.79, 128138.01, 95550.59, 61219.26, -75429.13, -47430.87, 132019.13, 90720.59, 35318.53, 162150.36, -5544.08, 24631.85, 9205.68, 170458.44, 23129.67, 0.000, 0.000, 0.000, 17:01:16.422
142, -56481.71, -59359.79, 128138.01, 95550.59, 61219.26, -75429.13, -47430.87, 132019.13, 90757.34, 35332.41, 162159.17, -5497.55, 24674.87, 9253.53, 170470.98, 23172.79, 0.000, 0.000, 0.000, 17:01:16.422
143, -56474.83, -59350.79, 128150.66, 95554.76, 61231.73, -75424.77, -47409.73, 132018.16, 90757.34, 35332.41, 162159.17, -5497.55, 24674.87, 9253.53, 170470.98, 23172.79, 0.000, 0.000, 0.000, 17:01:16.422
144, -56474.83, -59350.79, 128150.66, 95554.76, 61231.73, -75424.77, -47409.73, 132018.16, 90732.57, 35327.71, 162161.39, -5523.05, 24648.03, 9226.96, 170485.25, 23152.56, 0.000, 0.000, 0.000, 17:01:16.423
145, -56475.55, -59347.07, 128137.09, 95551.00, 61257.55, -75426.88, -47420.23, 132016.95, 90732.57, 35327.71, 162161.39, -5523.05, 24648.03, 9226.96, 170485.25, 23152.56, 0.000, 0.000, 0.000, 17:01:16.423
146, -56475.55, -59347.07, 128137.09, 95551.00, 61257.55, -75426.88, -47420.23, 132016.95, 90750.27, 35314.79, 162164.61, -5503.74, 24662.47, 9245.73, 170499.02, 23157.10, -0.458, 0.616, 0.548, 17:01:16.423
147, -56481.80, -59349.78, 128131.46, 95555.98, 61272.21, -75424.53, -47424.59, 132019.75, 90750.27, 35314.79, 162164.61, -5503.74, 24662.47, 9245.73, 170499.02, 23157.10, 0.000, 0.000, 0.000, 17:01:16.423
148, -56481.80, -59349.78, 128131.46, 95555.98, 61272.21, -75424.53, -47424.59, 132019.75, 90757.98, 35316.67, 162173.50, -5490.48, 24672.30, 9256.24, 170513.77, 23185.64, 0.000, 0.000, 0.000, 17:01:16.423
149, -56473.42, -59349.47, 128137.65, 95561.05, 61280.57, -75421.47, -47420.83, 132017.59, 90757.98, 35316.67, 162173.50, -5490.48, 24672.30, 9256.24, 170513.77, 23185.64, 0.000, 0.000, 0.000, 17:01:16.423
150, -56473.42, -59349.47, 128137.65, 95561.05, 61280.57, -75421.47, -47420.83, 132017.59, 90759.45, 35322.30, 162174.91, -5485.61, 24675.45, 9262.67, 170525.19, 23189.06, 0.000, 0.000, 0.000, 17:01:16.424
151, -56473.42, -59352.08, 128139.80, 95560.66, 61275.79, -75419.97, -47419.40, 132013.56, 90759.45, 35322.30, 162174.91, -5485.61, 24675.45, 9262.67, 170525.19, 23189.06, 0.000, 0.000, 0.000, 17:01:16.424
152, -56473.42, -59352.08, 128139.80, 95560.66, 61275.79, -75419.97, -47419.40, 132013.56, 90751.95, 35329.05, 162179.77, -5496.27, 24667.03, 9249.73, 170535.38, 23185.71, 0.000, 0.000, 0.000, 17:01:16.424
153, -56477.45, -59364.44, 128130.84, 95562.45, 61249.66, -75417.42, -47428.75, 132016.97, 90751.95, 35329.05, 162179.77, -5496.27, 24667.03, 9249.73, 170535.38, 23185.71, 0.000, 0.000, 0.000, 17:01:16.424
154, -56477.45, -59364.44, 128130.84, 95562.45, 61249.66, -75417.42, -47428.75, 132016.97, 90775.84, 35348.05, 162188.47, -5463.82, 24695.93, 9283.86, 170549.92, 23211.57, 0.000, 0.000, 0.000, 17:01:16.424
155, -56456.01, -59347.99, 128142.52, 95557.26, 61263.45, -75416.77, -47422.24, 132011.41, 90775.84, 35348.05, 162188.47, -5463.82, 24695.93, 9283.86, 170549.92, 23211.57, 0.000, 0.000, 0.000, 17:01:16.427
156, -56456.01, -59347.99, 128142.52, 95557.26, 61263.45, -75416.77, -47422.24, 132011.41, 90734.96, 35341.59, 162174.02, -5518.51, 24644.76, 9237.37, 170562.20, 23171.87, -0.458, 0.614, 0.546, 17:01:16.427
157, -56453.89, -59349.47, 128135.05, 95554.66, 61271.16, -75415.63, -47445.38, 132011.92, 90734.96, 35341.59, 162174.02, -5518.51, 24644.76, 9237.37, 170562.20, 23171.87, 0.000, 0.000, 0.000, 17:01:16.427
158, -56453.89, -59349.47, 128135.05, 95554.66, 61271.16, -75415.63, -47445.38, 132011.92, 90732.99, 35348.03, 162159.55, -5522.20, 24641.90, 9239.36, 170570.98, 23158.60, 0.000, 0.000, 0.000, 17:01:16.428
159, -56452.14, -59352.04, 128134.59, 95548.56, 61269.35, -75418.96, -47468.51, 132003.72, 90732.99, 35348.03, 162159.55, -5522.20, 24641.90, 9239.36, 170570.98, 23158.60, 0.000, 0.000, 0.000, 17:01:16.428
160, -56452.14, -59352.04, 128134.59, 95548.56, 61269.35, -75418.96, -47468.51, 132003.72, 90724.43, 35359.45, 162145.47, -5536.39, 24631.06, 9223.96, 170584.80, 23137.94, 0.000, 0.000, 0.000, 17:01:16.428
161, -56480.55, -59377.88, 128129.20, 95548.77, 61246.19, -75409.69, -47461.69, 132009.27, 90724.43, 35359.45, 162145.47, -5536.39, 24631.06, 9223.96, 170584.80, 23137.94, 0.000, 0.000, 0.000, 17:01:16.428
162, -56480.55, -59377.88, 128129.20, 95548.77, 61246.19, -75409.69, -47461.69, 132009.27, 90771.75, 35382.83, 162160.89, -5479.28, 24679.86, 9279.35, 170602.44, 23190.74, 0.000, 0.000, 0.000, 17:01:16.429
163, -56457.44, -59366.59, 128150.75, 95555.58, 61270.06, -75401.87, -47434.20, 132017.13, 90771.75, 35382.83, 162160.89, -5479.28, 24679.86, 9279.35, 170602.44, 23190.74, 0.000, 0.000, 0.000, 17:01:16.429
164, -56457.44, -59366.59, 128150.75, 95555.58, 61270.06, -75401.87, -47434.20, 132017.13, 90733.10, 35387.68, 162161.66, -5516.92, 24640.00, 9240.61, 170615.98, 23167.74, 0.000, 0.000, 0.000, 17:01:16.429
165, -56456.57, -59370.81, 128144.83, 95552.50, 61268.79, -75406.47, -47446.92, 132011.41, 90733.10, 35387.68, 162161.66, -5516.92, 24640.00, 9240.61, 170615.98, 23167.74, 0.000, 0.000, 0.000, 17:01:16.429
166, -56456.57, -59370.81, 128144.83, 95552.50, 61268.79, -75406.47, -47446.92, 132011.41, 90760.04, 35409.27, 162160.97, -5488.60, 24664.95, 9270.63, 170624.16, 23183.38, -0.460, 0.608, 0.548, 17:01:16.430
167, -56463.72, -59365.43, 128151.71, 95562.65, 61248.76, -75403.83, -47446.20, 132017.33, 90760.04, 35409.27, 162160.97, -5488.60, 24664.95, 9270.63, 170624.16, 23183.38, 0.000, 0.000, 0.000, 17:01:16.430
168, -56463.72, -59365.43, 128151.71, 95562.65, 61248.76, -75403.83, -47446.20, 132017.33, 90747.63, 35442.98, 162172.77, -5495.71, 24660.30, 9258.83, 170637.75, 23187.77, 0.000, 0.000, 0.000, 17:01:16.430
169, -56442.20, -59355.35, 128149.70, 95554.58, 61256.38, -75406.47, -47441.17, 132008.38, 90747.63, 35442.98, 162172.77, -5495.71, 24660.30, 9258.83, 170637.75, 23187.77, 0.000, 0.000, 0.000, 17:01:16.430
170, -56442.20, -59355.35, 128149.70, 95554.58, 61256.38, -75406.47, -47441.17, 132008.38, 90751.74, 35479.44, 162168.00, -5500.92, 24660.57, 9255.16, 170652.80, 23171.49, 0.000, 0.000, 0.000, 17:01:16.430
171, -56462.18, -59372.38, 128134.88, 95548.16, 61208.66, -75411.19, -47465.25, 132004.55, 90751.74, 35479.44, 162168.00, -5500.92, 24660.57, 9255.16, 170652.80, 23171.49, 0.000, 0.000, 0.000, 17:01:16.430
172, -56462.18, -59372.38, 128134.88, 95548.16, 61208.66, -75411.19, -47465.25, 132004.55, 90767.73, 35510.53, 162177.50, -5486.93, 24671.59, 9266.47, 170670.25, 23175.90, 0.000, 0.000, 0.000, 17:01:16.431
173, -56450.76, -59370.16, 128144.38, 95542.04, 61208.48, -75422.52, -47456.33, 131995.05, 90767.73, 35510.53, 162177.50, -5486.93, 24671.59, 9266.47, 170670.25, 23175.90, 0.000, 0.000, 0.000, 17:01:16.431
174, -56450.76, -59370.16, 128144.38, 95542.04, 61208.48, -75422.52, -47456.33, 131995.05, 90744.48, 35516.81, 162172.58, -5513.66, 24647.29, 9241.78, 170685.33, 23156.47, 0.000, 0.000, 0.000, 17:01:16.431
175, -56434.29, -59364.96, 128150.68, 95540.54, 61212.57, -75419.90, -47452.13, 131998.53, 90744.48, 35516.81, 162172.58, -5513.66, 24647.29, 9241.78, 170685.33, 23156.47, 0.000, 0.000, 0.000, 17:01:16.431
176, -56434.29, -59364.96, 128150.68, 95540.54, 61212.57, -75419.90, -47452.13, 131998.53, 90725.55, 35503.89, 162159.67, -5532.64, 24624.18, 9223.78, 170697.72, 23134.70, -0.464, 0.610, 0.546, 17:01:16.431
177, -56444.93, -59376.74, 128138.63, 95533.32, 61182.42, -75419.77, -47468.80, 132002.05, 90725.55, 35503.89, 162159.67, -5532.64, 24624.18, 9223.78, 170697.72, 23134.70, 0.000, 0.000, 0.000, 17:01:16.431
178, -56444.93, -59376.74, 128138.63, 95533.32, 61182.42, -75419.77, -47468.80, 132002.05, 90745.11, 35502.79, 162158.69, -5513.95, 24648.52, 9243.79, 170710.44, 23171.79, 0.000, 0.000, 0.000, 17:01:16.432
179, -56455.92, -59379.53, 128129.23, 95537.63, 61165.66, -75412.15, -47468.67, 132008.38, 90745.11, 35502.79, 162158.69, -5513.95, 24648.52, 9243.79, 170710.44, 23171.79, 0.000, 0.000, 0.000, 17:01:16.432
180, -56455.92, -59379.53, 128129.23, 95537.63, 61165.66, -75412.15, -47468.67, 132008.38, 90771.59, 35517.90, 162170.66, -5479.75, 24676.15, 9272.93, 170723.36, 23226.99, 0.000, 0.000, 0.000, 17:01:16.432
181, -56455.23, -59374.70, 128134.32, 95534.26, 61178.80, -75412.68, -47473.32, 132003.70, 90771.59, 35517.90, 162170.66, -5479.75, 24676.15, 9272.93, 170723.36, 23226.99, 0.000, 0.000, 0.000, 17:01:16.432
182, -56455.23, -59374.70, 128134.32, 95534.26, 61178.80, -75412.68, -47473.32, 132003.70, 90744.15, 35516.21, 162173.20, -5514.47, 24641.05, 9231.29, 170732.14, 23225.27, 0.000, 0.000, 0.000, 17:01:16.432
183, -56424.68, -59357.85, 128141.95, 95533.99, 61227.48, -75412.59, -47471.32, 132002.17, 90744.15, 35516.21, 162173.20, -5514.47, 24641.05, 9231.29, 170732.14, 23225.27, 0.000, 0.000, 0.000, 17:01:16.433
184, -56424.68, -59357.85, 128141.95, 95533.99, 61227.48, -75412.59, -47471.32, 132002.17, 90718.15, 35505.61, 162155.69, -5531.97, 24622.79, 9218.22, 170741.94, 23209.89, 0.000, 0.000, 0.000, 17:01:16.433
185, -56438.64, -59362.90, 128135.08, 95538.80, 61197.60, -75401.66, -47475.75, 132012.95, 90718.15, 35505.61, 162155.69, -5531.97, 24622.79, 9218.22, 170741.94, 23209.89, 0.000, 0.000, 0.000, 17:01:16.433
186, -56438.64, -59362.90, 128135.08, 95538.80, 61197.60, -75401.66, -47475.75, 132012.95, 90748.48, 35518.26, 162162.61, -5499.00, 24651.43, 9251.10, 170755.30, 23238.86, -0.476, 0.618, 0.552, 17:01:16.433
187, -56440.32, -59364.00, 128131.93, 95533.32, 61184.48, -75407.18, -47477.41, 132004.38, 90748.48, 35518.26, 162162.61, -5499.00, 24651.43, 9251.10, 170755.30, 23238.86, 0.000, 0.000, 0.000, 17:01:16.433
188, -56440.32, -59364.00, 128131.93, 95533.32, 61184.48, -75407.18, -47477.41, 132004.38, 90741.09, 35528.88, 162163.95, -5511.40, 24644.34, 9234.29, 170766.58, 23229.68, 0.000, 0.000, 0.000, 17:01:16.434
189, -56437.44, -59361.65, 128131.70, 95530.28, 61177.57, -75410.72, -47482.88, 132002.56, 90741.09, 35528.88, 162163.95, -5511.40, 24644.34, 9234.29, 170766.58, 23229.68, 0.000, 0.000, 0.000, 17:01:16.434
190, -56437.44, -59361.65, 128131.70, 95530.28, 61177.57, -75410.72, -47482.88, 132002.56, 90748.23, 35542.13, 162164.36, -5499.71, 24656.81, 9247.63, 170773.47, 23235.55, 0.000, 0.000, 0.000, 17:01:16.434
191, -56439.65, -59356.78, 128129.49, 95528.89, 61179.74, -75413.45, -47492.34, 132000.84, 90748.23, 35542.13, 162164.36, -5499.71, 24656.81, 9247.63, 170773.47, 23235.55, 0.000, 0.000, 0.000, 17:01:16.434
192, -56439.65, -59356.78, 128129.49, 95528.89, 61179.74, -75413.45, -47492.34, 132000.84, 90772.64, 35552.66, 162169.86, -5478.59, 24672.59, 9265.67, 170782.44, 23251.74, 0.000, 0.000, 0.000, 17:01:16.434
193, -56444.77, -59361.09, 128124.51, 95513.09, 61183.27, -75424.69, -47493.68, 131991.67, 90772.64, 35552.66, 162169.86, -5478.59, 24672.59, 9265.67, 170782.44, 23251.74, 0.000, 0.000, 0.000, 17:01:16.435
194, -56444.77, -59361.09, 128124.51, 95513.09, 61183.27, -75424.69, -47493.68, 131991.67, 90765.20, 35565.65, 162173.70, -5495.98, 24657.10, 9254.43, 170796.92, 23252.70, 0.000, 0.000, 0.000, 17:01:16.435
195, -56432.95, -59359.84, 128126.68, 95506.25, 61207.14, -75423.03, -47500.70, 131995.41, 90765.20, 35565.65, 162173.70, -5495.98, 24657.10, 9254.43, 170796.92, 23252.70, 0.000, 0.000, 0.000, 17:01:16.435
196, -56432.95, -59359.84, 128126.68, 95506.25, 61207.14, -75423.03, -47500.70, 131995.41, 90753.82, 35569.87, 162169.75, -5509.01, 24646.44, 9239.76, 170808.53, 23237.77, -0.470, 0.618, 0.550, 17:01:16.436
197, -56441.48, -59366.14, 128124.35, 95505.67, 61202.45, -75420.55, -47514.82, 131997.42, 90753.82, 35569.87, 162169.75, -5509.01, 24646.44, 9239.76, 170808.53, 23237.77, 0.000, 0.000, 0.000, 17:01:16.436
198, -56441.48, -59366.14, 128124.35, 95505.67, 61202.45, -75420.55, -47514.82, 131997.42, 90777.27, 35586.19, 162179.53, -5473.85, 24679.90, 9270.07, 170819.56, 23252.07, 0.000, 0.000, 0.000, 17:01:16.436
199, -56421.34, -59353.09, 128136.49, 95513.60, 61214.25, -75415.61, -47490.95, 132002.38, 90777.27, 35586.19, 162179.53, -5473.85, 24679.90, 9270.07, 170819.56, 23252.07, 0.000, 0.000, 0.000, 17:01:16.436
200, -56421.34, -59353.09, 128136.49, 95513.60, 61214.25, -75415.61, -47490.95, 132002.38, 90753.11, 35590.35, 162181.38, -5495.98, 24657.48, 9249.29, 170829.33, 23236.60, 0.000, 0.000, 0.000, 17:01:16.436
201, -56413.97, -59353.02, 128134.99, 95512.09, 61206.56, -75418.80, -47504.54, 131997.16, 90753.11, 35590.35, 162181.38, -5495.98, 24657.48, 9249.29, 170829.33, 23236.60, 0.000, 0.000, 0.000, 17:01:16.436
202, -56413.97, -59353.02, 128134.99, 95512.09, 61206.56, -75418.80, -47504.54, 131997.16, 90755.52, 35604.85, 162181.72, -5491.60, 24656.14, 9255.23, 170843.83, 23235.60, 0.000, 0.000, 0.000, 17:01:16.437
203, -56424.56, -59357.04, 128130.90, 95518.57, 61190.45, -75415.68, -47526.16, 131997.22, 90755.52, 35604.85, 162181.72, -5491.60, 24656.14, 9255.23, 170843.83, 23235.60, 0.000, 0.000, 0.000, 17:01:16.437
204, -56424.56, -59357.04, 128130.90, 95518.57, 61190.45, -75415.68, -47526.16, 131997.22, 90760.95, 35621.13, 162187.00, -5483.53, 24656.99, 9262.54, 170854.63, 23250.20, 0.000, 0.000, 0.000, 17:01:16.437
205, -56394.21, -59339.07, 128141.74, 95515.91, 61207.81, -75417.31, -47521.08, 131981.48, 90760.95, 35621.13, 162187.00, -5483.53, 24656.99, 9262.54, 170854.63, 23250.20, 0.000, 0.000, 0.000, 17:01:16.437
206, -56394.21, -59339.07, 128141.74, 95515.91, 61207.81, -75417.31, -47521.08, 131981.48, 90724.05, 35611.51, 162166.92, -5519.03, 24616.87, 9230.38, 170860.63, 23217.22, -0.464, 0.620, 0.546, 17:01:16.437
207, -56423.04, -59363.37, 128135.23, 95521.16, 61183.25, -75412.16, -47550.00, 131990.84, 90724.05, 35611.51, 162166.92, -5519.03, 24616.87, 9230.38, 170860.63, 23217.22, 0.000, 0.000, 0.000, 17:01:16.437
208, -56423.04, -59363.37, 128135.23, 95521.16, 61183.25, -75412.16, -47550.00, 131990.84, 90777.72, 35640.91, 162178.89, -5461.18, 24673.96, 9284.76, 170869.42, 23262.35, 0.000, 0.000, 0.000, 17:01:16.438
209, -56437.17, -59371.62, 128142.08, 95524.20, 61179.05, -75415.43, -47546.29, 131992.67, 90777.72, 35640.91, 162178.89, -5461.18, 24673.96, 9284.76, 170869.42, 23262.35, 0.000, 0.000, 0.000, 17:01:16.438
210, -56437.17, -59371.62, 128142.08, 95524.20, 61179.05, -75415.43, -47546.29, 131992.67, 90798.91, 35677.12, 162200.05, -5439.10, 24692.84, 9303.00, 170882.13, 23294.12, 0.000, 0.000, 0.000, 17:01:16.438
211, -56436.45, -59374.77, 128142.34, 95518.32, 61173.93, -75417.29, -47533.06, 131994.05, 90798.91, 35677.12, 162200.05, -5439.10, 24692.84, 9303.00, 170882.13, 23294.12, 0.000, 0.000, 0.000, 17:01:16.438
212, -56436.45, -59374.77, 128142.34, 95518.32, 61173.93, -75417.29, -47533.06, 131994.05, 90805.91, 35703.94, 162211.98, -5435.34, 24702.03, 9310.51, 170890.91, 23302.59, 0.000, 0.000, 0.000, 17:01:16.438
213, -56418.39, -59360.87, 128142.57, 95516.49, 61204.80, -75414.29, -47512.88, 131997.31, 90805.91, 35703.94, 162211.98, -5435.34, 24702.03, 9310.51, 170890.91, 23302.59, 0.000, 0.000, 0.000, 17:01:16.438
214, -56418.39, -59360.87, 128142.57, 95516.49, 61204.80, -75414.29, -47512.88, 131997.31, 90772.51, 35715.80, 162209.55, -5474.32, 24660.14, 9270.77, 170898.13, 23282.80, 0.000, 0.000, 0.000, 17:01:16.439
215, -56402.46, -59356.53, 128140.71, 95506.32, 61229.96, -75417.22, -47520.75, 131987.34, 90772.51, 35715.80, 162209.55, -5474.32, 24660.14, 9270.77, 170898.13, 23282.80, -0.466, 0.616, 0.556, 17:01:16.439
216, -56402.46, -59356.53, 128140.71, 95506.32, 61229.96, -75417.22, -47520.75, 131987.34, 90740.19, 35709.73, 162191.98, -5511.09, 24626.28, 9236.10, 170908.09, 23245.50, 0.000, 0.000, 0.000, 17:01:16.439
217, -56398.21, -59361.85, 128141.45, 95510.30, 61243.02, -75412.34, -47531.50, 131992.77, 90740.19, 35709.73, 162191.98, -5511.09, 24626.28, 9236.10, 170908.09, 23245.50, 0.000, 0.000, 0.000, 17:01:16.440
218, -56398.21, -59361.85, 128141.45, 95510.30, 61243.02, -75412.34, -47531.50, 131992.77, 90743.92, 35721.71, 162185.95, -5492.25, 24633.57, 9249.46, 170921.81, 23245.43, 0.000, 0.000, 0.000, 17:01:16.440
219, -56410.50, -59365.65, 128139.46, 95516.24, 61230.81, -75410.00, -47529.55, 131997.48, 90743.92, 35721.71, 162185.95, -5492.25, 24633.57, 9249.46, 170921.81, 23245.43, 0.000, 0.000, 0.000, 17:01:16.440
220, -56410.50, -59365.65, 128139.46, 95516.24, 61230.81, -75410.00, -47529.55, 131997.48, 90757.76, 35736.68, 162186.83, -5477.59, 24644.29, 9261.04, 170932.97, 23261.46, 0.000, 0.000, 0.000, 17:01:16.440
221, -56408.11, -59363.73, 128136.38, 95508.46, 61243.98, -75413.91, -47537.96, 131991.92, 90757.76, 35736.68, 162186.83, -5477.59, 24644.29, 9261.04, 170932.97, 23261.46, 0.000, 0.000, 0.000, 17:01:16.441
222, -56408.11, -59363.73, 128136.38, 95508.46, 61243.98, -75413.91, -47537.96, 131991.92, 90748.33, 35740.26, 162181.13, -5486.26, 24634.46, 9251.25, 170941.23, 23247.22, 0.000, 0.000, 0.000, 17:01:16.441
223, -56401.47, -59365.56, 128138.12, 95506.48, 61271.70, -75408.48, -47533.02, 131993.33, 90748.33, 35740.26, 162181.13, -5486.26, 24634.46, 9251.25, 170941.23, 23247.22, 0.000, 0.000, 0.000, 17:01:16.441
224, -56401.47, -59365.56, 128138.12, 95506.48, 61271.70, -75408.48, -47533.02, 131993.33, 90737.10, 35737.89, 162172.58, -5501.10, 24621.23, 9236.86, 170950.81, 23236.27, 0.000, 0.000, 0.000, 17:01:16.441
225, -56406.73, -59371.37, 128127.68, 95507.28, 61261.55, -75405.62, -47539.81, 131996.88, 90737.10, 35737.89, 162172.58, -5501.10, 24621.23, 9236.86, 170950.81, 23236.27, -0.466, 0.612, 0.552, 17:01:16.442
226, -56406.73, -59371.37, 128127.68, 95507.28, 61261.55, -75405.62, -47539.81, 131996.88, 90752.51, 35754.86, 162174.48, -5480.02, 24640.58, 9255.08, 170963.14, 23250.73, 0.000, 0.000, 0.000, 17:01:16.442
227, -56412.61, -59375.91, 128123.81, 95505.58, 61244.45, -75406.45, -47540.73, 131995.19, 90752.51, 35754.86, 162174.48, -5480.02, 24640.58, 9255.08, 170963.14, 23250.73, 0.000, 0.000, 0.000, 17:01:16.442
228, -56412.61, -59375.91, 128123.81, 95505.58, 61244.45, -75406.45, -47540.73, 131995.19, 90772.69, 35771.55, 162181.88, -5460.04, 24658.35, 9274.19, 170974.91, 23264.54, 0.000, 0.000, 0.000, 17:01:16.442
229, -56402.86, -59371.08, 128126.95, 95504.42, 61261.64, -75402.40, -47529.80, 131994.78, 90772.69, 35771.55, 162181.88, -5460.04, 24658.35, 9274.19, 170974.91, 23264.54, 0.000, 0.000, 0.000, 17:01:16.443
230, -56402.86, -59371.08, 128126.95, 95504.42, 61261.64, -75402.40, -47529.80, 131994.78, 90743.20, 35776.54, 162178.75, -5496.63, 24618.48, 9243.54, 170984.30, 23244.76, 0.000, 0.000, 0.000, 17:01:16.443
231, -56403.89, -59377.50, 128123.01, 95503.95, 61262.89, -75400.27, -47530.43, 131993.34, 90743.20, 35776.54, 162178.75, -5496.63, 24618.48, 9243.54, 170984.30, 23244.76, 0.000, 0.000, 0.000, 17:01:16.443
232, -56403.89, -59377.50, 128123.01, 95503.95, 61262.89, -75400.27, -47530.43, 131993.34, 90758.00, 35788.85, 162177.80, -5481.30, 24630.01, 9263.86, 170995.36, 23247.29, 0.000, 0.000, 0.000, 17:01:16.444
233, -56417.03, -59382.14, 128132.27, 95507.10, 61246.91, -75402.69, -47535.45, 131990.52, 90758.00, 35788.85, 162177.80, -5481.30, 24630.01, 9263.86, 170995.36, 23247.29, 0.000, 0.000, 0.000, 17:01:16.444
234, -56417.03, -59382.14, 128132.27, 95507.10, 61246.91, -75402.69, -47535.45, 131990.52, 90754.09, 35801.77, 162180.08, -5487.31, 24626.82, 9254.94, 171007.31, 23250.15, 0.000, 0.000, 0.000, 17:01:16.445
235, -56407.57, -59373.50, 128144.87, 95513.49, 61264.68, -75395.80, -47531.34, 131997.73, 90754.09, 35801.77, 162180.08, -5487.31, 24626.82, 9254.94, 171007.31, 23250.15, -0.464, 0.616, 0.548, 17:01:16.445
236, -56407.57, -59373.50, 128144.87, 95513.49, 61264.68, -75395.80, -47531.34, 131997.73, 90761.09, 35817.53, 162177.66, -5472.42, 24644.45, 9274.90, 171014.22, 23261.01, 0.000, 0.000, 0.000, 17:01:16.446
237, -56420.96, -59384.14, 128148.58, 95516.76, 61260.86, -75390.33, -47530.67, 132002.72, 90761.09, 35817.53, 162177.66, -5472.42, 24644.45, 9274.90, 171014.22, 23261.01, 0.000, 0.000, 0.000, 17:01:16.447
238, -56420.96, -59384.14, 128148.58, 95516.76, 61260.86, -75390.33, -47530.67, 132002.72, 90745.06, 35829.62, 162176.41, -5495.94, 24620.63, 9252.15, 171022.22, 23255.40, 0.000, 0.000, 0.000, 17:01:16.448
239, -56391.57, -59375.42, 128155.00, 95508.73, 61285.06, -75398.78, -47530.02, 131997.58, 90745.06, 35829.62, 162176.41, -5495.94, 24620.63, 9252.15, 171022.22, 23255.40, 0.000, 0.000, 0.000, 17:01:16.448
240, -56391.57, -59375.42, 128155.00, 95508.73, 61285.06, -75398.78, -47530.02, 131997.58, 90713.30, 35821.82, 162158.41, -5531.56, 24591.12, 9218.06, 171033.59, 23213.98, 0.000, 0.000, 0.000, 17:01:16.449
241, -56397.09, -59389.39, 128150.73, 95500.38, 61268.63, -75403.90, -47540.57, 132000.66, 90713.30, 35821.82, 162158.41, -5531.56, 24591.12, 9218.06, 171033.59, 23213.98, 0.000, 0.000, 0.000, 17:01:16.449
242, -56397.09, -59389.39, 128150.73, 95500.38, 61268.63, -75403.90, -47540.57, 132000.66, 90718.59, 35819.99, 162148.44, -5531.72, 24592.35, 9221.75, 171046.83, 23211.17, 0.000, 0.000, 0.000, 17:01:16.897
243, -56409.95, -59394.28, 128140.34, 95496.33, 61251.40, -75409.42, -47541.62, 131998.53, 90718.59, 35819.99, 162148.44, -5531.72, 24592.35, 9221.75, 171046.83, 23211.17, 0.000, 0.000, 0.000, 17:01:16.898
244, -56409.95, -59394.28, 128140.34, 95496.33, 61251.40, -75409.42, -47541.62, 131998.53, 90710.20, 35810.13, 162138.77, -5539.57, 24587.70, 9210.64, 171060.08, 23203.03, 0.000, 0.000, 0.000, 17:01:16.898
245, -56400.07, -59383.53, 128143.77, 95489.35, 61254.57, -75414.38, -47533.11, 132001.27, 90710.20, 35810.13, 162138.77, -5539.57, 24587.70, 9210.64, 171060.08, 23203.03, -0.468, 0.616, 0.544, 17:01:16.898
246, -56400.07, -59383.53, 128143.77, 95489.35, 61254.57, -75414.38, -47533.11, 132001.27, 90699.66, 35785.86, 162126.88, -5547.01, 24581.64, 9201.18, 171068.83, 23189.02, 0.000, 0.000, 0.000, 17:01:16.898
247, -56415.64, -59387.18, 128142.99, 95491.30, 61229.67, -75420.41, -47538.94, 132004.84, 90699.66, 35785.86, 162126.88, -5547.01, 24581.64, 9201.18, 171068.83, 23189.02, 0.000, 0.000, 0.000, 17:01:16.899
248, -56415.64, -59387.18, 128142.99, 95491.30, 61229.67, -75420.41, -47538.94, 132004.84, 90708.96, 35784.89, 162129.61, -5529.22, 24593.00, 9216.67, 171079.28, 23208.93, 0.000, 0.000, 0.000, 17:01:16.899
249, -56401.23, -59375.73, 128158.02, 95490.29, 61240.31, -75426.09, -47532.46, 132008.91, 90708.96, 35784.89, 162129.61, -5529.22, 24593.00, 9216.67, 171079.28, 23208.93, 0.000, 0.000, 0.000, 17:01:16.899
250, -56401.23, -59375.73, 128158.02, 95490.29, 61240.31, -75426.09, -47532.46, 132008.91, 90703.31, 35793.14, 162128.91, -5530.13, 24595.63, 9215.71, 171093.80, 23212.44, 0.000, 0.000, 0.000, 17:01:16.900
251, -56401.29, -59369.74, 128158.28, 95493.24, 61227.33, -75422.59, -47542.23, 132022.55, 90703.31, 35793.14, 162128.91, -5530.13, 24595.63, 9215.71, 171093.80, 23212.44, 0.000, 0.000, 0.000, 17:01:16.900
252, -56401.29, -59369.74, 128158.28, 95493.24, 61227.33, -75422.59, -47542.23, 132022.55, 90693.97, 35788.27, 162132.83, -5532.77, 24588.57, 9210.37, 171103.58, 23208.69, 0.000, 0.000, 0.000, 17:01:16.900
253, -56364.97, -59344.48, 128163.49, 95483.54, 61247.44, -75438.92, -47520.05, 132005.31, 90693.97, 35788.27, 162132.83, -5532.77, 24588.57, 9210.37, 171103.58, 23208.69, 0.000, 0.000, 0.000, 17:01:16.900
254, -56364.97, -59344.48, 128163.49, 95483.54, 61247.44, -75438.92, -47520.05, 132005.31, 90644.86, 35744.42, 162107.36, -5596.41, 24518.99, 9144.41, 171115.50, 23142.37, 0.000, 0.000, 0.000, 17:01:16.900
255, -56370.02, -59353.13, 128155.58, 95473.20, 61212.71, -75450.50, -47537.69, 131992.36, 90644.86, 35744.42, 162107.36, -5596.41, 24518.99, 9144.41, 171115.50, 23142.37, -0.470, 0.612, 0.546, 17:01:16.900
0, -56370.02, -59353.13, 128155.58, 95473.20, 61212.71, -75450.50, -47537.69, 131992.36, 90644.88, 35726.40, 162092.23, -5593.68, 24516.80, 9148.43, 171128.55, 23134.30, 0.000, 0.000, 0.000, 17:01:16.901
1, -56371.79, -59346.41, 128159.55, 95474.78, 61183.03, -75438.61, -47542.20, 131996.45, 90644.88, 35726.40, 162092.23, -5593.68, 24516.80, 9148.43, 171128.55, 23134.30, 0.000, 0.000, 0.000, 17:01:16.901
2, -56371.79, -59346.41, 128159.55, 95474.78, 61183.03, -75438.61, -47542.20, 131996.45, 90667.55, 35722.00, 162091.61, -5564.20, 24533.56, 9181.27, 171141.41, 23155.24, 0.000, 0.000, 0.000, 17:01:16.901
3, -56379.77, -59342.02, 128158.46, 95478.91, 61159.85, -75434.50, -47530.80, 132003.41, 90667.55, 35722.00, 162091.61, -5564.20, 24533.56, 9181.27, 171141.41, 23155.24, 0.000, 0.000, 0.000, 17:01:16.901
4, -56379.77, -59342.02, 128158.46, 95478.91, 61159.85, -75434.50, -47530.80, 132003.41, 90676.06, 35723.68, 162097.48, -5552.35, 24537.19, 9191.64, 171151.89, 23175.45, 0.000, 0.000, 0.000, 17:01:16.901
5, -56378.54, -59332.77, 128161.86, 95481.91, 61142.95, -75436.42, -47531.92, 131996.23, 90676.06, 35723.68, 162097.48, -5552.35, 24537.19, 9191.64, 171151.89, 23175.45, 0.000, 0.000, 0.000, 17:01:16.902
6, -56378.54, -59332.77, 128161.86, 95481.91, 61142.95, -75436.42, -47531.92, 131996.23, 90665.65, 35722.09, 162096.44, -5569.29, 24521.34, 9171.50, 171161.78, 23166.17, 0.000, 0.000, 0.000, 17:01:16.902
7, -56372.98, -59325.46, 128154.35, 95472.75, 61150.14, -75441.94, -47546.67, 131987.11, 90665.65, 35722.09, 162096.44, -5569.29, 24521.34, 9171.50, 171161.78, 23166.17, 0.000, 0.000, 0.000, 17:01:16.902
8, -56372.98, -59325.46, 128154.35, 95472.75, 61150.14, -75441.94, -47546.67, 131987.11, 90642.34, 35712.05, 162083.67, -5591.45, 24489.80, 9148.46, 171171.03, 23152.90, 0.000, 0.000, 0.000, 17:01:16.902
9, -56366.92, -59321.06, 128152.47, 95477.64, 61174.22, -75439.99, -47559.50, 131992.75, 90642.34, 35712.05, 162083.67, -5591.45, 24489.80, 9148.46, 171171.03, 23152.90, -0.470, 0.614, 0.554, 17:01:16.902
10, -56366.92, -59321.06, 128152.47, 95477.64, 61174.22, -75439.99, -47559.50, 131992.75, 90634.78, 35709.05, 162075.28, -5594.53, 24484.88, 9144.14, 171183.16, 23147.87, 0.000, 0.000, 0.000, 17:01:16.902
11, -56362.18, -59322.11, 128156.12, 95483.81, 61190.36, -75428.17, -47559.57, 132001.83, 90634.78, 35709.05, 162075.28, -5594.53, 24484.88, 9144.14, 171183.16, 23147.87, 0.000, 0.000, 0.000, 17:01:16.903
12, -56362.18, -59322.11, 128156.12, 95483.81, 61190.36, -75428.17, -47559.57, 132001.83, 90649.71, 35711.22, 162077.19, -5573.43, 24506.74, 9169.15, 171191.73, 23169.48, 0.000, 0.000, 0.000, 17:01:16.903
13, -56390.72, -59342.05, 128149.37, 95484.03, 61189.24, -75428.89, -47563.88, 131998.27, 90649.71, 35711.22, 162077.19, -5573.43, 24506.74, 9169.15, 171191.73, 23169.48, 0.000, 0.000, 0.000, 17:01:16.904
14, -56390.72, -59342.05, 128149.37, 95484.03, 61189.24, -75428.89, -47563.88, 131998.27, 90698.23, 35721.53, 162097.08, -5532.08, 24545.77, 9211.62, 171199.25, 23210.39, 0.000, 0.000, 0.000, 17:01:16.904
15, -56394.54, -59343.86, 128151.58, 95474.02, 61185.24, -75433.09, -47565.89, 131987.52, 90698.23, 35721.53, 162097.08, -5532.08, 24545.77, 9211.62, 171199.25, 23210.39, 0.000, 0.000, 0.000, 17:01:16.904
16, -56394.54, -59343.86, 128151.58, 95474.02, 61185.24, -75433.09, -47565.89, 131987.52, 90664.48, 35721.66, 162097.80, -5570.19, 24512.82, 9175.01, 171208.75, 23197.89, 0.000, 0.000, 0.000, 17:01:16.904
17, -56375.34, -59333.66, 128149.32, 95473.62, 61213.31, -75432.13, -47565.43, 131991.50, 90664.48, 35721.66, 162097.80, -5570.19, 24512.82, 9175.01, 171208.75, 23197.89, 0.000, 0.000, 0.000, 17:01:16.905
18, -56375.34, -59333.66, 128149.32, 95473.62, 61213.31, -75432.13, -47565.43, 131991.50, 90665.38, 35721.53, 162087.53, -5565.74, 24512.29, 9178.94, 171218.94, 23186.47, 0.000, 0.000, 0.000, 17:01:16.905
19, -56383.26, -59341.87, 128147.28, 95481.24, 61213.89, -75426.41, -47567.71, 131990.80, 90665.38, 35721.53, 162087.53, -5565.74, 24512.29, 9178.94, 171218.94, 23186.47, -0.468, 0.616, 0.554, 17:01:16.905
20, -56383.26, -59341.87, 128147.28, 95481.24, 61213.89, -75426.41, -47567.71, 131990.80, 90677.27, 35732.08, 162087.77, -5550.38, 24525.72, 9193.83, 171230.73, 23197.73, 0.000, 0.000, 0.000, 17:01:16.905
21, -56375.07, -59330.71, 128143.42, 95478.47, 61212.78, -75428.77, -47560.24, 131989.66, 90677.27, 35732.08, 162087.77, -5550.38, 24525.72, 9193.83, 171230.73, 23197.73, 0.000, 0.000, 0.000, 17:01:16.906
22, -56375.07, -59330.71, 128143.42, 95478.47, 61212.78, -75428.77, -47560.24, 131989.66, 90653.06, 35735.81, 162080.08, -5581.86, 24493.09, 9163.39, 171240.17, 23187.56, 0.000, 0.000, 0.000, 17:01:16.906
23, -56384.89, -59334.69, 128135.02, 95474.27, 61193.84, -75434.77, -47577.65, 131985.17, 90653.06, 35735.81, 162080.08, -5581.86, 24493.09, 9163.39, 171240.17, 23187.56, 0.000, 0.000, 0.000, 17:01:16.906
24, -56384.89, -59334.69, 128135.02, 95474.27, 61193.84, -75434.77, -47577.65, 131985.17, 90688.45, 35750.30, 162085.92, -5544.42, 24529.59, 9195.89, 171249.53, 23208.24, 0.000, 0.000, 0.000, 17:01:16.907
25, -56393.23, -59336.88, 128138.95, 95472.79, 61183.18, -75434.19, -47574.70, 131988.05, 90688.45, 35750.30, 162085.92, -5544.42, 24529.59, 9195.89, 171249.53, 23208.24, 0.000, 0.000, 0.000, 17:01:16.907
26, -56393.23, -59336.88, 128138.95, 95472.79, 61183.18, -75434.19, -47574.70, 131988.05, 90678.84, 35763.39, 162097.13, -5548.48, 24521.16, 9187.08, 171261.61, 23208.15, 0.000, 0.000, 0.000, 17:01:16.907
27, -56376.64, -59323.88, 128147.28, 95474.04, 61187.07, -75434.88, -47563.44, 131989.03, 90678.84, 35763.39, 162097.13, -5548.48, 24521.16, 9187.08, 171261.61, 23208.15, 0.000, 0.000, 0.000, 17:01:16.907
28, -56376.64, -59323.88, 128147.28, 95474.04, 61187.07, -75434.88, -47563.44, 131989.03, 90704.83, 35779.57, 162100.55, -5523.76, 24546.55, 9216.63, 171272.22, 23209.56, 0.000, 0.000, 0.000, 17:01:16.907
29, -56403.62, -59335.92, 128143.58, 95470.84, 61165.03, -75442.73, -47579.64, 131984.94, 90704.83, 35779.57, 162100.55, -5523.76, 24546.55, 9216.63, 171272.22, 23209.56, -0.468, 0.606, 0.548, 17:01:16.907
30, -56403.62, -59335.92, 128143.58, 95470.84, 61165.03, -75442.73, -47579.64, 131984.94, 90686.77, 35796.83, 162107.05, -5553.42, 24516.02, 9185.72, 171282.44, 23206.05, 0.000, 0.000, 0.000, 17:01:16.908
31, -56381.83, -59323.92, 128147.82, 95456.77, 61199.92, -75454.41, -47578.17, 131972.34, 90686.77, 35796.83, 162107.05, -5553.42, 24516.02, 9185.72, 171282.44, 23206.05, 0.000, 0.000, 0.000, 17:01:16.908
32, -56381.83, -59323.92, 128147.82, 95456.77, 61199.92, -75454.41, -47578.17, 131972.34, 90665.96, 35790.62, 162096.48, -5581.77, 24491.81, 9159.05, 171294.36, 23161.30, 0.000, 0.000, 0.000, 17:01:16.908
33, -56396.00, -59331.99, 128147.51, 95457.41, 61197.51, -75452.31, -47592.38, 131971.42, 90665.96, 35790.62, 162096.48, -5581.77, 24491.81, 9159.05, 171294.36, 23161.30, 0.000, 0.000, 0.000, 17:01:16.908
34, -56396.00, -59331.99, 128147.51, 95457.41, 61197.51, -75452.31, -47592.38, 131971.42, 90684.73, 35812.34, 162096.83, -5558.52, 24511.23, 9178.30, 171307.72, 23182.89, 0.000, 0.000, 0.000, 17:01:16.909
35, -56391.10, -59322.89, 128150.34, 95458.06, 61204.91, -75453.56, -47572.54, 131972.25, 90684.73, 35812.34, 162096.83, -5558.52, 24511.23, 9178.30, 171307.72, 23182.89, 0.000, 0.000, 0.000, 17:01:16.909
36, -56391.10, -59322.89, 128150.34, 95458.06, 61204.91, -75453.56, -47572.54, 131972.25, 90647.32, 35835.54, 162083.69, -5594.24, 24474.44, 9141.91, 171321.63, 23162.20, 0.000, 0.000, 0.000, 17:01:16.909
37, -56380.30, -59319.83, 128146.44, 95461.26, 61203.07, -75444.91, -47580.34, 131979.16, 90647.32, 35835.54, 162083.69, -5594.24, 24474.44, 9141.91, 171321.63, 23162.20, 0.000, 0.000, 0.000, 17:01:16.909
38, -56380.30, -59319.83, 128146.44, 95461.26, 61203.07, -75444.91, -47580.34, 131979.16, 90660.84, 35851.64, 162070.80, -5582.68, 24485.17, 9158.54, 171331.09, 23163.38, 0.000, 0.000, 0.000, 17:01:16.910
39, -56400.47, -59340.88, 128142.03, 95456.43, 61187.21, -75446.27, -47592.81, 131973.41, 90660.84, 35851.64, 162070.80, -5582.68, 24485.17, 9158.54, 171331.09, 23163.38, -0.470, 0.606, 0.546, 17:01:16.910
40, -56400.47, -59340.88, 128142.03, 95456.43, 61187.21, -75446.27, -47592.81, 131973.41, 90644.99, 35872.61, 162066.72, -5604.65, 24464.63, 9135.81, 171339.77, 23163.69, 0.000, 0.000, 0.000, 17:01:16.910
41, -56392.76, -59334.58, 128146.32, 95457.08, 61189.38, -75445.49, -47587.40, 131974.02, 90644.99, 35872.61, 162066.72, -5604.65, 24464.63, 9135.81, 171339.77, 23163.69, 0.000, 0.000, 0.000, 17:01:16.910
42, -56392.76, -59334.58, 128146.32, 95457.08, 61189.38, -75445.49, -47587.40, 131974.02, 90671.57, 35894.84, 162066.09, -5569.65, 24496.95, 9172.19, 171350.14, 23185.02, 0.000, 0.000, 0.000, 17:01:16.910
43, -56418.71, -59341.67, 128152.07, 95463.11, 61175.23, -75440.11, -47586.50, 131978.86, 90671.57, 35894.84, 162066.09, -5569.65, 24496.95, 9172.19, 171350.14, 23185.02, 0.000, 0.000, 0.000, 17:01:16.910
44, -56418.71, -59341.67, 128152.07, 95463.11, 61175.23, -75440.11, -47586.50, 131978.86, 90676.84, 35915.81, 162075.42, -5566.55, 24506.81, 9173.31, 171361.30, 23204.11, 0.000, 0.000, 0.000, 17:01:16.911
45, -56391.75, -59326.00, 128156.47, 95459.13, 61201.46, -75440.76, -47569.14, 131977.61, 90676.84, 35915.81, 162075.42, -5566.55, 24506.81, 9173.31, 171361.30, 23204.11, 0.000, 0.000, 0.000, 17:01:16.911
46, -56391.75, -59326.00, 128156.47, 95459.13, 61201.46, -75440.76, -47569.14, 131977.61, 90642.27, 35915.34, 162065.63, -5601.77, 24470.80, 9138.26, 171369.98, 23176.10, 0.000, 0.000, 0.000, 17:01:16.912
47, -56395.95, -59336.55, 128142.73, 95458.20, 61183.18, -75442.79, -47587.89, 131976.11, 90642.27, 35915.34, 162065.63, -5601.77, 24470.80, 9138.26, 171369.98, 23176.10, 0.000, 0.000, 0.000, 17:01:16.912
48, -56395.95, -59336.55, 128142.73, 95458.20, 61183.18, -75442.79, -47587.89, 131976.11, 90661.42, 35920.30, 162065.19, -5587.13, 24499.99, 9152.86, 171384.50, 23182.13, 0.000, 0.000, 0.000, 17:01:16.912
49, -56407.87, -59342.45, 128142.08, 95455.73, 61172.74, -75442.56, -47598.69, 131972.08, 90661.42, 35920.30, 162065.19, -5587.13, 24499.99, 9152.86, 171384.50, 23182.13, -0.468, 0.606, 0.554, 17:01:16.912
50, -56407.87, -59342.45, 128142.08, 95455.73, 61172.74, -75442.56, -47598.69, 131972.08, 90680.04, 35933.27, 162072.81, -5564.69, 24512.11, 9174.99, 171398.95, 23197.49, 0.000, 0.000, 0.000, 17:01:16.913
51, -56416.32, -59342.14, 128146.26, 95453.84, 61180.34, -75441.00, -47600.16, 131968.67, 90680.04, 35933.27, 162072.81, -5564.69, 24512.11, 9174.99, 171398.95, 23197.49, 0.000, 0.000, 0.000, 17:01:16.913
52, -56416.32, -59342.14, 128146.26, 95453.84, 61180.34, -75441.00, -47600.16, 131968.67, 90667.50, 35942.52, 162075.16, -5581.41, 24494.34, 9155.54, 171412.92, 23195.81, 0.000, 0.000, 0.000, 17:01:16.913
53, -56399.62, -59334.83, 128151.20, 95450.66, 61206.14, -75440.15, -47595.69, 131968.34, 90667.50, 35942.52, 162075.16, -5581.41, 24494.34, 9155.54, 171412.92, 23195.81, 0.000, 0.000, 0.000, 17:01:16.914
54, -56399.62, -59334.83, 128151.20, 95450.66, 61206.14, -75440.15, -47595.69, 131968.34, 90654.60, 35940.96, 162065.66, -5595.31, 24487.05, 9142.24, 171423.61, 23182.65, 0.000, 0.000, 0.000, 17:01:16.914
55, -56416.00, -59349.40, 128137.85, 95452.34, 61200.30, -75441.63, -47605.23, 131962.02, 90654.60, 35940.96, 162065.66, -5595.31, 24487.05, 9142.24, 171423.61, 23182.65, 0.000, 0.000, 0.000, 17:01:16.914
56, -56416.00, -59349.40, 128137.85, 95452.34, 61200.30, -75441.63, -47605.23, 131962.02, 90674.68, 35956.91, 162067.94, -5570.77, 24510.61, 9168.13, 171433.20, 23194.31, 0.000, 0.000, 0.000, 17:01:16.914
57, -56417.72, -59346.07, 128145.41, 95459.91, 61198.25, -75429.55, -47598.84, 131971.53, 90674.68, 35956.91, 162067.94, -5570.77, 24510.61, 9168.13, 171433.20, 23194.31, 0.000, 0.000, 0.000, 17:01:16.914
58, -56417.72, -59346.07, 128145.41, 95459.91, 61198.25, -75429.55, -47598.84, 131971.53, 90683.55, 35976.54, 162075.59, -5554.63, 24523.33, 9186.95, 171445.08, 23213.65, -0.470, 0.608, 0.552, 17:01:16.915
59, -56418.73, -59339.18, 128150.66, 95467.29, 61202.16, -75418.07, -47593.90, 131980.08, 90683.55, 35976.54, 162075.59, -5554.63, 24523.33, 9186.95, 171445.08, 23213.65, 0.000, 0.000, 0.000, 17:01:16.915
60, -56418.73, -59339.18, 128150.66, 95467.29, 61202.16, -75418.07, -47593.90, 131980.08, 90679.08, 35990.02, 162083.31, -5557.11, 24511.88, 9180.51, 171457.66, 23216.29, 0.000, 0.000, 0.000, 17:01:16.915
61, -56397.27, -59326.11, 128158.82, 95460.20, 61229.81, -75421.96, -47597.59, 131973.25, 90679.08, 35990.02, 162083.31, -5557.11, 24511.88, 9180.51, 171457.66, 23216.29, 0.000, 0.000, 0.000, 17:01:16.915
62, -56397.27, -59326.11, 128158.82, 95460.20, 61229.81, -75421.96, -47597.59, 131973.25, 90648.19, 35978.66, 162066.06, -5593.57, 24474.20, 9144.57, 171467.41, 23180.63, 0.000, 0.000, 0.000, 17:01:16.915
63, -56423.71, -59351.52, 128134.25, 95459.88, 61194.47, -75420.59, -47615.11, 131984.36, 90648.19, 35978.66, 162066.06, -5593.57, 24474.20, 9144.57, 171467.41, 23180.63, 0.000, 0.000, 0.000, 17:01:16.916
64, -56423.71, -59351.52, 128134.25, 95459.88, 61194.47, -75420.59, -47615.11, 131984.36, 90681.94, 35996.19, 162068.02, -5559.24, 24512.60, 9182.88, 171479.83, 23220.58, 0.000, 0.000, 0.000, 17:01:16.916
65, -56409.86, -59342.47, 128137.38, 95457.91, 61222.23, -75427.79, -47597.46, 131988.92, 90681.94, 35996.19, 162068.02, -5559.24, 24512.60, 9182.88, 171479.83, 23220.58, 0.000, 0.000, 0.000, 17:01:16.916
66, -56409.86, -59342.47, 128137.38, 95457.91, 61222.23, -75427.79, -47597.46, 131988.92, 90632.43, 35995.45, 162056.88, -5622.38, 24449.50, 9120.52, 171496.69, 23175.12, 0.000, 0.000, 0.000, 17:01:16.916
67, -56403.38, -59349.36, 128129.29, 95447.27, 61244.87, -75443.10, -47609.95, 131977.09, 90632.43, 35995.45, 162056.88, -5622.38, 24449.50, 9120.52, 171496.69, 23175.12, 0.000, 0.000, 0.000, 17:01:16.916
68, -56403.38, -59349.36, 128129.29, 95447.27, 61244.87, -75443.10, -47609.95, 131977.09, 90634.09, 35997.17, 162033.44, -5620.17, 24458.80, 9123.71, 171512.42, 23152.79, -0.462, 0.616, 0.548, 17:01:16.917
69, -56437.95, -59372.87, 128127.59, 95450.95, 61207.72, -75440.04, -47621.91, 131980.19, 90634.09, 35997.17, 162033.44, -5620.17, 24458.80, 9123.71, 171512.42, 23152.79, 0.000, 0.000, 0.000, 17:01:16.917
70, -56437.95, -59372.87, 128127.59, 95450.95, 61207.72, -75440.04, -47621.91, 131980.19, 90673.60, 36020.13, 162039.39, -5574.57, 24500.84, 9164.39, 171527.02, 23191.92, 0.000, 0.000, 0.000, 17:01:16.917
71, -56426.22, -59363.91, 128140.05, 95452.27, 61238.66, -75439.28, -47604.63, 131976.08, 90673.60, 36020.13, 162039.39, -5574.57, 24500.84, 9164.39, 171527.02, 23191.92, 0.000, 0.000, 0.000, 17:01:16.917
72, -56426.22, -59363.91, 128140.05, 95452.27, 61238.66, -75439.28, -47604.63, 131976.08, 90643.07, 36023.30, 162035.09, -5610.47, 24466.17, 9130.06, 171539.86, 23175.72, 0.000, 0.000, 0.000, 17:01:16.917
73, -56429.37, -59376.36, 128131.64, 95443.04, 61257.37, -75446.68, -47627.12, 131970.47, 90643.07, 36023.30, 162035.09, -5610.47, 24466.17, 9130.06, 171539.86, 23175.72, 0.000, 0.000, 0.000, 17:01:16.917
74, -56429.37, -59376.36, 128131.64, 95443.04, 61257.37, -75446.68, -47627.12, 131970.47, 90690.23, 36039.53, 162044.78, -5557.49, 24524.96, 9184.33, 171554.17, 23208.55, 0.000, 0.000, 0.000, 17:01:16.918
75, -56435.16, -59381.00, 128152.20, 95451.94, 61243.62, -75436.76, -47625.24, 131976.47, 90690.23, 36039.53, 162044.78, -5557.49, 24524.96, 9184.33, 171554.17, 23208.55, 0.000, 0.000, 0.000, 17:01:16.918
76, -56435.16, -59381.00, 128152.20, 95451.94, 61243.62, -75436.76, -47625.24, 131976.47, 90693.72, 36047.06, 162061.67, -5555.08, 24524.69, 9182.14, 171569.08, 23219.17, 0.000, 0.000, 0.000, 17:01:16.918
77, -56410.37, -59366.57, 128164.30, 95442.41, 61266.38, -75443.04, -47620.66, 131965.36, 90693.72, 36047.06, 162061.67, -5555.08, 24524.69, 9182.14, 171569.08, 23219.17, 0.000, 0.000, 0.000, 17:01:16.918
78, -56410.37, -59366.57, 128164.30, 95442.41, 61266.38, -75443.04, -47620.66, 131965.36, 90660.26, 36048.96, 162060.30, -5590.66, 24493.64, 9142.91, 171583.39, 23180.37, -0.466, 0.608, 0.548, 17:01:16.918
79, -56404.85, -59369.72, 128163.73, 95440.78, 61282.49, -75445.18, -47618.09, 131964.92, 90660.26, 36048.96, 162060.30, -5590.66, 24493.64, 9142.91, 171583.39, 23180.37, 0.000, 0.000, 0.000, 17:01:16.918
80, -56404.85, -59369.72, 128163.73, 95440.78, 61282.49, -75445.18, -47618.09, 131964.92, 90676.53, 36059.11, 162058.77, -5574.06, 24496.24, 9162.49, 171596.91, 23175.09, 0.000, 0.000, 0.000, 17:01:16.918
81, -56431.52, -59383.04, 128165.23, 95446.59, 61262.71, -75431.91, -47635.01, 131973.56, 90676.53, 36059.11, 162058.77, -5574.06, 24496.24, 9162.49, 171596.91, 23175.09, 0.000, 0.000, 0.000, 17:01:16.919
82, -56431.52, -59383.04, 128165.23, 95446.59, 61262.71, -75431.91, -47635.01, 131973.56, 90713.32, 36083.83, 162086.11, -5526.87, 24528.45, 9202.41, 171611.34, 23228.49, 0.000, 0.000, 0.000, 17:01:16.919
83, -56404.98, -59363.68, 128180.74, 95443.98, 61278.87, -75438.63, -47631.75, 131967.44, 90713.32, 36083.83, 162086.11, -5526.87, 24528.45, 9202.41, 171611.34, 23228.49, 0.000, 0.000, 0.000, 17:01:16.919
84, -56404.98, -59363.68, 128180.74, 95443.98, 61278.87, -75438.63, -47631.75, 131967.44, 90677.18, 36094.42, 162084.30, -5572.87, 24483.90, 9156.44, 171626.50, 23193.98, 0.000, 0.000, 0.000, 17:01:16.919
85, -56404.56, -59372.02, 128170.62, 95431.82, 61265.77, -75450.75, -47653.89, 131954.44, 90677.18, 36094.42, 162084.30, -5572.87, 24483.90, 9156.44, 171626.50, 23193.98, 0.000, 0.000, 0.000, 17:01:16.920
86, -56404.56, -59372.02, 128170.62, 95431.82, 61265.77, -75450.75, -47653.89, 131954.44, 90662.61, 36096.43, 162072.36, -5595.27, 24466.69, 9134.46, 171639.98, 23170.42, 0.000, 0.000, 0.000, 17:01:16.920
87, -56403.78, -59372.82, 128172.41, 95429.41, 61256.16, -75447.46, -47640.13, 131954.84, 90662.61, 36096.43, 162072.36, -5595.27, 24466.69, 9134.46, 171639.98, 23170.42, 0.000, 0.000, 0.000, 17:01:16.920
88, -56403.78, -59372.82, 128172.41, 95429.41, 61256.16, -75447.46, -47640.13, 131954.84, 90666.05, 36105.64, 162067.73, -5587.40, 24466.96, 9141.77, 171657.77, 23171.92, -0.468, 0.614, 0.548, 17:01:16.920
89, -56405.96, -59379.11, 128167.00, 95427.71, 61255.38, -75445.70, -47648.66, 131952.41, 90666.05, 36105.64, 162067.73, -5587.40, 24466.96, 9141.77, 171657.77, 23171.92, 0.000, 0.000, 0.000, 17:01:16.920
90, -56405.96, -59379.11, 128167.00, 95427.71, 61255.38, -75445.70, -47648.66, 131952.41, 90657.78, 36115.61, 162061.25, -5594.71, 24459.04, 9137.84, 171672.19, 23172.01, 0.000, 0.000, 0.000, 17:01:16.921
91, -56413.99, -59386.88, 128163.78, 95436.80, 61247.00, -75434.68, -47657.16, 131963.16, 90657.78, 36115.61, 162061.25, -5594.71, 24459.04, 9137.84, 171672.19, 23172.01, 0.000, 0.000, 0.000, 17:01:16.921
92, -56413.99, -59386.88, 128163.78, 95436.80, 61247.00, -75434.68, -47657.16, 131963.16, 90675.86, 36128.13, 162064.88, -5571.28, 24479.65, 9161.73, 171681.38, 23194.85, 0.000, 0.000, 0.000, 17:01:16.921
93, -56407.44, -59371.91, 128172.01, 95437.05, 61252.23, -75434.09, -47636.42, 131965.98, 90675.86, 36128.13, 162064.88, -5571.28, 24479.65, 9161.73, 171681.38, 23194.85, 0.000, 0.000, 0.000, 17:01:16.921
94, -56407.44, -59371.91, 128172.01, 95437.05, 61252.23, -75434.09, -47636.42, 131965.98, 90653.64, 36126.57, 162056.41, -5597.46, 24448.65, 9132.30, 171690.84, 23172.41, 0.000, 0.000, 0.000, 17:01:16.921
95, -56413.12, -59369.09, 128161.86, 95431.22, 61232.33, -75437.29, -47642.92, 131960.94, 90653.64, 36126.57, 162056.41, -5597.46, 24448.65, 9132.30, 171690.84, 23172.41, 0.000, 0.000, 0.000, 17:01:16.922
96, -56413.12, -59369.09, 128161.86, 95431.22, 61232.33, -75437.29, -47642.92, 131960.94, 90667.19, 36126.05, 162055.50, -5585.34, 24464.32, 9139.58, 171704.50, 23178.22, 0.000, 0.000, 0.000, 17:01:16.922
97, -56429.79, -59382.30, 128159.31, 95429.63, 61221.14, -75436.91, -47657.07, 131960.97, 90667.19, 36126.05, 162055.50, -5585.34, 24464.32, 9139.58, 171704.50, 23178.22, 0.000, 0.000, 0.000, 17:01:16.922
98, -56429.79, -59382.30, 128159.31, 95429.63, 61221.14, -75436.91, -47657.07, 131960.97, 90693.41, 36145.99, 162069.91, -5553.27, 24493.18, 9170.27, 171717.19, 23209.18, -0.474, 0.612, 0.546, 17:01:16.922
99, -56425.14, -59385.50, 128161.27, 95433.07, 61225.49, -75430.54, -47651.59, 131968.73, 90693.41, 36145.99, 162069.91, -5553.27, 24493.18, 9170.27, 171717.19, 23209.18, 0.000, 0.000, 0.000, 17:01:16.922
100, -56425.14, -59385.50, 128161.27, 95433.07, 61225.49, -75430.54, -47651.59, 131968.73, 90697.92, 36168.07, 162082.73, -5547.01, 24492.82, 9178.72, 171728.36, 23228.69, 0.000, 0.000, 0.000, 17:01:16.922
101, -56395.62, -59368.54, 128171.49, 95421.52, 61252.76, -75433.40, -47645.36, 131963.22, 90697.92, 36168.07, 162082.73, -5547.01, 24492.82, 9178.72, 171728.36, 23228.69, 0.000, 0.000, 0.000, 17:01:16.923
102, -56395.62, -59368.54, 128171.49, 95421.52, 61252.76, -75433.40, -47645.36, 131963.22, 90654.83, 36155.73, 162070.50, -5597.93, 24442.08, 9127.25, 171739.98, 23190.83, 0.000, 0.000, 0.000, 17:01:16.923
103, -56380.57, -59361.25, 128165.81, 95415.77, 61281.21, -75439.08, -47637.45, 131955.91, 90654.83, 36155.73, 162070.50, -5597.93, 24442.08, 9127.25, 171739.98, 23190.83, 0.000, 0.000, 0.000, 17:01:16.923
104, -56380.57, -59361.25, 128165.81, 95415.77, 61281.21, -75439.08, -47637.45, 131955.91, 90648.50, 36145.86, 162054.91, -5610.31, 24439.42, 9115.60, 171754.53, 23166.49, 0.000, 0.000, 0.000, 17:01:16.923
105, -56417.01, -59385.50, 128139.08, 95412.76, 61244.31, -75438.97, -47676.61, 131952.17, 90648.50, 36145.86, 162054.91, -5610.31, 24439.42, 9115.60, 171754.53, 23166.49, 0.000, 0.000, 0.000, 17:01:16.924
106, -56417.01, -59385.50, 128139.08, 95412.76, 61244.31, -75438.97, -47676.61, 131952.17, 90710.87, 36168.81, 162068.42, -5548.57, 24508.44, 9177.87, 171771.61, 23218.19, 0.000, 0.000, 0.000, 17:01:17.379
107, -56426.33, -59386.53, 128147.40, 95417.96, 61234.39, -75434.85, -47680.98, 131961.45, 90710.87, 36168.81, 162068.42, -5548.57, 24508.44, 9177.87, 171771.61, 23218.19, 0.000, 0.000, 0.000, 17:01:17.380
108, -56426.33, -59386.53, 128147.40, 95417.96, 61234.39, -75434.85, -47680.98, 131961.45, 90690.55, 36187.63, 162079.41, -5572.00, 24490.87, 9155.97, 171788.11, 23227.15, -0.484, 0.612, 0.544, 17:01:17.380
109, -56390.05, -59372.94, 128154.13, 95412.73, 61261.10, -75439.51, -47640.98, 131951.97, 90690.55, 36187.63, 162079.41, -5572.00, 24490.87, 9155.97, 171788.11, 23227.15, 0.000, 0.000, 0.000, 17:01:17.380
110, -56390.05, -59372.94, 128154.13, 95412.73, 61261.10, -75439.51, -47640.98, 131951.97, 90679.33, 36185.95, 162067.69, -5584.27, 24477.53, 9143.41, 171799.92, 23208.46, 0.000, 0.000, 0.000, 17:01:17.381
111, -56391.39, -59379.24, 128154.28, 95415.50, 61255.29, -75436.69, -47643.50, 131955.03, 90679.33, 36185.95, 162067.69, -5584.27, 24477.53, 9143.41, 171799.92, 23208.46, 0.000, 0.000, 0.000, 17:01:17.381
112, -56391.39, -59379.24, 128154.28, 95415.50, 61255.29, -75436.69, -47643.50, 131955.03, 90652.34, 36188.99, 162065.66, -5606.85, 24451.36, 9115.89, 171813.42, 23197.47, 0.000, 0.000, 0.000, 17:01:17.381
113, -56359.77, -59375.62, 128164.61, 95414.01, 61270.73, -75441.02, -47646.63, 131949.97, 90652.34, 36188.99, 162065.66, -5606.85, 24451.36, 9115.89, 171813.42, 23197.47, 0.000, 0.000, 0.000, 17:01:17.382
114, -56359.77, -59375.62, 128164.61, 95414.01, 61270.73, -75441.02, -47646.63, 131949.97, 90640.88, 36191.92, 162050.05, -5620.39, 24435.26, 9098.46, 171829.31, 23157.52, 0.000, 0.000, 0.000, 17:01:17.382
115, -56367.86, -59396.03, 128161.81, 95408.82, 61248.32, -75441.49, -47660.40, 131948.25, 90640.88, 36191.92, 162050.05, -5620.39, 24435.26, 9098.46, 171829.31, 23157.52, 0.000, 0.000, 0.000, 17:01:17.382
116, -56367.86, -59396.03, 128161.81, 95408.82, 61248.32, -75441.49, -47660.40, 131948.25, 90651.25, 36194.71, 162047.73, -5612.93, 24442.32, 9107.42, 171845.39, 23166.15, 0.000, 0.000, 0.000, 17:01:17.383
117, -56373.04, -59401.88, 128158.86, 95403.37, 61238.75, -75441.88, -47672.61, 131941.16, 90651.25, 36194.71, 162047.73, -5612.93, 24442.32, 9107.42, 171845.39, 23166.15, 0.000, 0.000, 0.000, 17:01:17.383
118, -56373.04, -59401.88, 128158.86, 95403.37, 61238.75, -75441.88, -47672.61, 131941.16, 90669.02, 36204.15, 162049.94, -5598.24, 24454.28, 9125.30, 171862.41, 23183.63, -0.480, 0.612, 0.548, 17:01:17.383
119, -56378.74, -59402.17, 128166.28, 95409.02, 61247.84, -75432.44, -47674.26, 131948.88, 90669.02, 36204.15, 162049.94, -5598.24, 24454.28, 9125.30, 171862.41, 23183.63, 0.000, 0.000, 0.000, 17:01:17.383
120, -56378.74, -59402.17, 128166.28, 95409.02, 61247.84, -75432.44, -47674.26, 131948.88, 90656.10, 36216.22, 162057.05, -5608.28, 24451.71, 9115.98, 171877.58, 23193.51, 0.000, 0.000, 0.000, 17:01:17.383
121, -56371.16, -59393.23, 128171.11, 95406.77, 61272.70, -75430.05, -47665.23, 131952.27, 90656.10, 36216.22, 162057.05, -5608.28, 24451.71, 9115.98, 171877.58, 23193.51, 0.000, 0.000, 0.000, 17:01:17.384
122, -56371.16, -59393.23, 128171.11, 95406.77, 61272.70, -75430.05, -47665.23, 131952.27, 90657.84, 36211.81, 162053.06, -5607.52, 24451.91, 9118.04, 171896.73, 23189.55, 0.000, 0.000, 0.000, 17:01:17.384
123, -56377.91, -59395.22, 128161.14, 95406.88, 61260.23, -75427.93, -47667.26, 131953.55, 90657.84, 36211.81, 162053.06, -5607.52, 24451.91, 9118.04, 171896.73, 23189.55, 0.000, 0.000, 0.000, 17:01:17.384
124, -56377.91, -59395.22, 128161.14, 95406.88, 61260.23, -75427.93, -47667.26, 131953.55, 90649.35, 36196.05, 162047.69, -5620.26, 24438.75, 9105.43, 171913.91, 23186.89, 0.000, 0.000, 0.000, 17:01:17.384
125, -56381.58, -59402.57, 128145.77, 95399.95, 61261.26, -75438.45, -47684.11, 131941.67, 90649.35, 36196.05, 162047.69, -5620.26, 24438.75, 9105.43, 171913.91, 23186.89, 0.000, 0.000, 0.000, 17:01:17.385
126, -56381.58, -59402.57, 128145.77, 95399.95, 61261.26, -75438.45, -47684.11, 131941.67, 90651.05, 36187.18, 162039.53, -5617.06, 24441.39, 9106.79, 171929.36, 23180.03, 0.000, 0.000, 0.000, 17:01:17.385
127, -56389.63, -59406.13, 128142.28, 95411.75, 61258.13, -75429.02, -47686.68, 131948.00, 90651.05, 36187.18, 162039.53, -5617.06, 24441.39, 9106.79, 171929.36, 23180.03, 0.000, 0.000, 0.000, 17:01:17.385
128, -56389.63, -59406.13, 128142.28, 95411.75, 61258.13, -75429.02, -47686.68, 131948.00, 90656.28, 36197.87, 162042.08, -5602.91, 24454.13, 9120.56, 171944.44, 23187.59, -0.472, 0.616, 0.546, 17:01:17.385
129, -56394.52, -59406.87, 128144.60, 95408.98, 61253.86, -75429.94, -47689.08, 131948.56, 90656.28, 36197.87, 162042.08, -5602.91, 24454.13, 9120.56, 171944.44, 23187.59, 0.000, 0.000, 0.000, 17:01:17.386
130, -56394.52, -59406.87, 128144.60, 95408.98, 61253.86, -75429.94, -47689.08, 131948.56, 90659.30, 36201.20, 162043.81, -5606.31, 24456.96, 9119.42, 171959.81, 23189.76, 0.000, 0.000, 0.000, 17:01:17.386
131, -56392.67, -59406.11, 128147.76, 95407.44, 61261.88, -75429.80, -47686.71, 131950.30, 90659.30, 36201.20, 162043.81, -5606.31, 24456.96, 9119.42, 171959.81, 23189.76, 0.000, 0.000, 0.000, 17:01:17.386
132, -56392.67, -59406.11, 128147.76, 95407.44, 61261.88, -75429.80, -47686.71, 131950.30, 90665.73, 36192.91, 162045.38, -5597.06, 24466.46, 9133.01, 171976.63, 23195.72, 0.000, 0.000, 0.000, 17:01:17.386
133, -56376.91, -59398.17, 128163.18, 95404.08, 61283.47, -75434.74, -47672.40, 131949.94, 90665.73, 36192.91, 162045.38, -5597.06, 24466.46, 9133.01, 171976.63, 23195.72, 0.000, 0.000, 0.000, 17:01:17.386
134, -56376.91, -59398.17, 128163.18, 95404.08, 61283.47, -75434.74, -47672.40, 131949.94, 90624.09, 36168.59, 162028.03, -5639.26, 24417.67, 9081.98, 171991.61, 23149.14, 0.000, 0.000, 0.000, 17:01:17.387
135, -56396.49, -59418.13, 128154.70, 95407.79, 61270.62, -75435.93, -47695.04, 131953.11, 90624.09, 36168.59, 162028.03, -5639.26, 24417.67, 9081.98, 171991.61, 23149.14, 0.000, 0.000, 0.000, 17:01:17.387
136, -56396.49, -59418.13, 128154.70, 95407.79, 61270.62, -75435.93, -47695.04, 131953.11, 90670.36, 36170.93, 162034.67, -5584.38, 24465.19, 9135.31, 172005.50, 23190.74, 0.000, 0.000, 0.000, 17:01:17.387
137, -56392.71, -59418.85, 128167.60, 95406.43, 61269.71, -75437.76, -47676.80, 131950.28, 90670.36, 36170.93, 162034.67, -5584.38, 24465.19, 9135.31, 172005.50, 23190.74, 0.000, 0.000, 0.000, 17:01:17.387
138, -56392.71, -59418.85, 128167.60, 95406.43, 61269.71, -75437.76, -47676.80, 131950.28, 90659.45, 36173.13, 162044.11, -5600.56, 24454.08, 9118.51, 172023.75, 23189.76, -0.476, 0.618, 0.546, 17:01:17.388
139, -56384.93, -59417.37, 128160.56, 95396.05, 61255.38, -75446.12, -47686.06, 131945.27, 90659.45, 36173.13, 162044.11, -5600.56, 24454.08, 9118.51, 172023.75, 23189.76, 0.000, 0.000, 0.000, 17:01:17.388
140, -56384.93, -59417.37, 128160.56, 95396.05, 61255.38, -75446.12, -47686.06, 131945.27, 90668.59, 36178.89, 162040.17, -5600.45, 24459.63, 9125.81, 172038.64, 23189.42, 0.000, 0.000, 0.000, 17:01:17.388
141, -56401.38, -59424.14, 128156.74, 95395.12, 61215.23, -75441.29, -47679.93, 131946.20, 90668.59, 36178.89, 162040.17, -5600.45, 24459.63, 9125.81, 172038.64, 23189.42, 0.000, 0.000, 0.000, 17:01:17.388
142, -56401.38, -59424.14, 128156.74, 95395.12, 61215.23, -75441.29, -47679.93, 131946.20, 90678.72, 36201.20, 162049.69, -5589.14, 24472.66, 9146.74, 172053.19, 23200.82, 0.000, 0.000, 0.000, 17:01:17.388
143, -56401.18, -59420.93, 128167.71, 95400.80, 61207.23, -75427.26, -47676.34, 131959.08, 90678.72, 36201.20, 162049.69, -5589.14, 24472.66, 9146.74, 172053.19, 23200.82, 0.000, 0.000, 0.000, 17:01:17.389
144, -56401.18, -59420.93, 128167.71, 95400.80, 61207.23, -75427.26, -47676.34, 131959.08, 90673.36, 36217.60, 162055.17, -5593.19, 24469.28, 9146.18, 172069.63, 23205.36, 0.000, 0.000, 0.000, 17:01:17.389
145, -56372.86, -59409.37, 128170.22, 95394.25, 61223.86, -75433.38, -47659.30, 131949.89, 90673.36, 36217.60, 162055.17, -5593.19, 24469.28, 9146.18, 172069.63, 23205.36, 0.000, 0.000, 0.000, 17:01:17.389
146, -56372.86, -59409.37, 128170.22, 95394.25, 61223.86, -75433.38, -47659.30, 131949.89, 90653.76, 36211.46, 162043.33, -5616.10, 24441.86, 9124.63, 172089.14, 23176.77, 0.000, 0.000, 0.000, 17:01:17.389
147, -56388.93, -59425.29, 128157.16, 95399.73, 61199.41, -75430.27, -47675.80, 131953.11, 90653.76, 36211.46, 162043.33, -5616.10, 24441.86, 9124.63, 172089.14, 23176.77, -0.474, 0.610, 0.546, 17:01:17.389
148, -56388.93, -59425.29, 128157.16, 95399.73, 61199.41, -75430.27, -47675.80, 131953.11, 90668.71, 36223.93, 162043.55, -5603.43, 24451.02, 9139.87, 172105.61, 23194.83, 0.000, 0.000, 0.000, 17:01:17.390
149, -56383.10, -59425.33, 128149.32, 95393.17, 61191.88, -75435.13, -47677.03, 131936.86, 90668.71, 36223.93, 162043.55, -5603.43, 24451.02, 9139.87, 172105.61, 23194.83, 0.000, 0.000, 0.000, 17:01:17.390
150, -56383.10, -59425.33, 128149.32, 95393.17, 61191.88, -75435.13, -47677.03, 131936.86, 90655.95, 36223.32, 162035.88, -5618.00, 24441.14, 9124.74, 172120.36, 23182.27, 0.000, 0.000, 0.000, 17:01:17.390
151, -56392.49, -59429.51, 128152.98, 95395.09, 61177.93, -75427.84, -47679.89, 131939.75, 90655.95, 36223.32, 162035.88, -5618.00, 24441.14, 9124.74, 172120.36, 23182.27, 0.000, 0.000, 0.000, 17:01:17.390
152, -56392.49, -59429.51, 128152.98, 95395.09, 61177.93, -75427.84, -47679.89, 131939.75, 90647.81, 36225.02, 162033.59, -5619.72, 24442.79, 9117.81, 172137.75, 23173.39, 0.000, 0.000, 0.000, 17:01:17.390
153, -56375.34, -59418.87, 128164.92, 95394.23, 61171.76, -75428.09, -47683.31, 131939.97, 90647.81, 36225.02, 162033.59, -5619.72, 24442.79, 9117.81, 172137.75, 23173.39, 0.000, 0.000, 0.000, 17:01:17.390
154, -56375.34, -59418.87, 128164.92, 95394.23, 61171.76, -75428.09, -47683.31, 131939.97, 90631.72, 36220.93, 162025.20, -5629.09, 24427.97, 9105.56, 172158.52, 23159.89, 0.000, 0.000, 0.000, 17:01:17.391
155, -56351.81, -59404.16, 128178.58, 95395.95, 61187.94, -75428.38, -47662.99, 131943.11, 90631.72, 36220.93, 162025.20, -5629.09, 24427.97, 9105.56, 172158.52, 23159.89, 0.000, 0.000, 0.000, 17:01:17.391
156, -56351.81, -59404.16, 128178.58, 95395.95, 61187.94, -75428.38, -47662.99, 131943.11, 90594.95, 36211.34, 162006.11, -5661.99, 24391.45, 9067.05, 172176.16, 23113.11, 0.000, 0.000, 0.000, 17:01:17.391
157, -56367.95, -59421.21, 128171.34, 95395.14, 61201.24, -75427.97, -47670.35, 131943.45, 90594.95, 36211.34, 162006.11, -5661.99, 24391.45, 9067.05, 172176.16, 23113.11, -0.478, 0.612, 0.548, 17:01:17.391
158, -56367.95, -59421.21, 128171.34, 95395.14, 61201.24, -75427.97, -47670.35, 131943.45, 90625.99, 36223.28, 162005.66, -5627.14, 24426.03, 9100.49, 172189.45, 23129.18, 0.000, 0.000, 0.000, 17:01:17.391
159, -56386.83, -59429.40, 128162.15, 95394.52, 61221.58, -75421.06, -47681.90, 131947.63, 90625.99, 36223.28, 162005.66, -5627.14, 24426.03, 9100.49, 172189.45, 23129.18, 0.000, 0.000, 0.000, 17:01:17.391
160, -56386.83, -59429.40, 128162.15, 95394.52, 61221.58, -75421.06, -47681.90, 131947.63, 90644.37, 36242.32, 162016.56, -5616.03, 24433.59, 9117.95, 172205.50, 23146.86, 0.000, 0.000, 0.000, 17:01:17.392
161, -56384.66, -59426.45, 128152.90, 95377.84, 61234.95, -75432.98, -47689.97, 131931.88, 90644.37, 36242.32, 162016.56, -5616.03, 24433.59, 9117.95, 172205.50, 23146.86, 0.000, 0.000, 0.000, 17:01:17.392
162, -56384.66, -59426.45, 128152.90, 95377.84, 61234.95, -75432.98, -47689.97, 131931.88, 90623.63, 36247.51, 162011.56, -5644.98, 24404.35, 9091.55, 172222.08, 23114.65, 0.000, 0.000, 0.000, 17:01:17.392
163, -56377.71, -59418.29, 128155.55, 95378.16, 61213.29, -75429.67, -47700.86, 131935.55, 90623.63, 36247.51, 162011.56, -5644.98, 24404.35, 9091.55, 172222.08, 23114.65, 0.000, 0.000, 0.000, 17:01:17.392
164, -56377.71, -59418.29, 128155.55, 95378.16, 61213.29, -75429.67, -47700.86, 131935.55, 90622.57, 36253.50, 162007.81, -5640.64, 24411.35, 9092.73, 172236.66, 23110.41, 0.000, 0.000, 0.000, 17:01:17.392
165, -56390.23, -59424.32, 128159.13, 95385.44, 61168.36, -75422.72, -47706.71, 131940.47, 90622.57, 36253.50, 162007.81, -5640.64, 24411.35, 9092.73, 172236.66, 23110.41, 0.000, 0.000, 0.000, 17:01:17.392
166, -56390.23, -59424.32, 128159.13, 95385.44, 61168.36, -75422.72, -47706.71, 131940.47, 90645.04, 36276.10, 162016.02, -5611.11, 24438.14, 9122.26, 172254.05, 23140.92, 0.000, 0.000, 0.000, 17:01:17.393
167, -56376.86, -59413.86, 128178.27, 95385.77, 61157.46, -75424.75, -47695.36, 131938.20, 90645.04, 36276.10, 162016.02, -5611.11, 24438.14, 9122.26, 172254.05, 23140.92, -0.476, 0.612, 0.546, 17:01:17.393
168, -56376.86, -59413.86, 128178.27, 95385.77, 61157.46, -75424.75, -47695.36, 131938.20, 90606.70, 36275.63, 162013.86, -5657.07, 24393.15, 9079.41, 172271.80, 23118.03, 0.000, 0.000, 0.000, 17:01:17.393
169, -56368.66, -59413.50, 128175.90, 95381.88, 61135.21, -75422.38, -47712.88, 131935.77, 90606.70, 36275.63, 162013.86, -5657.07, 24393.15, 9079.41, 172271.80, 23118.03, 0.000, 0.000, 0.000, 17:01:17.393
170, -56368.66, -59413.50, 128175.90, 95381.88, 61135.21, -75422.38, -47712.88, 131935.77, 90598.14, 36275.00, 162002.05, -5667.26, 24378.58, 9068.44, 172290.33, 23100.68, 0.000, 0.000, 0.000, 17:01:17.393
171, -56387.97, -59422.47, 128171.11, 95392.95, 61121.04, -75415.34, -47727.84, 131944.02, 90598.14, 36275.00, 162002.05, -5667.26, 24378.58, 9068.44, 172290.33, 23100.68, 0.000, 0.000, 0.000, 17:01:17.393
172, -56387.97, -59422.47, 128171.11, 95392.95, 61121.04, -75415.34, -47727.84, 131944.02, 90605.12, 36277.66, 161999.31, -5650.79, 24391.81, 9081.40, 172304.20, 23124.78, 0.000, 0.000, 0.000, 17:01:17.393
173, -56384.04, -59424.19, 128170.95, 95393.20, 61125.38, -75419.09, -47719.63, 131941.16, 90605.12, 36277.66, 161999.31, -5650.79, 24391.81, 9081.40, 172304.20, 23124.78, 0.000, 0.000, 0.000, 17:01:17.394
174, -56384.04, -59424.19, 128170.95, 95393.20, 61125.38, -75419.09, -47719.63, 131941.16, 90612.60, 36273.77, 161995.17, -5640.69, 24398.67, 9088.80, 172318.47, 23133.03, 0.000, 0.000, 0.000, 17:01:17.394
175, -56384.60, -59423.18, 128186.91, 95397.98, 61106.36, -75413.58, -47705.57, 131946.34, 90612.60, 36273.77, 161995.17, -5640.69, 24398.67, 9088.80, 172318.47, 23133.03, 0.000, 0.000, 0.000, 17:01:17.394
176, -56384.60, -59423.18, 128186.91, 95397.98, 61106.36, -75413.58, -47705.57, 131946.34, 90579.39, 36272.70, 161991.58, -5669.16, 24371.78, 9052.28, 172333.83, 23116.51, 0.000, 0.000, 0.000, 17:01:17.394
177, -56364.08, -59413.64, 128195.95, 95398.41, 61135.17, -75417.60, -47688.09, 131948.83, 90579.39, 36272.70, 161991.58, -5669.16, 24371.78, 9052.28, 172333.83, 23116.51, -0.472, 0.610, 0.544, 17:01:17.394
178, -56364.08, -59413.64, 128195.95, 95398.41, 61135.17, -75417.60, -47688.09, 131948.83, 90582.54, 36273.04, 161976.11, -5668.09, 24376.14, 9057.75, 172350.94, 23100.10, 0.000, 0.000, 0.000, 17:01:17.395
179, -56400.40, -59438.50, 128178.71, 95392.55, 61119.77, -75422.14, -47699.76, 131946.56, 90582.54, 36273.04, 161976.11, -5668.09, 24376.14, 9057.75, 172350.94, 23100.10, 0.000, 0.000, 0.000, 17:01:17.395
180, -56400.40, -59438.50, 128178.71, 95392.55, 61119.77, -75422.14, -47699.76, 131946.56, 90624.92, 36296.73, 161988.08, -5634.27, 24409.98, 9094.92, 172365.92, 23124.64, 0.000, 0.000, 0.000, 17:01:17.395
181, -56410.19, -59441.49, 128174.42, 95384.86, 61116.48, -75424.88, -47697.55, 131942.39, 90624.92, 36296.73, 161988.08, -5634.27, 24409.98, 9094.92, 172365.92, 23124.64, 0.000, 0.000, 0.000, 17:01:17.396
182, -56410.19, -59441.49, 128174.42, 95384.86, 61116.48, -75424.88, -47697.55, 131942.39, 90607.45, 36305.45, 161992.58, -5650.63, 24388.68, 9077.62, 172382.25, 23123.82, 0.000, 0.000, 0.000, 17:01:17.396
183, -56389.85, -59425.64, 128182.38, 95383.09, 61132.42, -75424.39, -47685.95, 131943.91, 90607.45, 36305.45, 161992.58, -5650.63, 24388.68, 9077.62, 172382.25, 23123.82, 0.000, 0.000, 0.000, 17:01:17.396
184, -56389.85, -59425.64, 128182.38, 95383.09, 61132.42, -75424.39, -47685.95, 131943.91, 90597.30, 36300.24, 161991.00, -5663.10, 24378.71, 9067.57, 172400.41, 23108.46, 0.000, 0.000, 0.000, 17:01:17.396
185, -56386.77, -59424.97, 128184.45, 95384.63, 61118.21, -75424.28, -47694.73, 131942.48, 90597.30, 36300.24, 161991.00, -5663.10, 24378.71, 9067.57, 172400.41, 23108.46, 0.000, 0.000, 0.000, 17:01:17.396
186, -56386.77, -59424.97, 128184.45, 95384.63, 61118.21, -75424.28, -47694.73, 131942.48, 90595.62, 36300.80, 161988.39, -5662.81, 24375.52, 9071.97, 172417.81, 23107.34, 0.000, 0.000, 0.000, 17:01:17.396
187, -56399.08, -59434.88, 128186.65, 95385.66, 61099.74, -75424.04, -47701.82, 131945.47, 90595.62, 36300.80, 161988.39, -5662.81, 24375.52, 9071.97, 172417.81, 23107.34, -0.472, 0.612, 0.546, 17:01:17.397
188, -56399.08, -59434.88, 128186.65, 95385.66, 61099.74, -75424.04, -47701.82, 131945.47, 90617.03, 36302.92, 161991.77, -5644.17, 24396.15, 9090.81, 172434.92, 23125.79, 0.000, 0.000, 0.000, 17:01:17.397
189, -56402.88, -59439.23, 128185.95, 95382.94, 61084.84, -75428.44, -47704.10, 131936.75, 90617.03, 36302.92, 161991.77, -5644.17, 24396.15, 9090.81, 172434.92, 23125.79, 0.000, 0.000, 0.000, 17:01:17.397
190, -56402.88, -59439.23, 128185.95, 95382.94, 61084.84, -75428.44, -47704.10, 131936.75, 90631.78, 36296.01, 161995.69, -5626.49, 24422.95, 9106.73, 172446.97, 23134.52, 0.000, 0.000, 0.000, 17:01:17.397
191, -56406.35, -59439.84, 128194.41, 95389.51, 61083.89, -75416.52, -47705.28, 131944.59, 90631.78, 36296.01, 161995.69, -5626.49, 24422.95, 9106.73, 172446.97, 23134.52, 0.000, 0.000, 0.000, 17:01:17.397
192, -56406.35, -59439.84, 128194.41, 95389.51, 61083.89, -75416.52, -47705.28, 131944.59, 90646.31, 36298.05, 162003.73, -5610.42, 24440.65, 9126.89, 172461.06, 23149.84, 0.000, 0.000, 0.000, 17:01:17.398
193, -56414.50, -59445.42, 128189.10, 95387.45, 61084.34, -75420.77, -47725.22, 131939.17, 90646.31, 36298.05, 162003.73, -5610.42, 24440.65, 9126.89, 172461.06, 23149.84, 0.000, 0.000, 0.000, 17:01:17.398
194, -56414.50, -59445.42, 128189.10, 95387.45, 61084.34, -75420.77, -47725.22, 131939.17, 90645.82, 36303.86, 162017.19, -5610.71, 24437.50, 9122.64, 172478.42, 23162.46, 0.000, 0.000, 0.000, 17:01:17.398
195, -56389.98, -59430.87, 128192.30, 95384.66, 61105.44, -75417.73, -47713.46, 131935.92, 90645.82, 36303.86, 162017.19, -5610.71, 24437.50, 9122.64, 172478.42, 23162.46, 0.000, 0.000, 0.000, 17:01:17.398
196, -56389.98, -59430.87, 128192.30, 95384.66, 61105.44, -75417.73, -47713.46, 131935.92, 90633.30, 36288.55, 162008.44, -5626.11, 24426.28, 9108.36, 172495.73, 23147.15, 0.000, 0.000, 0.000, 17:01:17.398
197, -56401.27, -59439.59, 128190.60, 95385.46, 61104.86, -75417.09, -47724.68, 131935.86, 90633.30, 36288.55, 162008.44, -5626.11, 24426.28, 9108.36, 172495.73, 23147.15, -0.472, 0.614, 0.552, 17:01:17.399
198, -56401.27, -59439.59, 128190.60, 95385.46, 61104.86, -75417.09, -47724.68, 131935.86, 90610.26, 36282.11, 161999.25, -5652.40, 24392.93, 9083.55, 172511.72, 23131.13, 0.000, 0.000, 0.000, 17:01:17.399
199, -56377.82, -59428.61, 128201.58, 95386.71, 61132.73, -75416.39, -47715.77, 131937.30, 90610.26, 36282.11, 161999.25, -5652.40, 24392.93, 9083.55, 172511.72, 23131.13, 0.000, 0.000, 0.000, 17:01:17.399
200, -56377.82, -59428.61, 128201.58, 95386.71, 61132.73, -75416.39, -47715.77, 131937.30, 90565.82, 36266.78, 161971.53, -5693.41, 24345.52, 9042.73, 172527.77, 23091.29, 0.000, 0.000, 0.000, 17:01:17.399
201, -56387.82, -59432.48, 128202.54, 95391.20, 61111.43, -75410.27, -47732.30, 131941.81, 90565.82, 36266.78, 161971.53, -5693.41, 24345.52, 9042.73, 172527.77, 23091.29, 0.000, 0.000, 0.000, 17:01:17.399
202, -56387.82, -59432.48, 128202.54, 95391.20, 61111.43, -75410.27, -47732.30, 131941.81, 90600.96, 36268.01, 161970.53, -5650.61, 24391.03, 9087.15, 172547.58, 23117.04, 0.000, 0.000, 0.000, 17:01:17.400
203, -56414.24, -59440.64, 128202.56, 95392.91, 61073.95, -75409.24, -47747.32, 131943.97, 90600.96, 36268.01, 161970.53, -5650.61, 24391.03, 9087.15, 172547.58, 23117.04, 0.000, 0.000, 0.000, 17:01:17.400
204, -56414.24, -59440.64, 128202.56, 95392.91, 61073.95, -75409.24, -47747.32, 131943.97, 90645.15, 36286.83, 161987.67, -5605.75, 24433.59, 9130.17, 172565.70, 23160.70, 0.000, 0.000, 0.000, 17:01:17.400
205, -56405.39, -59431.01, 128215.75, 95398.29, 61086.71, -75410.49, -47752.91, 131942.00, 90645.15, 36286.83, 161987.67, -5605.75, 24433.59, 9130.17, 172565.70, 23160.70, 0.000, 0.000, 0.000, 17:01:17.400
206, -56405.39, -59431.01, 128215.75, 95398.29, 61086.71, -75410.49, -47752.91, 131942.00, 90635.34, 36296.64, 161994.58, -5612.05, 24423.93, 9125.50, 172579.98, 23160.32, 0.000, 0.000, 0.000, 17:01:17.400
207, -56399.60, -59427.36, 128212.98, 95396.44, 61091.74, -75410.47, -47740.20, 131938.09, 90635.34, 36296.64, 161994.58, -5612.05, 24423.93, 9125.50, 172579.98, 23160.32, -0.474, 0.620, 0.546, 17:01:17.400
208, -56399.60, -59427.36, 128212.98, 95396.44, 61091.74, -75410.47, -47740.20, 131938.09, 90625.15, 36297.20, 161998.53, -5615.03, 24415.03, 9118.64, 172595.77, 23158.17, 0.000, 0.000, 0.000, 17:01:17.401
209, -56396.33, -59415.38, 128218.79, 95406.74, 61082.75, -75398.29, -47729.24, 131948.41, 90625.15, 36297.20, 161998.53, -5615.03, 24415.03, 9118.64, 172595.77, 23158.17, 0.000, 0.000, 0.000, 17:01:17.401
210, -56396.33, -59415.38, 128218.79, 95406.74, 61082.75, -75398.29, -47729.24, 131948.41, 90634.60, 36304.39, 162004.44, -5598.73, 24430.48, 9139.49, 172611.63, 23167.92, 0.000, 0.000, 0.000, 17:01:17.401
211, -56396.09, -59411.80, 128214.90, 95407.66, 61105.27, -75393.28, -47730.56, 131952.05, 90634.60, 36304.39, 162004.44, -5598.73, 24430.48, 9139.49, 172611.63, 23167.92, 0.000, 0.000, 0.000, 17:01:17.401
212, -56396.09, -59411.80, 128214.90, 95407.66, 61105.27, -75393.28, -47730.56, 131952.05, 90635.45, 36308.87, 162006.88, -5602.40, 24425.52, 9134.89, 172624.89, 23169.42, 0.000, 0.000, 0.000, 17:01:17.401
213, -56388.78, -59410.84, 128215.37, 95400.41, 61127.44, -75399.30, -47735.81, 131940.36, 90635.45, 36308.87, 162006.88, -5602.40, 24425.52, 9134.89, 172624.89, 23169.42, 0.000, 0.000, 0.000, 17:01:17.402
214, -56388.78, -59410.84, 128215.37, 95400.41, 61127.44, -75399.30, -47735.81, 131940.36, 90615.66, 36305.96, 162005.14, -5617.91, 24407.48, 9115.60, 172637.20, 23148.92, 0.000, 0.000, 0.000, 17:01:17.402
215, -56392.62, -59414.24, 128216.28, 95402.85, 61122.09, -75400.01, -47759.55, 131936.91, 90615.66, 36305.96, 162005.14, -5617.91, 24407.48, 9115.60, 172637.20, 23148.92, 0.000, 0.000, 0.000, 17:01:17.402
216, -56392.62, -59414.24, 128216.28, 95402.85, 61122.09, -75400.01, -47759.55, 131936.91, 90654.36, 36314.14, 162011.03, -5571.37, 24454.10, 9160.71, 172651.63, 23174.44, 0.000, 0.000, 0.000, 17:01:17.403
217, -56405.68, -59420.08, 128228.63, 95414.27, 61105.89, -75388.79, -47767.96, 131935.28, 90654.36, 36314.14, 162011.03, -5571.37, 24454.10, 9160.71, 172651.63, 23174.44, -0.472, 0.612, 0.546, 17:01:17.403
218, -56405.68, -59420.08, 128228.63, 95414.27, 61105.89, -75388.79, -47767.96, 131935.28, 90660.08, 36332.87, 162031.05, -5563.73, 24459.29, 9166.85, 172667.69, 23199.97, 0.000, 0.000, 0.000, 17:01:17.404
219, -56383.68, -59403.60, 128235.40, 95410.34, 61132.11, -75396.32, -47761.41, 131929.89, 90660.08, 36332.87, 162031.05, -5563.73, 24459.29, 9166.85, 172667.69, 23199.97, 0.000, 0.000, 0.000, 17:01:17.404
220, -56383.68, -59403.60, 128235.40, 95410.34, 61132.11, -75396.32, -47761.41, 131929.89, 90647.77, 36331.04, 162030.52, -5585.21, 24441.72, 9146.74, 172681.02, 23181.71, 0.000, 0.000, 0.000, 17:01:17.404
221, -56387.32, -59409.41, 128227.30, 95398.13, 61132.91, -75408.59, -47764.54, 131923.56, 90647.77, 36331.04, 162030.52, -5585.21, 24441.72, 9146.74, 172681.02, 23181.71, 0.000, 0.000, 0.000, 17:01:17.405
222, -56387.32, -59409.41, 128227.30, 95398.13, 61132.91, -75408.59, -47764.54, 131923.56, 90644.97, 36319.88, 162026.27, -5592.63, 24438.19, 9132.16, 172694.98, 23173.64, 0.000, 0.000, 0.000, 17:01:17.405
223, -56392.87, -59409.23, 128229.80, 95405.73, 61115.32, -75400.79, -47751.41, 131938.56, 90644.97, 36319.88, 162026.27, -5592.63, 24438.19, 9132.16, 172694.98, 23173.64, 0.000, 0.000, 0.000, 17:01:17.405
224, -56392.87, -59409.23, 128229.80, 95405.73, 61115.32, -75400.79, -47751.41, 131938.56, 90659.68, 36322.41, 162035.72, -5565.32, 24463.60, 9151.09, 172713.64, 23204.37, 0.000, 0.000, 0.000, 17:01:17.405
225, -56387.23, -59411.00, 128244.96, 95409.22, 61133.05, -75397.20, -47743.91, 131943.97, 90659.68, 36322.41, 162035.72, -5565.32, 24463.60, 9151.09, 172713.64, 23204.37, 0.000, 0.000, 0.000, 17:01:17.406
226, -56387.23, -59411.00, 128244.96, 95409.22, 61133.05, -75397.20, -47743.91, 131943.97, 90656.51, 36327.24, 162046.00, -5566.93, 24463.51, 9140.43, 172732.27, 23210.05, 0.000, 0.000, 0.000, 17:01:17.406
227, -56371.97, -59407.40, 128245.52, 95398.20, 61150.41, -75403.70, -47744.73, 131934.81, 90656.51, 36327.24, 162046.00, -5566.93, 24463.51, 9140.43, 172732.27, 23210.05, -0.484, 0.610, 0.546, 17:01:17.860
228, -56371.97, -59407.40, 128245.52, 95398.20, 61150.41, -75403.70, -47744.73, 131934.81, 90631.31, 36315.82, 162036.75, -5602.35, 24427.84, 9110.75, 172746.61, 23181.06, 0.000, 0.000, 0.000, 17:01:17.860
229, -56376.42, -59414.13, 128240.70, 95392.99, 61133.83, -75395.23, -47750.28, 131938.91, 90631.31, 36315.82, 162036.75, -5602.35, 24427.84, 9110.75, 172746.61, 23181.06, 0.000, 0.000, 0.000, 17:01:17.861
230, -56376.42, -59414.13, 128240.70, 95392.99, 61133.83, -75395.23, -47750.28, 131938.91, 90649.51, 36320.73, 162034.05, -5584.25, 24450.01, 9143.38, 172759.11, 23193.85, 0.000, 0.000, 0.000, 17:01:17.861
231, -56379.34, -59412.86, 128246.84, 95394.20, 61126.43, -75389.59, -47742.95, 131945.83, 90649.51, 36320.73, 162034.05, -5584.25, 24450.01, 9143.38, 172759.11, 23193.85, 0.000, 0.000, 0.000, 17:01:17.861
232, -56379.34, -59412.86, 128246.84, 95394.20, 61126.43, -75389.59, -47742.95, 131945.83, 90626.87, 36315.06, 162032.23, -5609.91, 24426.92, 9114.21, 172775.38, 23180.95, 0.000, 0.000, 0.000, 17:01:17.861
233, -56368.86, -59411.40, 128246.23, 95388.46, 61133.67, -75393.19, -47748.15, 131945.88, 90626.87, 36315.06, 162032.23, -5609.91, 24426.92, 9114.21, 172775.38, 23180.95, 0.000, 0.000, 0.000, 17:01:17.861
234, -56368.86, -59411.40, 128246.23, 95388.46, 61133.67, -75393.19, -47748.15, 131945.88, 90637.02, 36316.18, 162022.66, -5604.74, 24431.53, 9120.90, 172793.73, 23177.60, 0.000, 0.000, 0.000, 17:01:17.862
235, -56381.85, -59421.46, 128243.55, 95381.98, 61134.10, -75402.22, -47758.50, 131940.31, 90637.02, 36316.18, 162022.66, -5604.74, 24431.53, 9120.90, 172793.73, 23177.60, 0.000, 0.000, 0.000, 17:01:17.862
236, -56381.85, -59421.46, 128243.55, 95381.98, 61134.10, -75402.22, -47758.50, 131940.31, 90625.28, 36318.39, 162012.70, -5619.09, 24408.69, 9106.37, 172808.39, 23174.85, 0.000, 0.000, 0.000, 17:01:17.862
237, -56377.91, -59421.91, 128243.98, 95385.95, 61145.25, -75398.04, -47752.13, 131939.92, 90625.28, 36318.39, 162012.70, -5619.09, 24408.69, 9106.37, 172808.39, 23174.85, -0.486, 0.610, 0.550, 17:01:17.862
238, -56377.91, -59421.91, 128243.98, 95385.95, 61145.25, -75398.04, -47752.13, 131939.92, 90618.13, 36316.53, 162005.73, -5623.56, 24389.33, 9105.99, 172825.00, 23169.37, 0.000, 0.000, 0.000, 17:01:17.863
239, -56388.80, -59429.49, 128248.77, 95397.53, 61133.07, -75388.30, -47757.52, 131952.69, 90618.13, 36316.53, 162005.73, -5623.56, 24389.33, 9105.99, 172825.00, 23169.37, 0.000, 0.000, 0.000, 17:01:17.863
240, -56388.80, -59429.49, 128248.77, 95397.53, 61133.07, -75388.30, -47757.52, 131952.69, 90670.79, 36343.36, 162020.97, -5559.53, 24447.46, 9174.00, 172841.67, 23214.90, 0.000, 0.000, 0.000, 17:01:17.863
241, -56394.48, -59430.34, 128259.91, 95391.68, 61119.43, -75392.68, -47752.02, 131946.39, 90670.79, 36343.36, 162020.97, -5559.53, 24447.46, 9174.00, 172841.67, 23214.90, 0.000, 0.000, 0.000, 17:01:17.864
242, -56394.48, -59430.34, 128259.91, 95391.68, 61119.43, -75392.68, -47752.02, 131946.39, 90659.77, 36361.01, 162031.48, -5584.45, 24425.79, 9157.11, 172860.94, 23208.02, 0.000, 0.000, 0.000, 17:01:17.864
243, -56384.38, -59431.74, 128254.44, 95381.13, 61112.77, -75396.77, -47755.28, 131945.11, 90659.77, 36361.01, 162031.48, -5584.45, 24425.79, 9157.11, 172860.94, 23208.02, 0.000, 0.000, 0.000, 17:01:17.864
244, -56384.38, -59431.74, 128254.44, 95381.13, 61112.77, -75396.77, -47755.28, 131945.11, 90661.78, 36369.15, 162031.70, -5584.23, 24419.79, 9161.17, 172878.94, 23204.91, 0.000, 0.000, 0.000, 17:01:17.865
245, -56370.61, -59427.92, 128257.23, 95381.48, 61111.59, -75394.53, -47756.47, 131946.20, 90661.78, 36369.15, 162031.70, -5584.23, 24419.79, 9161.17, 172878.94, 23204.91, 0.000, 0.000, 0.000, 17:01:17.865
246, -56370.61, -59427.92, 128257.23, 95381.48, 61111.59, -75394.53, -47756.47, 131946.20, 90630.48, 36354.29, 162023.36, -5609.59, 24393.49, 9131.04, 172893.27, 23186.89, -0.476, 0.614, 0.552, 17:01:17.865
247, -56352.81, -59418.51, 128256.27, 95384.52, 61132.71, -75387.94, -47755.57, 131948.25, 90630.48, 36354.29, 162023.36, -5609.59, 24393.49, 9131.04, 172893.27, 23186.89, 0.000, 0.000, 0.000, 17:01:17.865
248, -56352.81, -59418.51, 128256.27, 95384.52, 61132.71, -75387.94, -47755.57, 131948.25, 90607.11, 36335.64, 162004.66, -5636.73, 24366.31, 9104.42, 172908.39, 23160.21, 0.000, 0.000, 0.000, 17:01:17.866
249, -56353.84, -59431.34, 128247.69, 95376.34, 61136.71, -75401.66, -47774.19, 131938.09, 90607.11, 36335.64, 162004.66, -5636.73, 24366.31, 9104.42, 172908.39, 23160.21, 0.000, 0.000, 0.000, 17:01:17.866
250, -56353.84, -59431.34, 128247.69, 95376.34, 61136.71, -75401.66, -47774.19, 131938.09, 90627.13, 36334.77, 161995.06, -5618.69, 24383.85, 9125.03, 172925.09, 23161.59, 0.000, 0.000, 0.000, 17:01:17.866
251, -56368.97, -59441.24, 128239.82, 95375.02, 61130.43, -75394.42, -47787.47, 131940.42, 90627.13, 36334.77, 161995.06, -5618.69, 24383.85, 9125.03, 172925.09, 23161.59, 0.000, 0.000, 0.000, 17:01:17.867
252, -56368.97, -59441.24, 128239.82, 95375.02, 61130.43, -75394.42, -47787.47, 131940.42, 90656.05, 36349.46, 162003.22, -5587.11, 24413.09, 9159.34, 172941.20, 23191.68, 0.000, 0.000, 0.000, 17:01:17.867
253, -56385.52, -59446.96, 128238.70, 95376.25, 61114.23, -75386.35, -47793.10, 131945.45, 90656.05, 36349.46, 162003.22, -5587.11, 24413.09, 9159.34, 172941.20, 23191.68, 0.000, 0.000, 0.000, 17:01:17.867
254, -56385.52, -59446.96, 128238.70, 95376.25, 61114.23, -75386.35, -47793.10, 131945.45, 90657.71, 36363.05, 162011.94, -5591.45, 24411.97, 9165.38, 172954.84, 23211.08, 0.000, 0.000, 0.000, 17:01:17.867
255, -56367.57, -59433.60, 128245.05, 95377.33, 61123.79, -75385.46, -47782.75, 131949.61, 90657.71, 36363.05, 162011.94, -5591.45, 24411.97, 9165.38, 172954.84, 23211.08, 0.000, 0.000, 0.000, 17:01:17.867
0, -56367.57, -59433.60, 128245.05, 95377.33, 61123.79, -75385.46, -47782.75, 131949.61, 90646.38, 36371.16, 162011.45, -5594.93, 24411.21, 9162.29, 172972.67, 23201.47, -0.482, 0.610, 0.552, 17:01:17.868
1, -56369.76, -59434.80, 128247.53, 95377.98, 61130.01, -75388.68, -47781.52, 131955.55, 90646.38, 36371.16, 162011.45, -5594.93, 24411.21, 9162.29, 172972.67, 23201.47, 0.000, 0.000, 0.000, 17:01:17.868
2, -56369.76, -59434.80, 128247.53, 95377.98, 61130.01, -75388.68, -47781.52, 131955.55, 90661.35, 36388.39, 162025.80, -5572.38, 24443.73, 9184.33, 172989.98, 23210.34, 0.000, 0.000, 0.000, 17:01:17.868
3, -56355.36, -59428.13, 128259.00, 95372.41, 61146.28, -75397.23, -47779.49, 131960.00, 90661.35, 36388.39, 162025.80, -5572.38, 24443.73, 9184.33, 172989.98, 23210.34, 0.000, 0.000, 0.000, 17:01:17.868
4, -56355.36, -59428.13, 128259.00, 95372.41, 61146.28, -75397.23, -47779.49, 131960.00, 90648.32, 36390.85, 162026.22, -5590.04, 24433.59, 9169.09, 173007.34, 23196.86, 0.000, 0.000, 0.000, 17:01:17.868
5, -56358.65, -59431.61, 128264.74, 95373.10, 61149.36, -75397.28, -47787.07, 131969.23, 90648.32, 36390.85, 162026.22, -5590.04, 24433.59, 9169.09, 173007.34, 23196.86, 0.000, 0.000, 0.000, 17:01:17.869
6, -56358.65, -59431.61, 128264.74, 95373.10, 61149.36, -75397.28, -47787.07, 131969.23, 90648.86, 36397.11, 162029.22, -5584.45, 24438.84, 9170.14, 173023.75, 23200.69, 0.000, 0.000, 0.000, 17:01:17.869
7, -56343.96, -59420.90, 128270.27, 95371.96, 61154.55, -75406.09, -47781.14, 131963.59, 90648.86, 36397.11, 162029.22, -5584.45, 24438.84, 9170.14, 173023.75, 23200.69, 0.000, 0.000, 0.000, 17:01:17.869
8, -56343.96, -59420.90, 128270.27, 95371.96, 61154.55, -75406.09, -47781.14, 131963.59, 90637.13, 36391.54, 162026.50, -5596.81, 24425.05, 9161.38, 173043.31, 23181.80, 0.000, 0.000, 0.000, 17:01:17.869
9, -56348.28, -59419.18, 128267.23, 95369.41, 61131.35, -75406.73, -47789.84, 131964.98, 90637.13, 36391.54, 162026.50, -5596.81, 24425.05, 9161.38, 173043.31, 23181.80, 0.000, 0.000, 0.000, 17:01:17.869
10, -56348.28, -59419.18, 128267.23, 95369.41, 61131.35, -75406.73, -47789.84, 131964.98, 90665.42, 36394.92, 162033.00, -5573.92, 24443.38, 9187.51, 173061.84, 23202.96, -0.474, 0.610, 0.552, 17:01:17.869
11, -56361.98, -59423.23, 128265.28, 95362.33, 61110.96, -75408.26, -47793.95, 131962.58, 90665.42, 36394.92, 162033.00, -5573.92, 24443.38, 9187.51, 173061.84, 23202.96, 0.000, 0.000, 0.000, 17:01:17.870
12, -56361.98, -59423.23, 128265.28, 95362.33, 61110.96, -75408.26, -47793.95, 131962.58, 90688.40, 36403.59, 162045.06, -5550.05, 24466.67, 9217.75, 173079.44, 23229.27, 0.000, 0.000, 0.000, 17:01:17.870
13, -56353.93, -59404.25, 128271.90, 95360.88, 61123.57, -75404.86, -47781.48, 131965.20, 90688.40, 36403.59, 162045.06, -5550.05, 24466.67, 9217.75, 173079.44, 23229.27, 0.000, 0.000, 0.000, 17:01:17.870
14, -56353.93, -59404.25, 128271.90, 95360.88, 61123.57, -75404.86, -47781.48, 131965.20, 90666.80, 36395.99, 162043.33, -5575.08, 24440.29, 9193.92, 173095.48, 23218.39, 0.000, 0.000, 0.000, 17:01:17.870
15, -56357.11, -59403.13, 128266.64, 95360.05, 61120.93, -75406.27, -47784.92, 131962.03, 90666.80, 36395.99, 162043.33, -5575.08, 24440.29, 9193.92, 173095.48, 23218.39, 0.000, 0.000, 0.000, 17:01:17.871
16, -56357.11, -59403.13, 128266.64, 95360.05, 61120.93, -75406.27, -47784.92, 131962.03, 90668.89, 36402.59, 162046.78, -5570.79, 24442.95, 9198.44, 173114.56, 23223.62, 0.000, 0.000, 0.000, 17:01:17.871
17, -56335.22, -59389.36, 128273.59, 95359.84, 61144.27, -75401.98, -47777.77, 131960.81, 90668.89, 36402.59, 162046.78, -5570.79, 24442.95, 9198.44, 173114.56, 23223.62, 0.000, 0.000, 0.000, 17:01:17.871
18, -56335.22, -59389.36, 128273.59, 95359.84, 61144.27, -75401.98, -47777.77, 131960.81, 90649.09, 36395.75, 162045.88, -5591.18, 24414.52, 9175.37, 173136.61, 23201.47, 0.000, 0.000, 0.000, 17:01:17.871
19, -56324.36, -59383.02, 128266.98, 95351.06, 61147.53, -75410.47, -47790.69, 131952.80, 90649.09, 36395.75, 162045.88, -5591.18, 24414.52, 9175.37, 173136.61, 23201.47, 0.000, 0.000, 0.000, 17:01:17.872
20, -56324.36, -59383.02, 128266.98, 95351.06, 61147.53, -75410.47, -47790.69, 131952.80, 90640.48, 36383.07, 162037.05, -5604.61, 24402.38, 9159.95, 173152.72, 23187.05, -0.470, 0.606, 0.544, 17:01:17.872
21, -56315.60, -59377.43, 128272.34, 95350.64, 61143.64, -75407.45, -47794.27, 131955.00, 90640.48, 36383.07, 162037.05, -5604.61, 24402.38, 9159.95, 173152.72, 23187.05, 0.000, 0.000, 0.000, 17:01:17.872
22, -56315.60, -59377.43, 128272.34, 95350.64, 61143.64, -75407.45, -47794.27, 131955.00, 90615.35, 36369.66, 162023.55, -5626.29, 24378.18, 9139.94, 173165.63, 23164.05, 0.000, 0.000, 0.000, 17:01:17.872
23, -56312.16, -59384.87, 128282.91, 95359.06, 61135.84, -75402.55, -47801.73, 131960.02, 90615.35, 36369.66, 162023.55, -5626.29, 24378.18, 9139.94, 173165.63, 23164.05, 0.000, 0.000, 0.000, 17:01:17.872
24, -56312.16, -59384.87, 128282.91, 95359.06, 61135.84, -75402.55, -47801.73, 131960.02, 90644.88, 36368.12, 162024.06, -5595.98, 24403.81, 9170.56, 173182.73, 23187.21, 0.000, 0.000, 0.000, 17:01:17.873
25, -56317.83, -59399.40, 128286.98, 95354.10, 61114.76, -75411.01, -47812.75, 131949.56, 90644.88, 36368.12, 162024.06, -5595.98, 24403.81, 9170.56, 173182.73, 23187.21, 0.000, 0.000, 0.000, 17:01:17.873
26, -56317.83, -59399.40, 128286.98, 95354.10, 61114.76, -75411.01, -47812.75, 131949.56, 90654.07, 36367.98, 162033.84, -5592.63, 24400.39, 9173.07, 173200.23, 23195.16, 0.000, 0.000, 0.000, 17:01:17.873
27, -56305.34, -59397.79, 128286.91, 95352.45, 61122.12, -75414.23, -47807.65, 131948.59, 90654.07, 36367.98, 162033.84, -5592.63, 24400.39, 9173.07, 173200.23, 23195.16, 0.000, 0.000, 0.000, 17:01:17.874
28, -56305.34, -59397.79, 128286.91, 95352.45, 61122.12, -75414.23, -47807.65, 131948.59, 90648.95, 36370.76, 162031.98, -5594.31, 24390.00, 9171.52, 173215.86, 23200.39, 0.000, 0.000, 0.000, 17:01:17.874
29, -56303.77, -59402.82, 128281.57, 95355.34, 61125.85, -75409.48, -47808.37, 131950.53, 90648.95, 36370.76, 162031.98, -5594.31, 24390.00, 9171.52, 173215.86, 23200.39, 0.000, 0.000, 0.000, 17:01:17.874
30, -56303.77, -59402.82, 128281.57, 95355.34, 61125.85, -75409.48, -47808.37, 131950.53, 90635.45, 36364.77, 162026.53, -5606.35, 24374.93, 9159.07, 173228.94, 23197.98, -0.474, 0.606, 0.548, 17:01:17.874
31, -56288.53, -59394.35, 128275.07, 95355.29, 61132.36, -75409.20, -47807.61, 131950.44, 90635.45, 36364.77, 162026.53, -5606.35, 24374.93, 9159.07, 173228.94, 23197.98, 0.000, 0.000, 0.000, 17:01:17.874
32, -56288.53, -59394.35, 128275.07, 95355.29, 61132.36, -75409.20, -47807.61, 131950.44, 90646.85, 36363.40, 162026.25, -5589.52, 24392.75, 9171.90, 173243.53, 23201.89, 0.000, 0.000, 0.000, 17:01:17.875
33, -56276.46, -59383.35, 128275.07, 95348.16, 61139.24, -75409.35, -47802.76, 131951.69, 90646.85, 36363.40, 162026.25, -5589.52, 24392.75, 9171.90, 173243.53, 23201.89, 0.000, 0.000, 0.000, 17:01:17.875
34, -56276.46, -59383.35, 128275.07, 95348.16, 61139.24, -75409.35, -47802.76, 131951.69, 90625.84, 36356.32, 162023.16, -5622.60, 24362.55, 9140.66, 173262.64, 23180.95, 0.000, 0.000, 0.000, 17:01:17.875
35, -56295.59, -59405.97, 128266.17, 95342.84, 61122.96, -75418.70, -47818.88, 131947.31, 90625.84, 36356.32, 162023.16, -5622.60, 24362.55, 9140.66, 173262.64, 23180.95, 0.000, 0.000, 0.000, 17:01:17.875
36, -56295.59, -59405.97, 128266.17, 95342.84, 61122.96, -75418.70, -47818.88, 131947.31, 90666.30, 36361.10, 162029.48, -5581.59, 24411.10, 9181.05, 173281.11, 23208.66, 0.000, 0.000, 0.000, 17:01:17.875
37, -56290.56, -59399.58, 128275.41, 95335.40, 61116.46, -75423.91, -47812.17, 131940.16, 90666.30, 36361.10, 162029.48, -5581.59, 24411.10, 9181.05, 173281.11, 23208.66, 0.000, 0.000, 0.000, 17:01:17.876
38, -56290.56, -59399.58, 128275.41, 95335.40, 61116.46, -75423.91, -47812.17, 131940.16, 90650.83, 36359.36, 162030.42, -5603.25, 24390.31, 9160.39, 173297.34, 23193.13, 0.000, 0.000, 0.000, 17:01:17.876
39, -56297.31, -59399.76, 128273.20, 95335.28, 61113.36, -75418.12, -47816.08, 131946.33, 90650.83, 36359.36, 162030.42, -5603.25, 24390.31, 9160.39, 173297.34, 23193.13, 0.000, 0.000, 0.000, 17:01:17.876
40, -56297.31, -59399.76, 128273.20, 95335.28, 61113.36, -75418.12, -47816.08, 131946.33, 90664.95, 36371.92, 162036.64, -5585.21, 24403.57, 9179.59, 173315.98, 23204.55, -0.474, 0.610, 0.546, 17:01:17.876
41, -56298.36, -59395.09, 128275.59, 95334.41, 61116.46, -75419.09, -47811.00, 131943.61, 90664.95, 36371.92, 162036.64, -5585.21, 24403.57, 9179.59, 173315.98, 23204.55, 0.000, 0.000, 0.000, 17:01:17.877
42, -56298.36, -59395.09, 128275.59, 95334.41, 61116.46, -75419.09, -47811.00, 131943.61, 90675.80, 36387.23, 162047.58, -5576.69, 24410.81, 9185.76, 173336.45, 23211.39, 0.000, 0.000, 0.000, 17:01:17.877
43, -56300.80, -59395.78, 128275.92, 95329.92, 61124.15, -75431.34, -47808.23, 131937.20, 90675.80, 36387.23, 162047.58, -5576.69, 24410.81, 9185.76, 173336.45, 23211.39, 0.000, 0.000, 0.000, 17:01:17.877
44, -56300.80, -59395.78, 128275.92, 95329.92, 61124.15, -75431.34, -47808.23, 131937.20, 90675.57, 36390.49, 162050.67, -5584.23, 24401.04, 9178.18, 173353.23, 23205.74, 0.000, 0.000, 0.000, 17:01:17.877
45, -56301.81, -59396.36, 128274.82, 95323.44, 61108.75, -75438.52, -47815.01, 131934.30, 90675.57, 36390.49, 162050.67, -5584.23, 24401.04, 9178.18, 173353.23, 23205.74, 0.000, 0.000, 0.000, 17:01:17.878
46, -56301.81, -59396.36, 128274.82, 95323.44, 61108.75, -75438.52, -47815.01, 131934.30, 90674.45, 36383.77, 162048.91, -5583.64, 24398.36, 9174.16, 173371.34, 23202.03, 0.000, 0.000, 0.000, 17:01:17.878
47, -56295.62, -59394.53, 128275.85, 95318.92, 61101.93, -75440.71, -47809.11, 131930.27, 90674.45, 36383.77, 162048.91, -5583.64, 24398.36, 9174.16, 173371.34, 23202.03, 0.000, 0.000, 0.000, 17:01:17.878
48, -56295.62, -59394.53, 128275.85, 95318.92, 61101.93, -75440.71, -47809.11, 131930.27, 90675.97, 36376.77, 162051.45, -5584.52, 24397.46, 9172.75, 173390.44, 23202.96, 0.000, 0.000, 0.000, 17:01:17.879
49, -56294.50, -59391.78, 128272.88, 95319.41, 61087.63, -75439.80, -47813.80, 131933.38, 90675.97, 36376.77, 162051.45, -5584.52, 24397.46, 9172.75, 173390.44, 23202.96, 0.000, 0.000, 0.000, 17:01:17.879
50, -56294.50, -59391.78, 128272.88, 95319.41, 61087.63, -75439.80, -47813.80, 131933.38, 90686.70, 36383.52, 162057.58, -5569.54, 24411.43, 9186.54, 173409.66, 23216.85, -0.478, 0.614, 0.546, 17:01:17.879
51, -56295.21, -59385.45, 128275.12, 95320.17, 61090.64, -75438.32, -47809.46, 131935.69, 90686.70, 36383.52, 162057.58, -5569.54, 24411.43, 9186.54, 173409.66, 23216.85, 0.000, 0.000, 0.000, 17:01:17.880
52, -56295.21, -59385.45, 128275.12, 95320.17, 61090.64, -75438.32, -47809.46, 131935.69, 90686.57, 36389.78, 162058.33, -5574.44, 24413.31, 9179.59, 173428.56, 23231.82, 0.000, 0.000, 0.000, 17:01:17.880
53, -56294.30, -59383.73, 128274.69, 95317.98, 61109.82, -75437.80, -47813.11, 131937.31, 90686.57, 36389.78, 162058.33, -5574.44, 24413.31, 9179.59, 173428.56, 23231.82, 0.000, 0.000, 0.000, 17:01:17.880
54, -56294.30, -59383.73, 128274.69, 95317.98, 61109.82, -75437.80, -47813.11, 131937.31, 90652.95, 36389.67, 162056.83, -5607.87, 24377.86, 9148.12, 173445.80, 23218.05, 0.000, 0.000, 0.000, 17:01:17.881
55, -56273.38, -59374.95, 128280.26, 95317.87, 61130.68, -75439.10, -47806.34, 131936.83, 90652.95, 36389.67, 162056.83, -5607.87, 24377.86, 9148.12, 173445.80, 23218.05, 0.000, 0.000, 0.000, 17:01:17.881
56, -56273.38, -59374.95, 128280.26, 95317.87, 61130.68, -75439.10, -47806.34, 131936.83, 90646.42, 36382.69, 162041.17, -5610.71, 24371.25, 9148.37, 173463.33, 23204.60, 0.000, 0.000, 0.000, 17:01:17.881
57, -56303.10, -59394.30, 128283.81, 95324.66, 61110.16, -75430.30, -47824.30, 131939.39, 90646.42, 36382.69, 162041.17, -5610.71, 24371.25, 9148.37, 173463.33, 23204.60, 0.000, 0.000, 0.000, 17:01:17.881
58, -56303.10, -59394.30, 128283.81, 95324.66, 61110.16, -75430.30, -47824.30, 131939.39, 90675.44, 36393.24, 162049.81, -5573.21, 24405.40, 9183.08, 173486.09, 23240.25, 0.000, 0.000, 0.000, 17:01:17.881
59, -56315.09, -59399.49, 128300.75, 95336.63, 61099.90, -75426.67, -47830.77, 131933.16, 90675.44, 36393.24, 162049.81, -5573.21, 24405.40, 9183.08, 173486.09, 23240.25, 0.000, 0.000, 0.000, 17:01:17.882
60, -56315.09, -59399.49, 128300.75, 95336.63, 61099.90, -75426.67, -47830.77, 131933.16, 90688.60, 36408.71, 162065.28, -5549.67, 24421.94, 9197.50, 173504.77, 23258.58, -0.478, 0.612, 0.544, 17:01:17.882
61, -56302.30, -59386.66, 128321.80, 95339.41, 61105.18, -75431.55, -47824.37, 131928.80, 90688.60, 36408.71, 162065.28, -5549.67, 24421.94, 9197.50, 173504.77, 23258.58, 0.000, 0.000, 0.000, 17:01:17.882
62, -56302.30, -59386.66, 128321.80, 95339.41, 61105.18, -75431.55, -47824.37, 131928.80, 90665.60, 36410.19, 162068.52, -5567.64, 24391.83, 9170.18, 173523.45, 23238.28, 0.000, 0.000, 0.000, 17:01:17.882
63, -56311.06, -59390.77, 128320.24, 95339.06, 61087.67, -75426.07, -47828.15, 131935.09, 90665.60, 36410.19, 162068.52, -5567.64, 24391.83, 9170.18, 173523.45, 23238.28, 0.000, 0.000, 0.000, 17:01:17.882
64, -56311.06, -59390.77, 128320.24, 95339.06, 61087.67, -75426.07, -47828.15, 131935.09, 90681.92, 36426.28, 162074.27, -5549.60, 24411.39, 9188.53, 173543.39, 23245.10, 0.000, 0.000, 0.000, 17:01:17.883
65, -56307.66, -59383.71, 128321.49, 95336.47, 61083.29, -75427.26, -47830.07, 131924.81, 90681.92, 36426.28, 162074.27, -5549.60, 24411.39, 9188.53, 173543.39, 23245.10, 0.000, 0.000, 0.000, 17:01:17.883
66, -56307.66, -59383.71, 128321.49, 95336.47, 61083.29, -75427.26, -47830.07, 131924.81, 90674.50, 36445.48, 162072.56, -5557.47, 24399.34, 9179.88, 173564.86, 23233.68, 0.000, 0.000, 0.000, 17:01:17.883
67, -56309.03, -59379.38, 128319.62, 95335.75, 61077.77, -75427.99, -47836.06, 131919.36, 90674.50, 36445.48, 162072.56, -5557.47, 24399.34, 9179.88, 173564.86, 23233.68, 0.000, 0.000, 0.000, 17:01:17.883
68, -56309.03, -59379.38, 128319.62, 95335.75, 61077.77, -75427.99, -47836.06, 131919.36, 90694.13, 36469.30, 162073.19, -5535.41, 24416.46, 9197.94, 173584.22, 23238.62, 0.000, 0.000, 0.000, 17:01:17.883
69, -56312.04, -59374.43, 128322.57, 95335.38, 61075.65, -75419.95, -47839.23, 131921.75, 90694.13, 36469.30, 162073.19, -5535.41, 24416.46, 9197.94, 173584.22, 23238.62, 0.000, 0.000, 0.000, 17:01:17.883
