%OpenBCI Raw EEG Data
%
%Sample Rate = 250.0 Hz
%First Column = SampleIndex
%Last Column = Timestamp 
%Other Columns = EEG data in microvolts followed by Accel Data (in G) interleaved with Aux Data
0, 0.00, 0.00, 0.00, 0.00, 0.00, 0.00, 0.00, 0.00, 13003.89, 767.67, 79747.58, -16928.58, 18075.81, -9836.51, 29469.90, -11157.72, -0.090, 0.898, 0.044, 16:38:37.025
1, -64838.05, -18536.61, 76736.30, 79832.54, -18601.99, -20198.58, -18633.55, 79128.05, 13003.89, 767.67, 79747.58, -16928.58, 18075.81, -9836.51, 29469.90, -11157.72, 0.000, 0.000, 0.000, 16:38:37.503
2, -64838.05, -18536.61, 76736.30, 79832.54, -18601.99, -20198.58, -18633.55, 79128.05, 41451.87, 13253.13, 173370.31, -7405.29, 28679.88, 543.77, 107230.59, -5169.96, 0.000, 0.000, 0.000, 16:38:37.504
3, -129670.83, -37064.27, 153468.88, 159661.64, -37201.44, -40389.55, -37264.45, 158260.50, 41451.87, 13253.13, 173370.31, -7405.29, 28679.88, 543.77, 107230.59, -5169.96, 0.000, 0.000, 0.000, 16:38:37.504
4, -129670.83, -37064.27, 153468.88, 159661.64, -37201.44, -40389.55, -37264.45, 158260.50, 41459.64, 13255.63, 173368.11, -7405.18, 28683.08, 537.83, 107246.64, -5167.68, 0.000, 0.000, 0.000, 16:38:37.504
5, -129676.03, -37066.52, 153465.02, 159656.19, -37213.93, -40394.88, -37260.27, 158261.86, 41459.64, 13255.63, 173368.11, -7405.18, 28683.08, 537.83, 107246.64, -5167.68, 0.000, 0.000, 0.000, 16:38:37.504
6, -129676.03, -37066.52, 153465.02, 159656.19, -37213.93, -40394.88, -37260.27, 158261.86, 41466.08, 13251.54, 173375.97, -7403.05, 28685.33, 543.82, 107240.29, -5177.00, 0.000, 0.000, 0.000, 16:38:37.505
7, -129696.35, -37084.88, 153466.80, 159660.19, -37228.08, -40405.16, -37255.98, 158265.34, 41466.08, 13251.54, 173375.97, -7403.05, 28685.33, 543.82, 107240.29, -5177.00, 0.000, 0.000, 0.000, 16:38:37.505
8, -129696.35, -37084.88, 153466.80, 159660.19, -37228.08, -40405.16, -37255.98, 158265.34, 41453.19, 13252.24, 173359.52, -7415.66, 28667.09, 524.44, 107236.24, -5184.02, 0.020, 0.920, -0.180, 16:38:37.505
9, -129704.87, -37089.66, 153470.58, 159663.22, -37226.27, -40400.26, -37267.53, 158264.92, 41453.19, 13252.24, 173359.52, -7415.66, 28667.09, 524.44, 107236.24, -5184.02, 0.000, 0.000, 0.000, 16:38:37.505
10, -129704.87, -37089.66, 153470.58, 159663.22, -37226.27, -40400.26, -37267.53, 158264.92, 41446.77, 13246.65, 173362.89, -7408.35, 28671.10, 519.99, 107222.92, -5196.89, 0.000, 0.000, 0.000, 16:38:37.506
11, -129705.02, -37087.13, 153473.16, 159664.09, -37209.82, -40407.39, -37264.98, 158264.77, 41446.77, 13246.65, 173362.89, -7408.35, 28671.10, 519.99, 107222.92, -5196.89, 0.000, 0.000, 0.000, 16:38:37.506
12, -129705.02, -37087.13, 153473.16, 159664.09, -37209.82, -40407.39, -37264.98, 158264.77, 41438.66, 13245.17, 173353.83, -7413.98, 28662.60, 504.88, 107237.09, -5196.56, 0.000, 0.000, 0.000, 16:38:37.506
13, -129695.19, -37075.29, 153474.22, 159676.09, -37224.82, -40410.48, -37279.22, 158254.91, 41438.66, 13245.17, 173353.83, -7413.98, 28662.60, 504.88, 107237.09, -5196.56, 0.000, 0.000, 0.000, 16:38:37.506
14, -129695.19, -37075.29, 153474.22, 159676.09, -37224.82, -40410.48, -37279.22, 158254.91, 41441.56, 13250.65, 173364.19, -7399.19, 28665.53, 527.79, 107241.81, -5188.33, 0.000, 0.000, 0.000, 16:38:37.507
15, -129710.55, -37089.43, 153481.00, 159691.39, -37245.20, -40389.69, -37275.36, 158255.89, 41441.56, 13250.65, 173364.19, -7399.19, 28665.53, 527.79, 107241.81, -5188.33, 0.000, 0.000, 0.000, 16:38:37.507
16, -129710.55, -37089.43, 153481.00, 159691.39, -37245.20, -40389.69, -37275.36, 158255.89, 41430.88, 13254.83, 173349.17, -7408.64, 28653.35, 525.27, 107246.30, -5184.84, 0.000, 0.000, 0.000, 16:38:37.507
17, -129695.19, -37072.51, 153477.17, 159690.88, -37237.89, -40388.75, -37281.12, 158249.86, 41430.88, 13254.83, 173349.17, -7408.64, 28653.35, 525.27, 107246.30, -5184.84, 0.020, 0.920, -0.182, 16:38:37.507
18, -129695.19, -37072.51, 153477.17, 159690.88, -37237.89, -40388.75, -37281.12, 158249.86, 41433.79, 13251.72, 173353.48, -7400.10, 28652.43, 522.67, 107255.53, -5189.85, 0.000, 0.000, 0.000, 16:38:37.507
19, -129704.42, -37076.87, 153477.17, 159689.69, -37236.84, -40395.55, -37282.82, 158258.14, 41433.79, 13251.72, 173353.48, -7400.10, 28652.43, 522.67, 107255.53, -5189.85, 0.000, 0.000, 0.000, 16:38:37.508
20, -129704.42, -37076.87, 153477.17, 159689.69, -37236.84, -40395.55, -37282.82, 158258.14, 41432.89, 13244.17, 173344.75, -7407.32, 28646.89, 508.21, 107257.32, -5190.97, 0.000, 0.000, 0.000, 16:38:37.508
21, -129724.78, -37092.72, 153475.03, 159692.59, -37243.53, -40392.44, -37290.87, 158263.38, 41432.89, 13244.17, 173344.75, -7407.32, 28646.89, 508.21, 107257.32, -5190.97, 0.000, 0.000, 0.000, 16:38:37.508
22, -129724.78, -37092.72, 153475.03, 159692.59, -37243.53, -40392.44, -37290.87, 158263.38, 41435.64, 13242.20, 173348.64, -7400.19, 28650.26, 519.30, 107242.86, -5199.73, 0.000, 0.000, 0.000, 16:38:37.508
23, -129739.49, -37105.97, 153476.23, 159695.19, -37235.59, -40377.93, -37278.95, 158269.86, 41435.64, 13242.20, 173348.64, -7400.19, 28650.26, 519.30, 107242.86, -5199.73, 0.000, 0.000, 0.000, 16:38:37.508
24, -129739.49, -37105.97, 153476.23, 159695.19, -37235.59, -40377.93, -37278.95, 158269.86, 41431.08, 13253.11, 173327.09, -7414.74, 28634.91, 512.37, 107260.48, -5179.82, 0.000, 0.000, 0.000, 16:38:37.509
25, -129718.88, -37084.36, 153469.95, 159686.78, -37220.68, -40383.54, -37274.80, 158269.97, 41431.08, 13253.11, 173327.09, -7414.74, 28634.91, 512.37, 107260.48, -5179.82, 0.000, 0.000, 0.000, 16:38:37.509
26, -129718.88, -37084.36, 153469.95, 159686.78, -37220.68, -40383.54, -37274.80, 158269.97, 41442.28, 13256.93, 173339.00, -7401.87, 28651.56, 523.99, 107281.91, -5177.00, 0.000, 0.000, 0.000, 16:38:37.509
27, -129733.48, -37092.36, 153473.63, 159685.69, -37226.74, -40388.08, -37268.70, 158271.61, 41442.28, 13256.93, 173339.00, -7401.87, 28651.56, 523.99, 107281.91, -5177.00, 0.018, 0.918, -0.174, 16:38:37.510
28, -129733.48, -37092.36, 153473.63, 159685.69, -37226.74, -40388.08, -37268.70, 158271.61, 41434.66, 13250.00, 173332.70, -7408.19, 28646.26, 505.22, 107278.20, -5197.56, 0.000, 0.000, 0.000, 16:38:37.510
29, -129731.66, -37090.06, 153470.73, 159672.20, -37230.65, -40390.34, -37266.10, 158274.73, 41434.66, 13250.00, 173332.70, -7408.19, 28646.26, 505.22, 107278.20, -5197.56, 0.000, 0.000, 0.000, 16:38:37.510
30, -129731.66, -37090.06, 153470.73, 159672.20, -37230.65, -40390.34, -37266.10, 158274.73, 41426.03, 13248.93, 173311.59, -7424.15, 28628.58, 478.68, 107295.48, -5206.84, 0.000, 0.000, 0.000, 16:38:37.511
31, -129705.56, -37062.05, 153460.14, 159655.94, -37233.87, -40405.27, -37268.80, 158269.41, 41426.03, 13248.93, 173311.59, -7424.15, 28628.58, 478.68, 107295.48, -5206.84, 0.000, 0.000, 0.000, 16:38:37.511
32, -129705.56, -37062.05, 153460.14, 159655.94, -37233.87, -40405.27, -37268.80, 158269.41, 41439.20, 13256.55, 173313.08, -7421.18, 28630.73, 488.90, 107331.95, -5203.91, 0.000, 0.000, 0.000, 16:38:37.511
33, -129709.00, -37066.43, 153464.55, 159665.45, -37242.63, -40405.07, -37281.08, 158267.52, 41439.20, 13256.55, 173313.08, -7421.18, 28630.73, 488.90, 107331.95, -5203.91, 0.000, 0.000, 0.000, 16:38:37.511
34, -129709.00, -37066.43, 153464.55, 159665.45, -37242.63, -40405.07, -37281.08, 158267.52, 41443.84, 13244.35, 173327.69, -7402.38, 28646.02, 505.48, 107316.91, -5200.29, 0.000, 0.000, 0.000, 16:38:37.512
35, -129726.01, -37082.91, 153471.83, 159675.97, -37238.61, -40392.66, -37279.27, 158272.19, 41443.84, 13244.35, 173327.69, -7402.38, 28646.02, 505.48, 107316.91, -5200.29, 0.000, 0.000, 0.000, 16:38:37.512
36, -129726.01, -37082.91, 153471.83, 159675.97, -37238.61, -40392.66, -37279.27, 158272.19, 41434.61, 13244.66, 173322.47, -7394.81, 28637.90, 498.78, 107302.77, -5202.28, 0.000, 0.000, 0.000, 16:38:37.512
37, -129739.51, -37094.68, 153477.69, 159684.92, -37240.91, -40387.68, -37281.73, 158270.08, 41434.61, 13244.66, 173322.47, -7394.81, 28637.90, 498.78, 107302.77, -5202.28, 0.012, 0.930, -0.178, 16:38:37.513
38, -129739.51, -37094.68, 153477.69, 159684.92, -37240.91, -40387.68, -37281.73, 158270.08, 41427.77, 13245.20, 173319.09, -7398.02, 28636.92, 491.36, 107294.18, -5209.39, 0.000, 0.000, 0.000, 16:38:37.513
39, -129751.36, -37104.59, 153477.16, 159685.59, -37255.75, -40390.38, -37283.51, 158268.98, 41427.77, 13245.20, 173319.09, -7398.02, 28636.92, 491.36, 107294.18, -5209.39, 0.000, 0.000, 0.000, 16:38:37.513
40, -129751.36, -37104.59, 153477.16, 159685.59, -37255.75, -40390.38, -37283.51, 158268.98, 41438.34, 13248.08, 173325.03, -7389.13, 28650.44, 511.21, 107287.07, -5204.07, 0.000, 0.000, 0.000, 16:38:37.514
41, -129754.46, -37103.25, 153473.73, 159685.86, -37253.34, -40380.13, -37281.08, 158270.23, 41438.34, 13248.08, 173325.03, -7389.13, 28650.44, 511.21, 107287.07, -5204.07, 0.000, 0.000, 0.000, 16:38:37.514
42, -129754.46, -37103.25, 153473.73, 159685.86, -37253.34, -40380.13, -37281.08, 158270.23, 41428.04, 13251.30, 173307.33, -7405.83, 28633.25, 488.83, 107308.28, -5188.13, 0.000, 0.000, 0.000, 16:38:37.514
43, -129733.09, -37078.75, 153476.69, 159693.03, -37242.74, -40380.21, -37282.71, 158271.27, 41428.04, 13251.30, 173307.33, -7405.83, 28633.25, 488.83, 107308.28, -5188.13, 0.000, 0.000, 0.000, 16:38:37.515
44, -129733.09, -37078.75, 153476.69, 159693.03, -37242.74, -40380.21, -37282.71, 158271.27, 41425.25, 13249.60, 173303.16, -7406.59, 28628.54, 492.79, 107322.43, -5191.75, 0.000, 0.000, 0.000, 16:38:37.515
45, -129730.73, -37073.92, 153478.69, 159695.44, -37253.63, -40383.75, -37286.11, 158271.06, 41425.25, 13249.60, 173303.16, -7406.59, 28628.54, 492.79, 107322.43, -5191.75, 0.000, 0.000, 0.000, 16:38:37.515
46, -129730.73, -37073.92, 153478.69, 159695.44, -37253.63, -40383.75, -37286.11, 158271.06, 41435.39, 13248.66, 173311.73, -7396.37, 28637.12, 500.14, 107316.66, -5183.95, 0.000, 0.000, 0.000, 16:38:37.516
47, -129736.74, -37078.12, 153475.45, 159688.39, -37250.84, -40377.38, -37286.48, 158271.28, 41435.39, 13248.66, 173311.73, -7396.37, 28637.12, 500.14, 107316.66, -5183.95, 0.010, 0.928, -0.180, 16:38:37.516
48, -129736.74, -37078.12, 153475.45, 159688.39, -37250.84, -40377.38, -37286.48, 158271.28, 41436.04, 13250.34, 173303.95, -7399.08, 28635.53, 499.70, 107317.59, -5182.05, 0.000, 0.000, 0.000, 16:38:37.516
49, -129755.88, -37093.23, 153473.11, 159689.55, -37258.34, -40389.31, -37294.93, 158264.50, 41436.04, 13250.34, 173303.95, -7399.08, 28635.53, 499.70, 107317.59, -5182.05, 0.000, 0.000, 0.000, 16:38:37.516
50, -129755.88, -37093.23, 153473.11, 159689.55, -37258.34, -40389.31, -37294.93, 158264.50, 41441.50, 13241.31, 173313.52, -7389.73, 28645.06, 509.69, 107287.74, -5190.43, 0.000, 0.000, 0.000, 16:38:37.517
51, -129775.05, -37108.39, 153467.92, 159680.39, -37248.60, -40385.64, -37282.20, 158271.44, 41441.50, 13241.31, 173313.52, -7389.73, 28645.06, 509.69, 107287.74, -5190.43, 0.000, 0.000, 0.000, 16:38:37.517
52, -129775.05, -37108.39, 153467.92, 159680.39, -37248.60, -40385.64, -37282.20, 158271.44, 41431.80, 13239.12, 173288.69, -7410.18, 28628.61, 485.08, 107291.68, -5196.15, 0.000, 0.000, 0.000, 16:38:37.517
53, -129777.98, -37108.34, 153465.98, 159679.92, -37248.82, -40386.49, -37282.35, 158275.69, 41431.80, 13239.12, 173288.69, -7410.18, 28628.61, 485.08, 107291.68, -5196.15, 0.000, 0.000, 0.000, 16:38:37.518
54, -129777.98, -37108.34, 153465.98, 159679.92, -37248.82, -40386.49, -37282.35, 158275.69, 41438.12, 13236.84, 173292.22, -7401.27, 28635.22, 498.42, 107286.94, -5199.98, 0.000, 0.000, 0.000, 16:38:37.518
55, -129801.00, -37126.02, 153465.94, 159679.31, -37247.37, -40399.08, -37276.11, 158279.94, 41438.12, 13236.84, 173292.22, -7401.27, 28635.22, 498.42, 107286.94, -5199.98, 0.000, 0.000, 0.000, 16:38:37.518
56, -129801.00, -37126.02, 153465.94, 159679.31, -37247.37, -40399.08, -37276.11, 158279.94, 41431.68, 13231.61, 173281.63, -7405.78, 28624.43, 492.01, 107273.48, -5205.83, 0.000, 0.000, 0.000, 16:38:37.518
57, -129798.27, -37119.12, 153460.23, 159670.91, -37240.84, -40405.74, -37270.46, 158280.94, 41431.68, 13231.61, 173281.63, -7405.78, 28624.43, 492.01, 107273.48, -5205.83, 0.014, 0.926, -0.184, 16:38:37.519
58, -129798.27, -37119.12, 153460.23, 159670.91, -37240.84, -40405.74, -37270.46, 158280.94, 41433.56, 13239.83, 173274.70, -7407.70, 28618.68, 488.18, 107295.01, -5198.64, 0.000, 0.000, 0.000, 16:38:37.519
59, -129793.40, -37112.68, 153460.88, 159673.30, -37239.55, -40404.18, -37275.69, 158269.88, 41433.56, 13239.83, 173274.70, -7407.70, 28618.68, 488.18, 107295.01, -5198.64, 0.000, 0.000, 0.000, 16:38:37.519
60, -129793.40, -37112.68, 153460.88, 159673.30, -37239.55, -40404.18, -37275.69, 158269.88, 41431.48, 13238.04, 173272.50, -7413.49, 28618.72, 495.20, 107293.33, -5211.78, 0.000, 0.000, 0.000, 16:38:37.519
61, -129794.66, -37110.24, 153466.67, 159679.06, -37242.70, -40401.20, -37285.01, 158265.03, 41431.48, 13238.04, 173272.50, -7413.49, 28618.72, 495.20, 107293.33, -5211.78, 0.000, 0.000, 0.000, 16:38:37.519
62, -129794.66, -37110.24, 153466.67, 159679.06, -37242.70, -40401.20, -37285.01, 158265.03, 41428.29, 13234.76, 173271.39, -7412.75, 28615.19, 490.17, 107284.32, -5229.95, 0.000, 0.000, 0.000, 16:38:37.520
63, -129804.80, -37115.88, 153465.89, 159675.98, -37248.67, -40406.16, -37298.04, 158261.83, 41428.29, 13234.76, 173271.39, -7412.75, 28615.19, 490.17, 107284.32, -5229.95, 0.000, 0.000, 0.000, 16:38:37.520
64, -129804.80, -37115.88, 153465.89, 159675.98, -37248.67, -40406.16, -37298.04, 158261.83, 41428.09, 13232.81, 173263.52, -7412.58, 28608.58, 493.97, 107279.67, -5237.28, 0.000, 0.000, 0.000, 16:38:37.520
65, -129818.34, -37122.47, 153465.47, 159684.45, -37253.11, -40403.13, -37304.32, 158258.19, 41428.09, 13232.81, 173263.52, -7412.58, 28608.58, 493.97, 107279.67, -5237.28, 0.000, 0.000, 0.000, 16:38:37.520
66, -129818.34, -37122.47, 153465.47, 159684.45, -37253.11, -40403.13, -37304.32, 158258.19, 41427.68, 13235.96, 173263.41, -7405.29, 28604.02, 504.57, 107276.66, -5227.85, 0.000, 0.000, 0.000, 16:38:37.521
67, -129818.10, -37116.79, 153466.45, 159695.61, -37254.86, -40397.40, -37300.99, 158264.22, 41427.68, 13235.96, 173263.41, -7405.29, 28604.02, 504.57, 107276.66, -5227.85, 0.018, 0.932, -0.190, 16:38:37.521
68, -129818.10, -37116.79, 153466.45, 159695.61, -37254.86, -40397.40, -37300.99, 158264.22, 41427.48, 13244.91, 173265.78, -7397.51, 28607.68, 512.12, 107284.32, -5209.05, 0.000, 0.000, 0.000, 16:38:37.522
69, -129820.29, -37115.72, 153473.02, 159706.09, -37249.67, -40387.79, -37293.93, 158264.83, 41427.48, 13244.91, 173265.78, -7397.51, 28607.68, 512.12, 107284.32, -5209.05, 0.000, 0.000, 0.000, 16:38:37.522
70, -129820.29, -37115.72, 153473.02, 159706.09, -37249.67, -40387.79, -37293.93, 158264.83, 41423.14, 13250.92, 173258.33, -7402.63, 28606.05, 515.45, 107288.91, -5211.31, 0.000, 0.000, 0.000, 16:38:37.522
71, -129818.08, -37108.10, 153472.73, 159707.66, -37262.10, -40387.07, -37292.43, 158265.30, 41423.14, 13250.92, 173258.33, -7402.63, 28606.05, 515.45, 107288.91, -5211.31, 0.000, 0.000, 0.000, 16:38:37.522
72, -129818.08, -37108.10, 153472.73, 159707.66, -37262.10, -40387.07, -37292.43, 158265.30, 41429.09, 13250.67, 173262.45, -7399.54, 28612.94, 525.44, 107291.34, -5205.30, 0.000, 0.000, 0.000, 16:38:37.522
73, -129833.10, -37116.66, 153470.78, 159701.17, -37245.29, -40390.38, -37291.67, 158273.92, 41429.09, 13250.67, 173262.45, -7399.54, 28612.94, 525.44, 107291.34, -5205.30, 0.000, 0.000, 0.000, 16:38:37.522
74, -129833.10, -37116.66, 153470.78, 159701.17, -37245.29, -40390.38, -37291.67, 158273.92, 41432.29, 13251.14, 173255.61, -7404.44, 28613.16, 524.51, 107289.84, -5207.75, 0.000, 0.000, 0.000, 16:38:37.523
75, -129847.59, -37126.38, 153467.45, 159700.28, -37241.09, -40385.24, -37288.30, 158278.91, 41432.29, 13251.14, 173255.61, -7404.44, 28613.16, 524.51, 107289.84, -5207.75, 0.000, 0.000, 0.000, 16:38:37.523
76, -129847.59, -37126.38, 153467.45, 159700.28, -37241.09, -40385.24, -37288.30, 158278.91, 41430.10, 13251.81, 173245.08, -7408.73, 28608.31, 513.06, 107288.28, -5205.59, 0.000, 0.000, 0.000, 16:38:37.523
77, -129833.59, -37112.14, 153459.97, 159691.50, -37243.21, -40381.53, -37274.55, 158280.55, 41430.10, 13251.81, 173245.08, -7408.73, 28608.31, 513.06, 107288.28, -5205.59, 0.020, 0.928, -0.182, 16:38:37.523
78, -129833.59, -37112.14, 153459.97, 159691.50, -37243.21, -40381.53, -37274.55, 158280.55, 41432.93, 13260.78, 173237.14, -7416.00, 28606.19, 513.82, 107301.84, -5209.07, 0.000, 0.000, 0.000, 16:38:37.523
79, -129824.02, -37096.54, 153455.31, 159684.14, -37244.66, -40395.43, -37279.67, 158283.14, 41432.93, 13260.78, 173237.14, -7416.00, 28606.19, 513.82, 107301.84, -5209.07, 0.000, 0.000, 0.000, 16:38:37.523
80, -129824.02, -37096.54, 153455.31, 159684.14, -37244.66, -40395.43, -37279.67, 158283.14, 41435.82, 13264.64, 173238.31, -7411.37, 28603.17, 511.81, 107309.56, -5209.45, 0.000, 0.000, 0.000, 16:38:37.524
81, -129834.51, -37107.65, 153458.63, 159691.73, -37239.35, -40397.96, -37277.99, 158288.25, 41435.82, 13264.64, 173238.31, -7411.37, 28603.17, 511.81, 107309.56, -5209.45, 0.000, 0.000, 0.000, 16:38:37.524
82, -129834.51, -37107.65, 153458.63, 159691.73, -37239.35, -40397.96, -37277.99, 158288.25, 41442.95, 13251.52, 173249.92, -7393.93, 28615.60, 525.49, 107284.55, -5204.89, 0.000, 0.000, 0.000, 16:38:37.524
83, -129873.29, -37144.89, 153460.97, 159692.53, -37249.70, -40397.29, -37271.22, 158292.86, 41442.95, 13251.52, 173249.92, -7393.93, 28615.60, 525.49, 107284.55, -5204.89, 0.000, 0.000, 0.000, 16:38:37.524
84, -129873.29, -37144.89, 153460.97, 159692.53, -37249.70, -40397.29, -37271.22, 158292.86, 41428.15, 13257.58, 173228.70, -7412.82, 28600.11, 503.70, 107282.80, -5200.45, 0.000, 0.000, 0.000, 16:38:37.524
85, -129870.00, -37138.23, 153466.47, 159693.63, -37259.55, -40392.35, -37283.98, 158286.56, 41428.15, 13257.58, 173228.70, -7412.82, 28600.11, 503.70, 107282.80, -5200.45, 0.000, 0.000, 0.000, 16:38:37.524
86, -129870.00, -37138.23, 153466.47, 159693.63, -37259.55, -40392.35, -37283.98, 158286.56, 41434.07, 13254.56, 173244.88, -7402.63, 28614.90, 525.80, 107276.08, -5212.11, 0.000, 0.000, 0.000, 16:38:37.525
87, -129891.39, -37152.60, 153478.20, 159699.81, -37256.60, -40387.61, -37281.37, 158286.53, 41434.07, 13254.56, 173244.88, -7402.63, 28614.90, 525.80, 107276.08, -5212.11, 0.018, 0.930, -0.186, 16:38:37.525
88, -129891.39, -37152.60, 153478.20, 159699.81, -37256.60, -40387.61, -37281.37, 158286.53, 41426.32, 13251.68, 173236.30, -7405.65, 28610.52, 523.59, 107277.98, -5208.58, 0.000, 0.000, 0.000, 16:38:37.525
89, -129897.83, -37151.70, 153480.53, 159702.73, -37247.08, -40393.09, -37286.44, 158286.20, 41426.32, 13251.68, 173236.30, -7405.65, 28610.52, 523.59, 107277.98, -5208.58, 0.000, 0.000, 0.000, 16:38:37.525
90, -129897.83, -37151.70, 153480.53, 159702.73, -37247.08, -40393.09, -37286.44, 158286.20, 41426.81, 13259.95, 173241.28, -7394.11, 28615.62, 537.13, 107280.37, -5206.68, 0.000, 0.000, 0.000, 16:38:37.525
91, -129904.22, -37153.18, 153478.00, 159703.00, -37233.27, -40390.32, -37289.84, 158275.22, 41426.81, 13259.95, 173241.28, -7394.11, 28615.62, 537.13, 107280.37, -5206.68, 0.000, 0.000, 0.000, 16:38:37.525
92, -129904.22, -37153.18, 153478.00, 159703.00, -37233.27, -40390.32, -37289.84, 158275.22, 41424.49, 13270.21, 173231.89, -7396.19, 28606.43, 531.14, 107294.13, -5201.90, 0.000, 0.000, 0.000, 16:38:37.526
93, -129890.01, -37134.25, 153470.72, 159697.42, -37237.13, -40397.87, -37285.17, 158264.41, 41424.49, 13270.21, 173231.89, -7396.19, 28606.43, 531.14, 107294.13, -5201.90, 0.000, 0.000, 0.000, 16:38:37.526
94, -129890.01, -37134.25, 153470.72, 159697.42, -37237.13, -40397.87, -37285.17, 158264.41, 41424.64, 13276.78, 173231.05, -7392.68, 28604.17, 538.19, 107310.12, -5206.37, 0.000, 0.000, 0.000, 16:38:37.526
95, -129883.70, -37121.91, 153473.95, 159697.44, -37225.11, -40394.54, -37285.52, 158255.39, 41424.64, 13276.78, 173231.05, -7392.68, 28604.17, 538.19, 107310.12, -5206.37, 0.000, 0.000, 0.000, 16:38:37.526
96, -129883.70, -37121.91, 153473.95, 159697.44, -37225.11, -40394.54, -37285.52, 158255.39, 41426.54, 13275.88, 173228.11, -7393.87, 28607.13, 535.88, 107312.87, -5208.05, 0.000, 0.000, 0.000, 16:38:37.526
97, -129898.50, -37129.78, 153472.61, 159690.48, -37225.40, -40401.54, -37288.39, 158247.84, 41426.54, 13275.88, 173228.11, -7393.87, 28607.13, 535.88, 107312.87, -5208.05, 0.022, 0.926, -0.180, 16:38:37.526
98, -129898.50, -37129.78, 153472.61, 159690.48, -37225.40, -40401.54, -37288.39, 158247.84, 41420.53, 13255.88, 173223.84, -7395.61, 28607.44, 547.73, 107300.35, -5222.06, 0.000, 0.000, 0.000, 16:38:37.527
99, -129905.59, -37133.67, 153478.83, 159693.94, -37208.70, -40401.65, -37275.60, 158248.38, 41420.53, 13255.88, 173223.84, -7395.61, 28607.44, 547.73, 107300.35, -5222.06, 0.000, 0.000, 0.000, 16:38:37.527
100, -129905.59, -37133.67, 153478.83, 159693.94, -37208.70, -40401.65, -37275.60, 158248.38, 41416.98, 13257.96, 173209.73, -7399.70, 28607.95, 544.04, 107309.52, -5215.24, 0.000, 0.000, 0.000, 16:38:37.527
101, -129898.43, -37124.23, 153470.33, 159686.98, -37208.43, -40390.34, -37273.48, 158242.48, 41416.98, 13257.96, 173209.73, -7399.70, 28607.95, 544.04, 107309.52, -5215.24, 0.000, 0.000, 0.000, 16:38:37.527
102, -129898.43, -37124.23, 153470.33, 159686.98, -37208.43, -40390.34, -37273.48, 158242.48, 41426.72, 13260.60, 173207.28, -7389.91, 28618.97, 550.75, 107310.66, -5213.70, 0.000, 0.000, 0.000, 16:38:37.528
103, -129897.13, -37119.94, 153463.77, 159680.97, -37201.55, -40390.59, -37265.59, 158242.30, 41426.72, 13260.60, 173207.28, -7389.91, 28618.97, 550.75, 107310.66, -5213.70, 0.000, 0.000, 0.000, 16:38:37.528
104, -129897.13, -37119.94, 153463.77, 159680.97, -37201.55, -40390.59, -37265.59, 158242.30, 41427.35, 13265.71, 173196.27, -7393.82, 28609.83, 552.47, 107318.52, -5206.03, 0.000, 0.000, 0.000, 16:38:37.528
105, -129877.20, -37099.00, 153461.84, 159675.56, -37218.69, -40390.11, -37266.41, 158247.13, 41427.35, 13265.71, 173196.27, -7393.82, 28609.83, 552.47, 107318.52, -5206.03, 0.000, 0.000, 0.000, 16:38:37.528
106, -129877.20, -37099.00, 153461.84, 159675.56, -37218.69, -40390.11, -37266.41, 158247.13, 41427.23, 13276.53, 173181.78, -7400.35, 28609.40, 547.06, 107340.27, -5199.91, 0.024, 0.930, -0.180, 16:38:37.528
107, -129861.10, -37084.89, 153464.34, 159670.23, -37225.93, -40387.86, -37269.57, 158244.72, 41427.23, 13276.53, 173181.78, -7400.35, 28609.40, 547.06, 107340.27, -5199.91, 0.000, 0.000, 0.000, 16:38:37.528
108, -129861.10, -37084.89, 153464.34, 159670.23, -37225.93, -40387.86, -37269.57, 158244.72, 41434.16, 13272.78, 173188.78, -7385.64, 28624.85, 556.92, 107333.45, -5204.27, 0.000, 0.000, 0.000, 16:38:37.529
109, -129864.93, -37083.60, 153461.19, 159665.02, -37228.62, -40379.23, -37267.69, 158242.44, 41434.16, 13272.78, 173188.78, -7385.64, 28624.85, 556.92, 107333.45, -5204.27, 0.000, 0.000, 0.000, 16:38:37.529
110, -129864.93, -37083.60, 153461.19, 159665.02, -37228.62, -40379.23, -37267.69, 158242.44, 41431.59, 13276.22, 173176.17, -7392.41, 28616.71, 554.10, 107334.08, -5210.01, 0.000, 0.000, 0.000, 16:38:37.529
111, -129854.02, -37067.59, 153460.39, 159664.66, -37226.63, -40400.48, -37277.30, 158245.27, 41431.59, 13276.22, 173176.17, -7392.41, 28616.71, 554.10, 107334.08, -5210.01, 0.000, 0.000, 0.000, 16:38:37.529
112, -129854.02, -37067.59, 153460.39, 159664.66, -37226.63, -40400.48, -37277.30, 158245.27, 41433.36, 13277.27, 173176.81, -7390.25, 28620.80, 570.98, 107344.38, -5207.64, 0.000, 0.000, 0.000, 16:38:37.530
113, -129842.06, -37054.07, 153466.58, 159673.39, -37219.77, -40392.15, -37273.32, 158253.98, 41433.36, 13277.27, 173176.81, -7390.25, 28620.80, 570.98, 107344.38, -5207.64, 0.000, 0.000, 0.000, 16:38:37.530
114, -129842.06, -37054.07, 153466.58, 159673.39, -37219.77, -40392.15, -37273.32, 158253.98, 41432.45, 13280.51, 173177.64, -7387.18, 28625.07, 566.57, 107347.89, -5204.29, 0.000, 0.000, 0.000, 16:38:37.530
115, -129835.20, -37046.47, 153469.58, 159679.58, -37223.81, -40387.90, -37280.43, 158248.72, 41432.45, 13280.51, 173177.64, -7387.18, 28625.07, 566.57, 107347.89, -5204.29, 0.000, 0.000, 0.000, 16:38:37.530
116, -129835.20, -37046.47, 153469.58, 159679.58, -37223.81, -40387.90, -37280.43, 158248.72, 41435.71, 13282.19, 173185.16, -7378.38, 28635.69, 567.56, 107336.83, -5206.53, 0.020, 0.928, -0.184, 16:38:37.530
117, -129840.34, -37051.28, 153473.95, 159688.97, -37218.83, -40378.76, -37277.99, 158244.56, 41435.71, 13282.19, 173185.16, -7378.38, 28635.69, 567.56, 107336.83, -5206.53, 0.000, 0.000, 0.000, 16:38:37.530
118, -129840.34, -37051.28, 153473.95, 159688.97, -37218.83, -40378.76, -37277.99, 158244.56, 41428.75, 13276.09, 173180.73, -7383.32, 28623.98, 565.36, 107332.23, -5202.12, 0.000, 0.000, 0.000, 16:38:37.531
119, -129838.13, -37046.27, 153474.97, 159694.72, -37225.60, -40373.55, -37280.90, 158239.81, 41428.75, 13276.09, 173180.73, -7383.32, 28623.98, 565.36, 107332.23, -5202.12, 0.000, 0.000, 0.000, 16:38:37.531
120, -129838.13, -37046.27, 153474.97, 159694.72, -37225.60, -40373.55, -37280.90, 158239.81, 41434.63, 13282.95, 173188.69, -7371.20, 28627.91, 577.03, 107328.85, -5198.35, 0.000, 0.000, 0.000, 16:38:37.531
121, -129853.46, -37057.61, 153480.80, 159703.59, -37235.10, -40361.08, -37272.79, 158246.23, 41434.63, 13282.95, 173188.69, -7371.20, 28627.91, 577.03, 107328.85, -5198.35, 0.000, 0.000, 0.000, 16:38:37.984
122, -129853.46, -37057.61, 153480.80, 159703.59, -37235.10, -40361.08, -37272.79, 158246.23, 41426.61, 13280.02, 173178.58, -7377.95, 28625.19, 571.58, 107316.55, -5206.08, 0.000, 0.000, 0.000, 16:38:37.984
123, -129849.17, -37051.37, 153473.98, 159697.31, -37230.36, -40373.44, -37273.41, 158241.98, 41426.61, 13280.02, 173178.58, -7377.95, 28625.19, 571.58, 107316.55, -5206.08, 0.000, 0.000, 0.000, 16:38:37.985
124, -129849.17, -37051.37, 153473.98, 159697.31, -37230.36, -40373.44, -37273.41, 158241.98, 41428.29, 13279.95, 173172.30, -7386.25, 28626.77, 578.82, 107319.80, -5212.83, 0.000, 0.000, 0.000, 16:38:37.985
125, -129854.80, -37050.63, 153471.91, 159696.17, -37232.89, -40384.77, -37269.52, 158239.48, 41428.29, 13279.95, 173172.30, -7386.25, 28626.77, 578.82, 107319.80, -5212.83, 0.000, 0.000, 0.000, 16:38:37.986
126, -129854.80, -37050.63, 153471.91, 159696.17, -37232.89, -40384.77, -37269.52, 158239.48, 41432.02, 13279.95, 173170.16, -7389.02, 28628.49, 576.47, 107320.22, -5210.50, 0.014, 0.930, -0.178, 16:38:37.986
127, -129863.98, -37050.65, 153472.06, 159695.56, -37227.88, -40374.89, -37265.50, 158244.56, 41432.02, 13279.95, 173170.16, -7389.02, 28628.49, 576.47, 107320.22, -5210.50, 0.000, 0.000, 0.000, 16:38:37.986
128, -129863.98, -37050.65, 153472.06, 159695.56, -37227.88, -40374.89, -37265.50, 158244.56, 41435.44, 13275.77, 173175.39, -7377.80, 28634.91, 580.21, 107314.61, -5201.07, 0.000, 0.000, 0.000, 16:38:37.987
129, -129872.59, -37053.65, 153474.50, 159697.05, -37223.03, -40376.97, -37251.66, 158254.92, 41435.44, 13275.77, 173175.39, -7377.80, 28634.91, 580.21, 107314.61, -5201.07, 0.000, 0.000, 0.000, 16:38:37.987
130, -129872.59, -37053.65, 153474.50, 159697.05, -37223.03, -40376.97, -37251.66, 158254.92, 41431.64, 13271.37, 173169.84, -7380.46, 28632.49, 577.50, 107311.26, -5207.98, 0.000, 0.000, 0.000, 16:38:37.987
131, -129880.10, -37056.84, 153477.08, 159696.86, -37222.58, -40370.36, -37251.21, 158257.52, 41431.64, 13271.37, 173169.84, -7380.46, 28632.49, 577.50, 107311.26, -5207.98, 0.000, 0.000, 0.000, 16:38:37.988
132, -129880.10, -37056.84, 153477.08, 159696.86, -37222.58, -40370.36, -37251.21, 158257.52, 41426.10, 13271.62, 173164.66, -7384.14, 28627.58, 568.34, 107305.34, -5222.40, 0.000, 0.000, 0.000, 16:38:37.988
133, -129882.32, -37055.93, 153479.39, 159696.84, -37221.66, -40371.81, -37256.24, 158255.91, 41426.10, 13271.62, 173164.66, -7384.14, 28627.58, 568.34, 107305.34, -5222.40, 0.000, 0.000, 0.000, 16:38:37.989
134, -129882.32, -37055.93, 153479.39, 159696.84, -37221.66, -40371.81, -37256.24, 158255.91, 41422.09, 13266.50, 173160.66, -7391.14, 28629.70, 574.55, 107299.32, -5231.90, 0.000, 0.000, 0.000, 16:38:37.989
135, -129887.48, -37058.14, 153482.00, 159697.70, -37215.50, -40377.91, -37264.07, 158251.94, 41422.09, 13266.50, 173160.66, -7391.14, 28629.70, 574.55, 107299.32, -5231.90, 0.000, 0.000, 0.000, 16:38:37.989
136, -129887.48, -37058.14, 153482.00, 159697.70, -37215.50, -40377.91, -37264.07, 158251.94, 41423.70, 13267.06, 173161.23, -7384.21, 28630.06, 574.48, 107297.31, -5230.51, 0.014, 0.930, -0.180, 16:38:37.990
137, -129888.95, -37055.73, 153487.38, 159699.77, -37220.35, -40377.75, -37266.05, 158255.06, 41423.70, 13267.06, 173161.23, -7384.21, 28630.06, 574.48, 107297.31, -5230.51, 0.000, 0.000, 0.000, 16:38:37.990
138, -129888.95, -37055.73, 153487.38, 159699.77, -37220.35, -40377.75, -37266.05, 158255.06, 41416.51, 13269.34, 173149.66, -7388.97, 28617.29, 560.98, 107303.16, -5226.28, 0.000, 0.000, 0.000, 16:38:37.991
139, -129855.79, -37021.26, 153476.81, 159698.72, -37207.74, -40376.14, -37269.16, 158254.91, 41416.51, 13269.34, 173149.66, -7388.97, 28617.29, 560.98, 107303.16, -5226.28, 0.000, 0.000, 0.000, 16:38:37.991
140, -129855.79, -37021.26, 153476.81, 159698.72, -37207.74, -40376.14, -37269.16, 158254.91, 41422.16, 13278.25, 173150.48, -7385.91, 28618.21, 571.53, 107319.86, -5226.93, 0.000, 0.000, 0.000, 16:38:37.991
141, -129875.12, -37037.29, 153481.98, 159714.63, -37234.70, -40362.69, -37277.75, 158259.70, 41422.16, 13278.25, 173150.48, -7385.91, 28618.21, 571.53, 107319.86, -5226.93, 0.000, 0.000, 0.000, 16:38:37.991
142, -129875.12, -37037.29, 153481.98, 159714.63, -37234.70, -40362.69, -37277.75, 158259.70, 41420.46, 13264.37, 173156.30, -7382.71, 28626.59, 581.10, 107291.97, -5218.24, 0.000, 0.000, 0.000, 16:38:37.992
143, -129886.14, -37046.52, 153479.44, 159712.38, -37233.64, -40356.45, -37265.34, 158258.75, 41420.46, 13264.37, 173156.30, -7382.71, 28626.59, 581.10, 107291.97, -5218.24, 0.000, 0.000, 0.000, 16:38:37.992
144, -129886.14, -37046.52, 153479.44, 159712.38, -37233.64, -40356.45, -37265.34, 158258.75, 41414.45, 13277.74, 173134.73, -7396.71, 28621.36, 569.25, 107310.30, -5212.90, 0.000, 0.000, 0.000, 16:38:37.992
145, -129862.91, -37023.45, 153476.77, 159703.31, -37237.58, -40356.01, -37265.05, 158256.83, 41414.45, 13277.74, 173134.73, -7396.71, 28621.36, 569.25, 107310.30, -5212.90, 0.000, 0.000, 0.000, 16:38:37.992
146, -129862.91, -37023.45, 153476.77, 159703.31, -37237.58, -40356.01, -37265.05, 158256.83, 41424.57, 13277.11, 173139.47, -7390.22, 28636.58, 577.35, 107321.45, -5218.35, 0.020, 0.930, -0.176, 16:38:37.993
147, -129861.02, -37021.48, 153479.00, 159702.78, -37238.99, -40367.25, -37268.09, 158256.20, 41424.57, 13277.11, 173139.47, -7390.22, 28636.58, 577.35, 107321.45, -5218.35, 0.000, 0.000, 0.000, 16:38:37.993
148, -129861.02, -37021.48, 153479.00, 159702.78, -37238.99, -40367.25, -37268.09, 158256.20, 41423.39, 13271.79, 173136.00, -7390.13, 28637.79, 575.98, 107321.05, -5221.14, 0.000, 0.000, 0.000, 16:38:37.993
149, -129864.03, -37025.62, 153480.50, 159709.36, -37229.71, -40364.97, -37268.94, 158252.73, 41423.39, 13271.79, 173136.00, -7390.13, 28637.79, 575.98, 107321.05, -5221.14, 0.000, 0.000, 0.000, 16:38:37.993
150, -129864.03, -37025.62, 153480.50, 159709.36, -37229.71, -40364.97, -37268.94, 158252.73, 41412.33, 13269.34, 173117.92, -7406.90, 28621.03, 564.47, 107324.40, -5221.28, 0.000, 0.000, 0.000, 16:38:37.993
151, -129829.95, -36993.57, 153469.38, 159699.61, -37213.82, -40371.05, -37257.09, 158260.81, 41412.33, 13269.34, 173117.92, -7406.90, 28621.03, 564.47, 107324.40, -5221.28, 0.000, 0.000, 0.000, 16:38:37.994
152, -129829.95, -36993.57, 153469.38, 159699.61, -37213.82, -40371.05, -37257.09, 158260.81, 41419.52, 13279.62, 173117.50, -7408.51, 28613.70, 572.67, 107354.64, -5221.75, 0.000, 0.000, 0.000, 16:38:37.994
153, -129831.69, -36999.40, 153469.42, 159702.11, -37228.62, -40368.50, -37262.50, 158266.14, 41419.52, 13279.62, 173117.50, -7408.51, 28613.70, 572.67, 107354.64, -5221.75, 0.000, 0.000, 0.000, 16:38:37.994
154, -129831.69, -36999.40, 153469.42, 159702.11, -37228.62, -40368.50, -37262.50, 158266.14, 41421.40, 13276.20, 173117.77, -7399.92, 28616.63, 571.40, 107341.90, -5235.38, 0.000, 0.000, 0.000, 16:38:37.994
155, -129835.94, -37004.56, 153467.11, 159702.50, -37229.04, -40361.97, -37268.18, 158273.23, 41421.40, 13276.20, 173117.77, -7399.92, 28616.63, 571.40, 107341.90, -5235.38, 0.000, 0.000, 0.000, 16:38:37.995
156, -129835.94, -37004.56, 153467.11, 159702.50, -37229.04, -40361.97, -37268.18, 158273.23, 41419.26, 13271.66, 173117.83, -7397.24, 28617.56, 571.27, 107326.59, -5244.59, 0.014, 0.924, -0.180, 16:38:37.995
157, -129831.82, -36999.22, 153468.91, 159701.33, -37230.05, -40372.05, -37263.96, 158276.23, 41419.26, 13271.66, 173117.83, -7397.24, 28617.56, 571.27, 107326.59, -5244.59, 0.000, 0.000, 0.000, 16:38:37.995
158, -129831.82, -36999.22, 153468.91, 159701.33, -37230.05, -40372.05, -37263.96, 158276.23, 41415.46, 13268.71, 173112.38, -7400.57, 28610.72, 563.06, 107330.37, -5241.17, 0.000, 0.000, 0.000, 16:38:37.995
159, -129840.70, -37007.31, 153483.61, 159712.91, -37239.61, -40366.71, -37272.05, 158277.30, 41415.46, 13268.71, 173112.38, -7400.57, 28610.72, 563.06, 107330.37, -5241.17, 0.000, 0.000, 0.000, 16:38:37.996
160, -129840.70, -37007.31, 153483.61, 159712.91, -37239.61, -40366.71, -37272.05, 158277.30, 41408.46, 13266.97, 173109.42, -7401.51, 28611.30, 563.42, 107322.70, -5233.59, 0.000, 0.000, 0.000, 16:38:37.996
161, -129833.66, -36996.34, 153483.44, 159715.70, -37230.32, -40365.10, -37275.49, 158271.36, 41408.46, 13266.97, 173109.42, -7401.51, 28611.30, 563.42, 107322.70, -5233.59, 0.000, 0.000, 0.000, 16:38:37.996
162, -129833.66, -36996.34, 153483.44, 159715.70, -37230.32, -40365.10, -37275.49, 158271.36, 41414.07, 13270.88, 173117.34, -7390.27, 28612.69, 562.93, 107329.05, -5231.20, 0.000, 0.000, 0.000, 16:38:37.997
163, -129833.92, -36993.68, 153489.63, 159722.28, -37227.28, -40357.46, -37280.20, 158267.41, 41414.07, 13270.88, 173117.34, -7390.27, 28612.69, 562.93, 107329.05, -5231.20, 0.000, 0.000, 0.000, 16:38:37.997
164, -129833.92, -36993.68, 153489.63, 159722.28, -37227.28, -40357.46, -37280.20, 158267.41, 41404.28, 13267.57, 173114.55, -7392.93, 28604.78, 554.32, 107332.83, -5238.47, 0.000, 0.000, 0.000, 16:38:37.997
165, -129819.28, -36980.42, 153489.47, 159723.48, -37225.27, -40357.59, -37277.34, 158271.22, 41404.28, 13267.57, 173114.55, -7392.93, 28604.78, 554.32, 107332.83, -5238.47, 0.000, 0.000, 0.000, 16:38:37.998
166, -129819.28, -36980.42, 153489.47, 159723.48, -37225.27, -40357.59, -37277.34, 158271.22, 41398.45, 13261.60, 173109.83, -7395.92, 28597.51, 547.44, 107340.38, -5248.75, 0.014, 0.928, -0.180, 16:38:37.998
167, -129824.78, -36982.66, 153485.02, 159729.98, -37236.69, -40370.87, -37278.39, 158271.53, 41398.45, 13261.60, 173109.83, -7395.92, 28597.51, 547.44, 107340.38, -5248.75, 0.000, 0.000, 0.000, 16:38:37.999
168, -129824.78, -36982.66, 153485.02, 159729.98, -37236.69, -40370.87, -37278.39, 158271.53, 41397.24, 13263.06, 173104.16, -7394.23, 28589.60, 559.40, 107342.02, -5250.18, 0.000, 0.000, 0.000, 16:38:37.999
169, -129799.57, -36955.79, 153473.00, 159719.69, -37231.86, -40370.76, -37274.13, 158266.13, 41397.24, 13263.06, 173104.16, -7394.23, 28589.60, 559.40, 107342.02, -5250.18, 0.000, 0.000, 0.000, 16:38:38.000
170, -129799.57, -36955.79, 153473.00, 159719.69, -37231.86, -40370.76, -37274.13, 158266.13, 41409.76, 13275.93, 173105.25, -7390.65, 28593.45, 563.38, 107380.55, -5242.27, 0.000, 0.000, 0.000, 16:38:38.000
171, -129815.89, -36970.14, 153482.00, 159733.27, -37243.84, -40359.45, -37282.06, 158259.47, 41409.76, 13275.93, 173105.25, -7390.65, 28593.45, 563.38, 107380.55, -5242.27, 0.000, 0.000, 0.000, 16:38:38.000
172, -129815.89, -36970.14, 153482.00, 159733.27, -37243.84, -40359.45, -37282.06, 158259.47, 41412.77, 13265.09, 173114.23, -7377.62, 28605.65, 571.62, 107355.89, -5246.22, 0.000, 0.000, 0.000, 16:38:38.000
173, -129832.88, -36980.85, 153480.17, 159727.44, -37227.68, -40351.71, -37265.74, 158264.63, 41412.77, 13265.09, 173114.23, -7377.62, 28605.65, 571.62, 107355.89, -5246.22, 0.000, 0.000, 0.000, 16:38:38.001
174, -129832.88, -36980.85, 153480.17, 159727.44, -37227.68, -40351.71, -37265.74, 158264.63, 41403.30, 13264.04, 173093.64, -7398.09, 28592.04, 555.66, 107356.16, -5248.19, 0.000, 0.000, 0.000, 16:38:38.001
175, -129825.34, -36971.75, 153469.00, 159713.45, -37215.47, -40357.50, -37264.13, 158264.73, 41403.30, 13264.04, 173093.64, -7398.09, 28592.04, 555.66, 107356.16, -5248.19, 0.000, 0.000, 0.000, 16:38:38.001
176, -129825.34, -36971.75, 153469.00, 159713.45, -37215.47, -40357.50, -37264.13, 158264.73, 41401.60, 13259.99, 173077.64, -7415.75, 28579.63, 545.09, 107366.66, -5249.02, 0.014, 0.928, -0.188, 16:38:38.002
177, -129826.55, -36972.09, 153467.34, 159718.09, -37227.25, -40376.79, -37272.38, 158269.61, 41401.60, 13259.99, 173077.64, -7415.75, 28579.63, 545.09, 107366.66, -5249.02, 0.000, 0.000, 0.000, 16:38:38.002
178, -129826.55, -36972.09, 153467.34, 159718.09, -37227.25, -40376.79, -37272.38, 158269.61, 41399.39, 13258.36, 173076.66, -7413.51, 28582.54, 556.98, 107359.90, -5253.24, 0.000, 0.000, 0.000, 16:38:38.002
179, -129812.67, -36955.23, 153466.80, 159715.14, -37234.96, -40375.79, -37269.90, 158271.94, 41399.39, 13258.36, 173076.66, -7413.51, 28582.54, 556.98, 107359.90, -5253.24, 0.000, 0.000, 0.000, 16:38:38.002
180, -129812.67, -36955.23, 153466.80, 159715.14, -37234.96, -40375.79, -37269.90, 158271.94, 41403.50, 13259.99, 173076.25, -7410.88, 28587.99, 543.21, 107372.97, -5256.86, 0.000, 0.000, 0.000, 16:38:38.002
181, -129806.86, -36946.94, 153470.02, 159719.59, -37243.19, -40370.82, -37276.27, 158271.80, 41403.50, 13259.99, 173076.25, -7410.88, 28587.99, 543.21, 107372.97, -5256.86, 0.000, 0.000, 0.000, 16:38:38.003
182, -129806.86, -36946.94, 153470.02, 159719.59, -37243.19, -40370.82, -37276.27, 158271.80, 41398.29, 13252.28, 173076.64, -7408.53, 28578.60, 545.65, 107373.44, -5266.09, 0.000, 0.000, 0.000, 16:38:38.003
183, -129810.50, -36951.86, 153468.69, 159725.50, -37260.74, -40363.65, -37280.61, 158268.70, 41398.29, 13252.28, 173076.64, -7408.53, 28578.60, 545.65, 107373.44, -5266.09, 0.000, 0.000, 0.000, 16:38:38.003
184, -129810.50, -36951.86, 153468.69, 159725.50, -37260.74, -40363.65, -37280.61, 158268.70, 41398.20, 13246.78, 173078.05, -7403.05, 28579.74, 552.62, 107358.91, -5262.43, 0.000, 0.000, 0.000, 16:38:38.003
185, -129824.02, -36961.36, 153474.02, 159734.13, -37263.40, -40344.72, -37274.06, 158273.48, 41398.20, 13246.78, 173078.05, -7403.05, 28579.74, 552.62, 107358.91, -5262.43, 0.000, 0.000, 0.000, 16:38:38.003
186, -129824.02, -36961.36, 153474.02, 159734.13, -37263.40, -40344.72, -37274.06, 158273.48, 41397.80, 13251.52, 173070.00, -7404.55, 28582.94, 548.80, 107351.78, -5248.73, 0.018, 0.926, -0.188, 16:38:38.004
187, -129822.75, -36958.16, 153476.61, 159734.14, -37248.80, -40373.62, -37276.11, 158267.52, 41397.80, 13251.52, 173070.00, -7404.55, 28582.94, 548.80, 107351.78, -5248.73, 0.000, 0.000, 0.000, 16:38:38.004
188, -129822.75, -36958.16, 153476.61, 159734.14, -37248.80, -40373.62, -37276.11, 158267.52, 41401.96, 13264.20, 173067.50, -7409.02, 28584.51, 557.85, 107364.32, -5242.04, 0.000, 0.000, 0.000, 16:38:38.004
189, -129815.62, -36954.90, 153478.67, 159735.91, -37244.18, -40369.30, -37279.89, 158261.55, 41401.96, 13264.20, 173067.50, -7409.02, 28584.51, 557.85, 107364.32, -5242.04, 0.000, 0.000, 0.000, 16:38:38.005
190, -129815.62, -36954.90, 153478.67, 159735.91, -37244.18, -40369.30, -37279.89, 158261.55, 41403.54, 13260.28, 173070.44, -7406.81, 28593.96, 557.36, 107363.74, -5247.21, 0.000, 0.000, 0.000, 16:38:38.005
191, -129833.63, -36971.41, 153486.36, 159745.08, -37243.39, -40358.78, -37280.05, 158271.67, 41403.54, 13260.28, 173070.44, -7406.81, 28593.96, 557.36, 107363.74, -5247.21, 0.000, 0.000, 0.000, 16:38:38.005
192, -129833.63, -36971.41, 153486.36, 159745.08, -37243.39, -40358.78, -37280.05, 158271.67, 41404.19, 13247.14, 173075.98, -7401.38, 28599.64, 554.39, 107345.10, -5245.44, 0.000, 0.000, 0.000, 16:38:38.005
193, -129856.03, -36986.13, 153488.78, 159743.36, -37236.78, -40358.40, -37270.15, 158276.63, 41404.19, 13247.14, 173075.98, -7401.38, 28599.64, 554.39, 107345.10, -5245.44, 0.000, 0.000, 0.000, 16:38:38.006
194, -129856.03, -36986.13, 153488.78, 159743.36, -37236.78, -40358.40, -37270.15, 158276.63, 41390.78, 13248.21, 173050.64, -7421.61, 28581.20, 542.77, 107353.48, -5247.30, 0.000, 0.000, 0.000, 16:38:38.006
195, -129846.84, -36969.23, 153477.11, 159737.42, -37238.50, -40360.03, -37274.66, 158275.53, 41390.78, 13248.21, 173050.64, -7421.61, 28581.20, 542.77, 107353.48, -5247.30, 0.000, 0.000, 0.000, 16:38:38.006
196, -129846.84, -36969.23, 153477.11, 159737.42, -37238.50, -40360.03, -37274.66, 158275.53, 41405.87, 13245.31, 173057.66, -7415.88, 28593.54, 548.40, 107356.21, -5263.77, 0.020, 0.926, -0.182, 16:38:38.006
197, -129862.83, -36982.86, 153469.94, 159727.92, -37236.84, -40360.12, -37273.16, 158278.75, 41405.87, 13245.31, 173057.66, -7415.88, 28593.54, 548.40, 107356.21, -5263.77, 0.000, 0.000, 0.000, 16:38:38.007
198, -129862.83, -36982.86, 153469.94, 159727.92, -37236.84, -40360.12, -37273.16, 158278.75, 41410.56, 13246.02, 173050.19, -7417.92, 28592.11, 547.10, 107366.60, -5259.63, 0.000, 0.000, 0.000, 16:38:38.007
199, -129863.88, -36979.77, 153463.72, 159721.69, -37247.48, -40370.51, -37271.89, 158286.08, 41410.56, 13246.02, 173050.19, -7417.92, 28592.11, 547.10, 107366.60, -5259.63, 0.000, 0.000, 0.000, 16:38:38.007
200, -129863.88, -36979.77, 153463.72, 159721.69, -37247.48, -40370.51, -37271.89, 158286.08, 41416.26, 13252.53, 173051.67, -7414.25, 28593.36, 556.16, 107366.53, -5253.15, 0.000, 0.000, 0.000, 16:38:38.008
201, -129865.73, -36974.21, 153453.44, 159718.08, -37240.08, -40376.73, -37265.32, 158291.31, 41416.26, 13252.53, 173051.67, -7414.25, 28593.36, 556.16, 107366.53, -5253.15, 0.000, 0.000, 0.000, 16:38:38.008
202, -129865.73, -36974.21, 153453.44, 159718.08, -37240.08, -40376.73, -37265.32, 158291.31, 41417.87, 13256.93, 173047.61, -7418.70, 28588.42, 557.12, 107375.95, -5247.94, 0.000, 0.000, 0.000, 16:38:38.008
203, -129866.96, -36969.98, 153450.11, 159718.86, -37250.66, -40374.96, -37265.52, 158288.86, 41417.87, 13256.93, 173047.61, -7418.70, 28588.42, 557.12, 107375.95, -5247.94, 0.000, 0.000, 0.000, 16:38:38.008
204, -129866.96, -36969.98, 153450.11, 159718.86, -37250.66, -40374.96, -37265.52, 158288.86, 41421.38, 13252.28, 173050.42, -7409.69, 28592.95, 563.22, 107371.54, -5256.24, 0.000, 0.000, 0.000, 16:38:38.009
205, -129873.42, -36977.20, 153447.41, 159715.30, -37256.33, -40375.41, -37270.17, 158289.02, 41421.38, 13252.28, 173050.42, -7409.69, 28592.95, 563.22, 107371.54, -5256.24, 0.016, 0.930, -0.174, 16:38:38.009
206, -129873.42, -36977.20, 153447.41, 159715.30, -37256.33, -40375.41, -37270.17, 158289.02, 41418.32, 13253.71, 173039.48, -7418.16, 28580.93, 549.74, 107372.50, -5262.25, 0.000, 0.000, 0.000, 16:38:38.009
207, -129862.70, -36969.00, 153443.92, 159712.63, -37266.05, -40378.00, -37281.41, 158289.78, 41418.32, 13253.71, 173039.48, -7418.16, 28580.93, 549.74, 107372.50, -5262.25, 0.000, 0.000, 0.000, 16:38:38.009
208, -129862.70, -36969.00, 153443.92, 159712.63, -37266.05, -40378.00, -37281.41, 158289.78, 41415.01, 13251.90, 173032.47, -7419.55, 28577.89, 540.09, 107383.63, -5260.06, 0.000, 0.000, 0.000, 16:38:38.010
209, -129854.00, -36958.90, 153446.80, 159711.48, -37274.71, -40367.72, -37289.35, 158288.52, 41415.01, 13251.90, 173032.47, -7419.55, 28577.89, 540.09, 107383.63, -5260.06, 0.000, 0.000, 0.000, 16:38:38.010
210, -129854.00, -36958.90, 153446.80, 159711.48, -37274.71, -40367.72, -37289.35, 158288.52, 41424.89, 13243.12, 173045.86, -7410.43, 28588.89, 549.65, 107375.38, -5259.48, 0.000, 0.000, 0.000, 16:38:38.010
211, -129869.42, -36967.46, 153451.78, 159716.19, -37268.43, -40377.44, -37289.44, 158288.55, 41424.89, 13243.12, 173045.86, -7410.43, 28588.89, 549.65, 107375.38, -5259.48, 0.000, 0.000, 0.000, 16:38:38.010
212, -129869.42, -36967.46, 153451.78, 159716.19, -37268.43, -40377.44, -37289.44, 158288.55, 41416.13, 13248.55, 173030.88, -7419.30, 28575.83, 541.76, 107390.12, -5256.88, 0.000, 0.000, 0.000, 16:38:38.011
213, -129845.75, -36939.45, 153445.28, 159718.36, -37251.84, -40384.91, -37283.38, 158288.30, 41416.13, 13248.55, 173030.88, -7419.30, 28575.83, 541.76, 107390.12, -5256.88, 0.000, 0.000, 0.000, 16:38:38.011
214, -129845.75, -36939.45, 153445.28, 159718.36, -37251.84, -40384.91, -37283.38, 158288.30, 41422.03, 13252.15, 173030.72, -7418.21, 28573.06, 556.89, 107409.72, -5253.71, 0.000, 0.000, 0.000, 16:38:38.011
215, -129847.80, -36937.75, 153446.86, 159725.05, -37251.80, -40381.06, -37289.23, 158283.06, 41422.03, 13252.15, 173030.72, -7418.21, 28573.06, 556.89, 107409.72, -5253.71, 0.016, 0.930, -0.176, 16:38:38.011
216, -129847.80, -36937.75, 153446.86, 159725.05, -37251.80, -40381.06, -37289.23, 158283.06, 41421.36, 13246.94, 173026.80, -7420.35, 28579.36, 550.46, 107400.55, -5261.69, 0.000, 0.000, 0.000, 16:38:38.011
217, -129848.25, -36936.32, 153449.48, 159724.16, -37252.36, -40382.23, -37286.38, 158283.88, 41421.36, 13246.94, 173026.80, -7420.35, 28579.36, 550.46, 107400.55, -5261.69, 0.000, 0.000, 0.000, 16:38:38.012
218, -129848.25, -36936.32, 153449.48, 159724.16, -37252.36, -40382.23, -37286.38, 158283.88, 41412.26, 13240.82, 173015.81, -7429.21, 28570.92, 537.25, 107401.60, -5259.10, 0.000, 0.000, 0.000, 16:38:38.012
219, -129843.98, -36934.34, 153448.63, 159725.36, -37246.83, -40380.28, -37291.96, 158285.89, 41412.26, 13240.82, 173015.81, -7429.21, 28570.92, 537.25, 107401.60, -5259.10, 0.000, 0.000, 0.000, 16:38:38.012
220, -129843.98, -36934.34, 153448.63, 159725.36, -37246.83, -40380.28, -37291.96, 158285.89, 41411.86, 13241.02, 173013.19, -7431.24, 28564.66, 535.03, 107398.90, -5253.42, 0.000, 0.000, 0.000, 16:38:38.012
221, -129837.48, -36927.94, 153444.36, 159723.45, -37248.02, -40374.76, -37295.18, 158287.03, 41411.86, 13241.02, 173013.19, -7431.24, 28564.66, 535.03, 107398.90, -5253.42, 0.000, 0.000, 0.000, 16:38:38.012
222, -129837.48, -36927.94, 153444.36, 159723.45, -37248.02, -40374.76, -37295.18, 158287.03, 41417.87, 13232.08, 173011.30, -7433.97, 28568.88, 524.57, 107397.20, -5247.83, 0.000, 0.000, 0.000, 16:38:38.012
223, -129847.74, -36936.50, 153447.56, 159732.16, -37257.41, -40383.34, -37291.40, 158284.61, 41417.87, 13232.08, 173011.30, -7433.97, 28568.88, 524.57, 107397.20, -5247.83, 0.000, 0.000, 0.000, 16:38:38.013
224, -129847.74, -36936.50, 153447.56, 159732.16, -37257.41, -40383.34, -37291.40, 158284.61, 41418.79, 13232.14, 173011.53, -7426.14, 28571.03, 544.91, 107393.65, -5250.78, 0.000, 0.000, 0.000, 16:38:38.013
225, -129862.20, -36948.73, 153448.03, 159736.05, -37265.25, -40379.21, -37293.35, 158290.83, 41418.79, 13232.14, 173011.53, -7426.14, 28571.03, 544.91, 107393.65, -5250.78, 0.008, 0.926, -0.174, 16:38:38.013
226, -129862.20, -36948.73, 153448.03, 159736.05, -37265.25, -40379.21, -37293.35, 158290.83, 41419.57, 13222.96, 173007.91, -7427.80, 28572.41, 544.11, 107387.01, -5259.81, 0.000, 0.000, 0.000, 16:38:38.013
227, -129872.21, -36955.77, 153445.50, 159736.45, -37255.42, -40382.67, -37297.24, 158293.50, 41419.57, 13222.96, 173007.91, -7427.80, 28572.41, 544.11, 107387.01, -5259.81, 0.000, 0.000, 0.000, 16:38:38.013
228, -129872.21, -36955.77, 153445.50, 159736.45, -37255.42, -40382.67, -37297.24, 158293.50, 41415.25, 13220.88, 173002.55, -7422.28, 28561.93, 538.32, 107385.82, -5260.04, 0.000, 0.000, 0.000, 16:38:38.013
229, -129875.19, -36952.77, 153450.22, 159735.16, -37258.41, -40382.09, -37300.55, 158299.88, 41415.25, 13220.88, 173002.55, -7422.28, 28561.93, 538.32, 107385.82, -5260.04, 0.000, 0.000, 0.000, 16:38:38.014
230, -129875.19, -36952.77, 153450.22, 159735.16, -37258.41, -40382.09, -37300.55, 158299.88, 41413.27, 13218.78, 173001.47, -7427.77, 28560.63, 540.47, 107384.70, -5263.19, 0.000, 0.000, 0.000, 16:38:38.014
231, -129882.16, -36956.48, 153445.92, 159729.97, -37262.43, -40387.37, -37308.75, 158299.34, 41413.27, 13218.78, 173001.47, -7427.77, 28560.63, 540.47, 107384.70, -5263.19, 0.000, 0.000, 0.000, 16:38:38.014
232, -129882.16, -36956.48, 153445.92, 159729.97, -37262.43, -40387.37, -37308.75, 158299.34, 41411.68, 13222.06, 172989.58, -7436.02, 28549.05, 518.81, 107390.79, -5265.69, 0.000, 0.000, 0.000, 16:38:38.015
233, -129863.45, -36938.43, 153435.33, 159723.64, -37260.98, -40382.63, -37305.57, 158295.98, 41411.68, 13222.06, 172989.58, -7436.02, 28549.05, 518.81, 107390.79, -5265.69, 0.000, 0.000, 0.000, 16:38:38.015
234, -129863.45, -36938.43, 153435.33, 159723.64, -37260.98, -40382.63, -37305.57, 158295.98, 41421.87, 13230.44, 172993.89, -7423.66, 28558.09, 532.26, 107406.07, -5267.12, 0.000, 0.000, 0.000, 16:38:38.015
235, -129886.63, -36961.18, 153442.70, 159735.97, -37281.70, -40378.94, -37299.88, 158293.08, 41421.87, 13230.44, 172993.89, -7423.66, 28558.09, 532.26, 107406.07, -5267.12, 0.014, 0.928, -0.176, 16:38:38.017
236, -129886.63, -36961.18, 153442.70, 159735.97, -37281.70, -40378.94, -37299.88, 158293.08, 41411.63, 13225.88, 172990.50, -7419.48, 28552.77, 532.64, 107377.46, -5272.53, 0.000, 0.000, 0.000, 16:38:38.017
237, -129886.59, -36957.98, 153442.66, 159738.41, -37274.66, -40368.86, -37293.06, 158298.27, 41411.63, 13225.88, 172990.50, -7419.48, 28552.77, 532.64, 107377.46, -5272.53, 0.000, 0.000, 0.000, 16:38:38.017
238, -129886.59, -36957.98, 153442.66, 159738.41, -37274.66, -40368.86, -37293.06, 158298.27, 41408.66, 13238.60, 172977.38, -7426.10, 28541.97, 533.94, 107387.59, -5267.81, 0.000, 0.000, 0.000, 16:38:38.017
239, -129882.83, -36952.08, 153444.52, 159743.55, -37283.80, -40373.75, -37301.06, 158299.72, 41408.66, 13238.60, 172977.38, -7426.10, 28541.97, 533.94, 107387.59, -5267.81, 0.000, 0.000, 0.000, 16:38:38.018
240, -129882.83, -36952.08, 153444.52, 159743.55, -37283.80, -40373.75, -37301.06, 158299.72, 41414.70, 13239.72, 172982.92, -7417.72, 28550.89, 541.81, 107387.81, -5269.11, 0.000, 0.000, 0.000, 16:38:38.018
241, -129901.77, -36971.28, 153451.78, 159753.77, -37293.48, -40371.07, -37300.23, 158307.03, 41414.70, 13239.72, 172982.92, -7417.72, 28550.89, 541.81, 107387.81, -5269.11, 0.000, 0.000, 0.000, 16:38:38.465
242, -129901.77, -36971.28, 153451.78, 159753.77, -37293.48, -40371.07, -37300.23, 158307.03, 41412.11, 13239.68, 172984.19, -7413.07, 28553.71, 545.25, 107371.59, -5271.26, 0.000, 0.000, 0.000, 16:38:38.465
243, -129935.67, -37002.53, 153455.78, 159756.45, -37308.30, -40363.45, -37301.42, 158314.42, 41412.11, 13239.68, 172984.19, -7413.07, 28553.71, 545.25, 107371.59, -5271.26, 0.000, 0.000, 0.000, 16:38:38.466
244, -129935.67, -37002.53, 153455.78, 159756.45, -37308.30, -40363.45, -37301.42, 158314.42, 41406.49, 13231.14, 172978.45, -7412.80, 28548.70, 541.38, 107345.55, -5268.71, 0.000, 0.000, 0.000, 16:38:38.466
245, -129920.74, -36986.64, 153444.23, 159744.72, -37280.94, -40361.53, -37295.74, 158318.23, 41406.49, 13231.14, 172978.45, -7412.80, 28548.70, 541.38, 107345.55, -5268.71, 0.016, 0.926, -0.186, 16:38:38.466
246, -129920.74, -36986.64, 153444.23, 159744.72, -37280.94, -40361.53, -37295.74, 158318.23, 41407.68, 13235.52, 172963.92, -7424.96, 28528.51, 537.00, 107385.45, -5260.08, 0.000, 0.000, 0.000, 16:38:38.467
247, -129913.59, -36978.50, 153442.70, 159747.91, -37293.86, -40370.00, -37301.48, 158314.72, 41407.68, 13235.52, 172963.92, -7424.96, 28528.51, 537.00, 107385.45, -5260.08, 0.000, 0.000, 0.000, 16:38:38.467
248, -129913.59, -36978.50, 153442.70, 159747.91, -37293.86, -40370.00, -37301.48, 158314.72, 41409.64, 13227.99, 172964.63, -7421.49, 28538.44, 551.66, 107385.47, -5264.80, 0.000, 0.000, 0.000, 16:38:38.467
249, -129903.41, -36971.19, 153446.38, 159749.97, -37289.97, -40361.19, -37296.25, 158322.75, 41409.64, 13227.99, 172964.63, -7421.49, 28538.44, 551.66, 107385.47, -5264.80, 0.000, 0.000, 0.000, 16:38:38.467
250, -129903.41, -36971.19, 153446.38, 159749.97, -37289.97, -40361.19, -37296.25, 158322.75, 41412.71, 13232.10, 172957.41, -7427.33, 28546.42, 536.17, 107403.62, -5243.96, 0.000, 0.000, 0.000, 16:38:38.468
251, -129901.30, -36973.70, 153450.89, 159745.23, -37287.54, -40368.12, -37295.27, 158322.08, 41412.71, 13232.10, 172957.41, -7427.33, 28546.42, 536.17, 107403.62, -5243.96, 0.000, 0.000, 0.000, 16:38:38.469
252, -129901.30, -36973.70, 153450.89, 159745.23, -37287.54, -40368.12, -37295.27, 158322.08, 41418.56, 13229.62, 172959.84, -7424.04, 28546.57, 541.67, 107406.97, -5248.35, 0.000, 0.000, 0.000, 16:38:38.469
253, -129912.36, -36981.63, 153452.92, 159736.88, -37293.46, -40370.94, -37290.69, 158322.97, 41418.56, 13229.62, 172959.84, -7424.04, 28546.57, 541.67, 107406.97, -5248.35, 0.000, 0.000, 0.000, 16:38:38.469
254, -129912.36, -36981.63, 153452.92, 159736.88, -37293.46, -40370.94, -37290.69, 158322.97, 41408.64, 13225.21, 172946.06, -7436.89, 28536.49, 525.42, 107406.70, -5264.10, 0.000, 0.000, 0.000, 16:38:38.469
255, -129893.72, -36961.92, 153450.33, 159731.59, -37298.18, -40370.60, -37297.82, 158325.14, 41408.64, 13225.21, 172946.06, -7436.89, 28536.49, 525.42, 107406.70, -5264.10, 0.012, 0.928, -0.188, 16:38:38.470
0, -129893.72, -36961.92, 153450.33, 159731.59, -37298.18, -40370.60, -37297.82, 158325.14, 41409.98, 13224.43, 172949.61, -7428.36, 28536.18, 530.94, 107417.74, -5260.68, 0.000, 0.000, 0.000, 16:38:38.470
1, -129887.99, -36954.88, 153455.78, 159736.72, -37306.25, -40369.95, -37308.01, 158318.58, 41409.98, 13224.43, 172949.61, -7428.36, 28536.18, 530.94, 107417.74, -5260.68, 0.000, 0.000, 0.000, 16:38:38.470
2, -129887.99, -36954.88, 153455.78, 159736.72, -37306.25, -40369.95, -37308.01, 158318.58, 41403.59, 13226.20, 172941.97, -7428.74, 28530.50, 529.56, 107431.02, -5261.09, 0.000, 0.000, 0.000, 16:38:38.471
3, -129884.26, -36950.20, 153461.00, 159741.27, -37298.96, -40376.46, -37310.13, 158308.27, 41403.59, 13226.20, 172941.97, -7428.74, 28530.50, 529.56, 107431.02, -5261.09, 0.000, 0.000, 0.000, 16:38:38.471
4, -129884.26, -36950.20, 153461.00, 159741.27, -37298.96, -40376.46, -37310.13, 158308.27, 41404.66, 13223.49, 172953.28, -7416.60, 28540.70, 536.62, 107422.48, -5268.06, 0.000, 0.000, 0.000, 16:38:38.471
5, -129892.11, -36956.82, 153466.00, 159746.02, -37287.47, -40377.40, -37302.09, 158296.25, 41404.66, 13223.49, 172953.28, -7416.60, 28540.70, 536.62, 107422.48, -5268.06, 0.000, 0.000, 0.000, 16:38:38.472
6, -129892.11, -36956.82, 153466.00, 159746.02, -37287.47, -40377.40, -37302.09, 158296.25, 41400.61, 13221.97, 172943.98, -7419.50, 28540.67, 522.72, 107420.76, -5268.02, 0.000, 0.000, 0.000, 16:38:38.472
7, -129894.03, -36957.85, 153461.27, 159746.81, -37301.71, -40370.54, -37307.74, 158290.20, 41400.61, 13221.97, 172943.98, -7419.50, 28540.67, 522.72, 107420.76, -5268.02, 0.000, 0.000, 0.000, 16:38:38.472
8, -129894.03, -36957.85, 153461.27, 159746.81, -37301.71, -40370.54, -37307.74, 158290.20, 41408.17, 13225.15, 172951.38, -7408.02, 28546.82, 539.46, 107419.41, -5261.82, 0.000, 0.000, 0.000, 16:38:38.473
9, -129904.09, -36965.45, 153460.64, 159753.08, -37310.11, -40367.16, -37302.42, 158298.02, 41408.17, 13225.15, 172951.38, -7408.02, 28546.82, 539.46, 107419.41, -5261.82, 0.010, 0.932, -0.184, 16:38:38.473
10, -129904.09, -36965.45, 153460.64, 159753.08, -37310.11, -40367.16, -37302.42, 158298.02, 41403.99, 13230.06, 172943.73, -7413.58, 28537.23, 535.12, 107413.00, -5260.77, 0.000, 0.000, 0.000, 16:38:38.473
11, -129897.34, -36956.69, 153454.02, 159750.06, -37304.30, -40365.50, -37294.67, 158307.98, 41403.99, 13230.06, 172943.73, -7413.58, 28537.23, 535.12, 107413.00, -5260.77, 0.000, 0.000, 0.000, 16:38:38.474
12, -129897.34, -36956.69, 153454.02, 159750.06, -37304.30, -40365.50, -37294.67, 158307.98, 41410.52, 13243.36, 172944.56, -7406.36, 28535.55, 530.38, 107427.48, -5255.95, 0.000, 0.000, 0.000, 16:38:38.474
13, -129918.46, -36974.50, 153456.70, 159755.75, -37311.99, -40353.37, -37298.60, 158318.27, 41410.52, 13243.36, 172944.56, -7406.36, 28535.55, 530.38, 107427.48, -5255.95, 0.000, 0.000, 0.000, 16:38:38.474
14, -129918.46, -36974.50, 153456.70, 159755.75, -37311.99, -40353.37, -37298.60, 158318.27, 41408.75, 13246.31, 172933.77, -7407.88, 28537.19, 537.56, 107415.84, -5251.25, 0.000, 0.000, 0.000, 16:38:38.474
15, -129923.51, -36975.84, 153448.36, 159753.20, -37312.79, -40354.57, -37287.43, 158334.03, 41408.75, 13246.31, 172933.77, -7407.88, 28537.19, 537.56, 107415.84, -5251.25, 0.000, 0.000, 0.000, 16:38:38.475
16, -129923.51, -36975.84, 153448.36, 159753.20, -37312.79, -40354.57, -37287.43, 158334.03, 41419.70, 13248.12, 172938.33, -7395.83, 28549.10, 552.29, 107414.48, -5245.93, 0.000, 0.000, 0.000, 16:38:38.475
17, -129955.52, -37003.51, 153448.30, 159758.02, -37309.69, -40347.02, -37285.32, 158348.11, 41419.70, 13248.12, 172938.33, -7395.83, 28549.10, 552.29, 107414.48, -5245.93, 0.000, 0.000, 0.000, 16:38:38.475
18, -129955.52, -37003.51, 153448.30, 159758.02, -37309.69, -40347.02, -37285.32, 158348.11, 41414.63, 13256.13, 172920.22, -7411.26, 28530.23, 539.95, 107424.05, -5242.80, 0.000, 0.000, 0.000, 16:38:38.476
19, -129949.73, -36992.88, 153436.00, 159740.98, -37304.77, -40355.58, -37293.37, 158338.91, 41414.63, 13256.13, 172920.22, -7411.26, 28530.23, 539.95, 107424.05, -5242.80, 0.010, 0.926, -0.184, 16:38:38.476
20, -129949.73, -36992.88, 153436.00, 159740.98, -37304.77, -40355.58, -37293.37, 158338.91, 41424.20, 13245.80, 172927.55, -7405.33, 28544.47, 539.97, 107422.88, -5260.28, 0.000, 0.000, 0.000, 16:38:38.476
21, -129960.21, -36996.47, 153430.73, 159727.59, -37304.30, -40364.66, -37301.80, 158337.83, 41424.20, 13245.80, 172927.55, -7405.33, 28544.47, 539.97, 107422.88, -5260.28, 0.000, 0.000, 0.000, 16:38:38.477
22, -129960.21, -36996.47, 153430.73, 159727.59, -37304.30, -40364.66, -37301.80, 158337.83, 41418.32, 13244.59, 172913.09, -7418.07, 28531.46, 524.64, 107431.53, -5274.70, 0.000, 0.000, 0.000, 16:38:38.477
23, -129938.02, -36971.66, 153427.17, 159720.80, -37302.20, -40381.13, -37309.82, 158344.53, 41418.32, 13244.59, 172913.09, -7418.07, 28531.46, 524.64, 107431.53, -5274.70, 0.000, 0.000, 0.000, 16:38:38.477
24, -129938.02, -36971.66, 153427.17, 159720.80, -37302.20, -40381.13, -37309.82, 158344.53, 41418.79, 13251.01, 172910.16, -7418.92, 28526.86, 524.75, 107456.14, -5298.21, 0.000, 0.000, 0.000, 16:38:38.477
25, -129927.38, -36961.31, 153434.70, 159726.09, -37309.44, -40387.10, -37313.49, 158332.00, 41418.79, 13251.01, 172910.16, -7418.92, 28526.86, 524.75, 107456.14, -5298.21, 0.000, 0.000, 0.000, 16:38:38.478
26, -129927.38, -36961.31, 153434.70, 159726.09, -37309.44, -40387.10, -37313.49, 158332.00, 41420.11, 13239.88, 172915.44, -7411.84, 28527.80, 538.65, 107454.53, -5306.93, 0.000, 0.000, 0.000, 16:38:38.478
27, -129926.71, -36960.11, 153440.00, 159736.17, -37302.54, -40383.54, -37311.52, 158332.58, 41420.11, 13239.88, 172915.44, -7411.84, 28527.80, 538.65, 107454.53, -5306.93, 0.000, 0.000, 0.000, 16:38:38.478
28, -129926.71, -36960.11, 153440.00, 159736.17, -37302.54, -40383.54, -37311.52, 158332.58, 41420.78, 13232.88, 172927.19, -7401.76, 28532.40, 546.61, 107449.48, -5301.34, 0.000, 0.000, 0.000, 16:38:38.478
29, -129949.26, -36977.05, 153452.97, 159753.98, -37310.36, -40382.79, -37312.70, 158339.91, 41420.78, 13232.88, 172927.19, -7401.76, 28532.40, 546.61, 107449.48, -5301.34, 0.012, 0.926, -0.182, 16:38:38.479
30, -129949.26, -36977.05, 153452.97, 159753.98, -37310.36, -40382.79, -37312.70, 158339.91, 41407.12, 13225.04, 172912.38, -7408.64, 28518.99, 528.04, 107434.30, -5294.81, 0.000, 0.000, 0.000, 16:38:38.479
31, -129962.02, -36986.53, 153453.02, 159756.30, -37317.27, -40373.33, -37313.11, 158335.03, 41407.12, 13225.04, 172912.38, -7408.64, 28518.99, 528.04, 107434.30, -5294.81, 0.000, 0.000, 0.000, 16:38:38.479
32, -129962.02, -36986.53, 153453.02, 159756.30, -37317.27, -40373.33, -37313.11, 158335.03, 41408.26, 13226.42, 172909.02, -7402.83, 28524.24, 531.21, 107431.06, -5282.21, 0.000, 0.000, 0.000, 16:38:38.480
33, -129960.23, -36981.32, 153452.95, 159758.94, -37313.02, -40375.59, -37297.84, 158332.78, 41408.26, 13226.42, 172909.02, -7402.83, 28524.24, 531.21, 107431.06, -5282.21, 0.000, 0.000, 0.000, 16:38:38.480
34, -129960.23, -36981.32, 153452.95, 159758.94, -37313.02, -40375.59, -37297.84, 158332.78, 41409.53, 13237.53, 172905.41, -7405.27, 28515.44, 537.92, 107450.87, -5273.25, 0.000, 0.000, 0.000, 16:38:38.480
35, -129963.25, -36981.25, 153460.23, 159770.91, -37305.55, -40364.97, -37296.21, 158341.56, 41409.53, 13237.53, 172905.41, -7405.27, 28515.44, 537.92, 107450.87, -5273.25, 0.000, 0.000, 0.000, 16:38:38.480
36, -129963.25, -36981.25, 153460.23, 159770.91, -37305.55, -40364.97, -37296.21, 158341.56, 41408.82, 13237.89, 172907.34, -7396.53, 28517.05, 545.96, 107443.36, -5268.24, 0.000, 0.000, 0.000, 16:38:38.480
37, -129974.77, -36995.04, 153464.91, 159779.09, -37309.91, -40355.02, -37294.04, 158352.00, 41408.82, 13237.89, 172907.34, -7396.53, 28517.05, 545.96, 107443.36, -5268.24, 0.000, 0.000, 0.000, 16:38:38.481
38, -129974.77, -36995.04, 153464.91, 159779.09, -37309.91, -40355.02, -37294.04, 158352.00, 41414.32, 13240.39, 172908.17, -7388.93, 28521.90, 554.37, 107443.49, -5252.70, 0.012, 0.930, -0.180, 16:38:38.481
39, -129999.02, -37019.96, 153459.47, 159775.92, -37322.96, -40360.01, -37292.19, 158361.13, 41414.32, 13240.39, 172908.17, -7388.93, 28521.90, 554.37, 107443.49, -5252.70, 0.000, 0.000, 0.000, 16:38:38.481
40, -129999.02, -37019.96, 153459.47, 159775.92, -37322.96, -40360.01, -37292.19, 158361.13, 41411.59, 13240.55, 172898.05, -7392.41, 28528.02, 548.74, 107432.56, -5248.44, 0.000, 0.000, 0.000, 16:38:38.481
41, -129991.30, -37010.87, 153444.50, 159760.73, -37305.48, -40374.13, -37288.77, 158362.08, 41411.59, 13240.55, 172898.05, -7392.41, 28528.02, 548.74, 107432.56, -5248.44, 0.000, 0.000, 0.000, 16:38:38.482
42, -129991.30, -37010.87, 153444.50, 159760.73, -37305.48, -40374.13, -37288.77, 158362.08, 41416.35, 13261.69, 172885.16, -7397.96, 28516.42, 544.35, 107460.14, -5243.99, 0.000, 0.000, 0.000, 16:38:38.482
43, -130003.82, -37021.17, 153442.63, 159759.33, -37333.71, -40366.24, -37311.70, 158349.98, 41416.35, 13261.69, 172885.16, -7397.96, 28516.42, 544.35, 107460.14, -5243.99, 0.000, 0.000, 0.000, 16:38:38.482
44, -130003.82, -37021.17, 153442.63, 159759.33, -37333.71, -40366.24, -37311.70, 158349.98, 41415.34, 13249.15, 172886.36, -7395.81, 28519.30, 545.99, 107440.90, -5264.69, 0.000, 0.000, 0.000, 16:38:38.483
45, -129993.47, -37005.43, 153434.28, 159745.03, -37332.82, -40394.18, -37314.54, 158338.55, 41415.34, 13249.15, 172886.36, -7395.81, 28519.30, 545.99, 107440.90, -5264.69, 0.000, 0.000, 0.000, 16:38:38.483
46, -129993.47, -37005.43, 153434.28, 159745.03, -37332.82, -40394.18, -37314.54, 158338.55, 41416.73, 13254.63, 172880.59, -7404.55, 28511.19, 532.31, 107458.16, -5275.41, 0.000, 0.000, 0.000, 16:38:38.483
47, -129992.22, -37001.19, 153440.88, 159748.38, -37330.79, -40395.37, -37311.36, 158336.83, 41416.73, 13254.63, 172880.59, -7404.55, 28511.19, 532.31, 107458.16, -5275.41, 0.000, 0.000, 0.000, 16:38:38.483
48, -129992.22, -37001.19, 153440.88, 159748.38, -37330.79, -40395.37, -37311.36, 158336.83, 41420.55, 13256.82, 172885.38, -7401.65, 28517.05, 539.21, 107463.61, -5281.52, 0.012, 0.926, -0.182, 16:38:38.484
49, -130005.81, -37010.73, 153446.20, 159755.80, -37332.24, -40390.05, -37307.59, 158340.05, 41420.55, 13256.82, 172885.38, -7401.65, 28517.05, 539.21, 107463.61, -5281.52, 0.000, 0.000, 0.000, 16:38:38.485
50, -130005.81, -37010.73, 153446.20, 159755.80, -37332.24, -40390.05, -37307.59, 158340.05, 41416.93, 13250.76, 172879.77, -7403.23, 28513.65, 537.81, 107457.37, -5282.41, 0.000, 0.000, 0.000, 16:38:38.485
51, -130011.84, -37014.44, 153446.39, 159751.17, -37335.86, -40392.86, -37305.17, 158342.03, 41416.93, 13250.76, 172879.77, -7403.23, 28513.65, 537.81, 107457.37, -5282.41, 0.000, 0.000, 0.000, 16:38:38.485
52, -130011.84, -37014.44, 153446.39, 159751.17, -37335.86, -40392.86, -37305.17, 158342.03, 41413.85, 13247.72, 172865.70, -7414.52, 28509.09, 528.62, 107464.13, -5278.25, 0.000, 0.000, 0.000, 16:38:38.485
53, -129998.99, -36998.33, 153441.70, 159743.20, -37338.97, -40392.13, -37309.39, 158347.52, 41413.85, 13247.72, 172865.70, -7414.52, 28509.09, 528.62, 107464.13, -5278.25, 0.000, 0.000, 0.000, 16:38:38.486
54, -129998.99, -36998.33, 153441.70, 159743.20, -37338.97, -40392.13, -37309.39, 158347.52, 41413.07, 13249.02, 172856.53, -7422.16, 28508.02, 525.40, 107480.17, -5274.43, 0.000, 0.000, 0.000, 16:38:38.486
55, -129997.59, -36998.04, 153446.75, 159752.30, -37340.76, -40390.14, -37312.91, 158346.22, 41413.07, 13249.02, 172856.53, -7422.16, 28508.02, 525.40, 107480.17, -5274.43, 0.000, 0.000, 0.000, 16:38:38.486
56, -129997.59, -36998.04, 153446.75, 159752.30, -37340.76, -40390.14, -37312.91, 158346.22, 41420.06, 13246.81, 172866.47, -7409.00, 28516.51, 542.52, 107474.07, -5264.44, 0.000, 0.000, 0.000, 16:38:38.487
57, -130006.88, -37007.18, 153448.81, 159755.31, -37328.57, -40383.66, -37299.79, 158347.47, 41420.06, 13246.81, 172866.47, -7409.00, 28516.51, 542.52, 107474.07, -5264.44, 0.000, 0.000, 0.000, 16:38:38.487
58, -130006.88, -37007.18, 153448.81, 159755.31, -37328.57, -40383.66, -37299.79, 158347.47, 41414.47, 13248.30, 172846.55, -7424.31, 28503.90, 542.45, 107489.67, -5240.25, 0.014, 0.926, -0.188, 16:38:38.487
59, -129987.02, -36990.41, 153439.69, 159750.23, -37334.32, -40378.02, -37302.49, 158358.77, 41414.47, 13248.30, 172846.55, -7424.31, 28503.90, 542.45, 107489.67, -5240.25, 0.000, 0.000, 0.000, 16:38:38.487
60, -129987.02, -36990.41, 153439.69, 159750.23, -37334.32, -40378.02, -37302.49, 158358.77, 41427.39, 13247.88, 172859.00, -7408.15, 28519.13, 537.56, 107496.64, -5231.98, 0.000, 0.000, 0.000, 16:38:38.488
61, -129999.20, -37001.95, 153433.88, 159741.72, -37343.44, -40377.00, -37300.48, 158374.78, 41427.39, 13247.88, 172859.00, -7408.15, 28519.13, 537.56, 107496.64, -5231.98, 0.000, 0.000, 0.000, 16:38:38.488
62, -129999.20, -37001.95, 153433.88, 159741.72, -37343.44, -40377.00, -37300.48, 158374.78, 41426.27, 13248.53, 172843.38, -7423.60, 28505.87, 530.36, 107496.89, -5235.20, 0.000, 0.000, 0.000, 16:38:38.489
63, -129993.16, -36994.73, 153425.23, 159734.86, -37350.68, -40379.65, -37303.45, 158383.22, 41426.27, 13248.53, 172843.38, -7423.60, 28505.87, 530.36, 107496.89, -5235.20, 0.000, 0.000, 0.000, 16:38:38.489
64, -129993.16, -36994.73, 153425.23, 159734.86, -37350.68, -40379.65, -37303.45, 158383.22, 41433.20, 13242.60, 172850.86, -7412.67, 28515.37, 534.47, 107492.82, -5246.07, 0.000, 0.000, 0.000, 16:38:38.489
65, -130024.07, -37023.18, 153434.73, 159741.92, -37364.00, -40383.19, -37306.56, 158384.25, 41433.20, 13242.60, 172850.86, -7412.67, 28515.37, 534.47, 107492.82, -5246.07, 0.000, 0.000, 0.000, 16:38:38.489
66, -130024.07, -37023.18, 153434.73, 159741.92, -37364.00, -40383.19, -37306.56, 158384.25, 41421.36, 13227.34, 172837.34, -7422.75, 28507.15, 524.22, 107479.70, -5261.65, 0.000, 0.000, 0.000, 16:38:38.490
67, -130035.65, -37030.63, 153441.92, 159742.91, -37357.41, -40387.86, -37307.16, 158378.00, 41421.36, 13227.34, 172837.34, -7422.75, 28507.15, 524.22, 107479.70, -5261.65, 0.000, 0.000, 0.000, 16:38:38.490
68, -130035.65, -37030.63, 153441.92, 159742.91, -37357.41, -40387.86, -37307.16, 158378.00, 41415.95, 13214.60, 172837.00, -7415.66, 28508.53, 521.98, 107466.80, -5273.94, 0.012, 0.926, -0.182, 16:38:38.490
69, -130036.08, -37027.45, 153444.59, 159737.98, -37345.05, -40389.27, -37309.22, 158375.81, 41415.95, 13214.60, 172837.00, -7415.66, 28508.53, 521.98, 107466.80, -5273.94, 0.000, 0.000, 0.000, 16:38:38.491
70, -130036.08, -37027.45, 153444.59, 159737.98, -37345.05, -40389.27, -37309.22, 158375.81, 41413.89, 13215.87, 172836.48, -7415.10, 28509.76, 525.87, 107472.48, -5292.47, 0.000, 0.000, 0.000, 16:38:38.491
71, -130060.08, -37050.41, 153460.64, 159751.63, -37337.11, -40400.08, -37314.40, 158368.45, 41413.89, 13215.87, 172836.48, -7415.10, 28509.76, 525.87, 107472.48, -5292.47, 0.000, 0.000, 0.000, 16:38:38.491
72, -130060.08, -37050.41, 153460.64, 159751.63, -37337.11, -40400.08, -37314.40, 158368.45, 41402.45, 13212.12, 172825.22, -7426.19, 28499.59, 513.87, 107463.70, -5297.50, 0.000, 0.000, 0.000, 16:38:38.492
73, -130051.84, -37040.91, 153452.72, 159739.91, -37328.26, -40396.73, -37313.55, 158362.64, 41402.45, 13212.12, 172825.22, -7426.19, 28499.59, 513.87, 107463.70, -5297.50, 0.000, 0.000, 0.000, 16:38:38.492
74, -130051.84, -37040.91, 153452.72, 159739.91, -37328.26, -40396.73, -37313.55, 158362.64, 41411.84, 13219.49, 172822.00, -7427.06, 28501.76, 515.57, 107482.83, -5289.25, 0.000, 0.000, 0.000, 16:38:38.492
75, -130046.27, -37036.57, 153446.70, 159736.45, -37324.39, -40396.95, -37308.77, 158371.67, 41411.84, 13219.49, 172822.00, -7427.06, 28501.76, 515.57, 107482.83, -5289.25, 0.000, 0.000, 0.000, 16:38:38.493
76, -130046.27, -37036.57, 153446.70, 159736.45, -37324.39, -40396.95, -37308.77, 158371.67, 41411.39, 13226.13, 172809.16, -7432.87, 28492.46, 521.49, 107509.72, -5278.63, 0.000, 0.000, 0.000, 16:38:38.493
77, -130043.80, -37031.50, 153443.20, 159741.63, -37329.31, -40388.77, -37320.57, 158377.75, 41411.39, 13226.13, 172809.16, -7432.87, 28492.46, 521.49, 107509.72, -5278.63, 0.000, 0.000, 0.000, 16:38:38.493
78, -130043.80, -37031.50, 153443.20, 159741.63, -37329.31, -40388.77, -37320.57, 158377.75, 41427.13, 13220.43, 172822.41, -7416.80, 28507.79, 527.32, 107501.54, -5262.32, 0.010, 0.930, -0.184, 16:38:38.493
79, -130065.51, -37049.63, 153437.48, 159743.64, -37336.66, -40380.93, -37311.45, 158380.91, 41427.13, 13220.43, 172822.41, -7416.80, 28507.79, 527.32, 107501.54, -5262.32, 0.000, 0.000, 0.000, 16:38:38.494
80, -130065.51, -37049.63, 153437.48, 159743.64, -37336.66, -40380.93, -37311.45, 158380.91, 41431.04, 13225.93, 172817.53, -7418.88, 28511.73, 539.01, 107495.93, -5241.93, 0.000, 0.000, 0.000, 16:38:38.494
81, -130081.96, -37063.71, 153440.63, 159746.53, -37342.63, -40371.41, -37306.47, 158381.02, 41431.04, 13225.93, 172817.53, -7418.88, 28511.73, 539.01, 107495.93, -5241.93, 0.000, 0.000, 0.000, 16:38:38.494
82, -130081.96, -37063.71, 153440.63, 159746.53, -37342.63, -40371.41, -37306.47, 158381.02, 41436.04, 13229.57, 172824.27, -7411.23, 28518.68, 557.30, 107487.66, -5234.94, 0.000, 0.000, 0.000, 16:38:38.494
83, -130102.17, -37078.46, 153442.91, 159743.44, -37342.12, -40368.72, -37296.88, 158375.42, 41436.04, 13229.57, 172824.27, -7411.23, 28518.68, 557.30, 107487.66, -5234.94, 0.000, 0.000, 0.000, 16:38:38.495
84, -130102.17, -37078.46, 153442.91, 159743.44, -37342.12, -40368.72, -37296.88, 158375.42, 41423.28, 13230.53, 172807.70, -7429.29, 28508.42, 542.70, 107490.85, -5234.09, 0.000, 0.000, 0.000, 16:38:38.495
85, -130083.41, -37054.90, 153433.88, 159727.06, -37342.59, -40382.34, -37306.67, 158359.88, 41423.28, 13230.53, 172807.70, -7429.29, 28508.42, 542.70, 107490.85, -5234.09, 0.000, 0.000, 0.000, 16:38:38.495
86, -130083.41, -37054.90, 153433.88, 159727.06, -37342.59, -40382.34, -37306.67, 158359.88, 41427.55, 13231.00, 172808.17, -7423.75, 28502.85, 545.78, 107498.81, -5240.90, 0.000, 0.000, 0.000, 16:38:38.496
87, -130102.86, -37070.01, 153434.58, 159726.30, -37360.11, -40388.10, -37306.04, 158350.64, 41427.55, 13231.00, 172808.17, -7423.75, 28502.85, 545.78, 107498.81, -5240.90, 0.000, 0.000, 0.000, 16:38:38.496
88, -130102.86, -37070.01, 153434.58, 159726.30, -37360.11, -40388.10, -37306.04, 158350.64, 41421.45, 13222.58, 172806.31, -7422.68, 28511.39, 548.76, 107477.06, -5260.06, 0.018, 0.934, -0.182, 16:38:38.496
89, -130108.20, -37071.51, 153437.81, 159721.38, -37339.55, -40399.32, -37299.96, 158334.86, 41421.45, 13222.58, 172806.31, -7422.68, 28511.39, 548.76, 107477.06, -5260.06, 0.000, 0.000, 0.000, 16:38:38.497
90, -130108.20, -37071.51, 153437.81, 159721.38, -37339.55, -40399.32, -37299.96, 158334.86, 41413.24, 13215.42, 172796.06, -7427.77, 28510.70, 542.37, 107467.66, -5276.96, 0.000, 0.000, 0.000, 16:38:38.497
91, -130098.97, -37056.38, 153434.80, 159710.09, -37329.65, -40403.66, -37305.98, 158315.55, 41413.24, 13215.42, 172796.06, -7427.77, 28510.70, 542.37, 107467.66, -5276.96, 0.000, 0.000, 0.000, 16:38:38.497
92, -130098.97, -37056.38, 153434.80, 159710.09, -37329.65, -40403.66, -37305.98, 158315.55, 41411.54, 13223.90, 172782.02, -7437.16, 28507.64, 544.06, 107487.05, -5288.04, 0.000, 0.000, 0.000, 16:38:38.497
93, -130088.58, -37039.30, 153444.55, 159709.69, -37325.64, -40404.06, -37305.55, 158313.11, 41411.54, 13223.90, 172782.02, -7437.16, 28507.64, 544.06, 107487.05, -5288.04, 0.000, 0.000, 0.000, 16:38:38.497
94, -130088.58, -37039.30, 153444.55, 159709.69, -37325.64, -40404.06, -37305.55, 158313.11, 41415.32, 13224.10, 172785.45, -7425.16, 28519.86, 554.70, 107490.81, -5296.33, 0.000, 0.000, 0.000, 16:38:38.498
95, -130086.39, -37030.00, 153455.36, 159709.64, -37313.80, -40398.86, -37300.57, 158313.59, 41415.32, 13224.10, 172785.45, -7425.16, 28519.86, 554.70, 107490.81, -5296.33, 0.000, 0.000, 0.000, 16:38:38.498
96, -130086.39, -37030.00, 153455.36, 159709.64, -37313.80, -40398.86, -37300.57, 158313.59, 41411.84, 13224.77, 172779.16, -7427.80, 28523.13, 536.84, 107500.06, -5289.83, 0.000, 0.000, 0.000, 16:38:38.498
97, -130068.48, -37009.57, 153463.16, 159712.50, -37323.70, -40406.68, -37299.18, 158312.28, 41411.84, 13224.77, 172779.16, -7427.80, 28523.13, 536.84, 107500.06, -5289.83, 0.000, 0.000, 0.000, 16:38:38.498
98, -130068.48, -37009.57, 153463.16, 159712.50, -37323.70, -40406.68, -37299.18, 158312.28, 41403.79, 13231.70, 172766.69, -7432.47, 28516.20, 538.41, 107521.66, -5285.18, 0.016, 0.930, -0.180, 16:38:38.498
99, -130039.31, -36980.31, 153461.97, 159717.38, -37324.02, -40406.54, -37303.32, 158317.59, 41403.79, 13231.70, 172766.69, -7432.47, 28516.20, 538.41, 107521.66, -5285.18, 0.000, 0.000, 0.000, 16:38:38.498
100, -130039.31, -36980.31, 153461.97, 159717.38, -37324.02, -40406.54, -37303.32, 158317.59, 41411.95, 13230.85, 172770.48, -7423.35, 28523.15, 549.14, 107530.69, -5275.73, 0.000, 0.000, 0.000, 16:38:38.499
101, -130041.23, -36984.45, 153469.13, 159729.14, -37330.34, -40394.27, -37298.04, 158319.95, 41411.95, 13230.85, 172770.48, -7423.35, 28523.15, 549.14, 107530.69, -5275.73, 0.000, 0.000, 0.000, 16:38:38.499
102, -130041.23, -36984.45, 153469.13, 159729.14, -37330.34, -40394.27, -37298.04, 158319.95, 41413.00, 13228.63, 172769.75, -7422.23, 28532.02, 556.58, 107517.99, -5262.72, 0.000, 0.000, 0.000, 16:38:38.500
103, -130050.47, -36991.06, 153467.86, 159734.86, -37339.53, -40378.96, -37297.48, 158322.91, 41413.00, 13228.63, 172769.75, -7422.23, 28532.02, 556.58, 107517.99, -5262.72, 0.000, 0.000, 0.000, 16:38:38.501
104, -130050.47, -36991.06, 153467.86, 159734.86, -37339.53, -40378.96, -37297.48, 158322.91, 41420.31, 13224.39, 172769.38, -7421.63, 28542.10, 571.44, 107511.46, -5238.31, 0.000, 0.000, 0.000, 16:38:38.501
105, -130063.05, -36998.44, 153463.63, 159738.55, -37323.25, -40372.73, -37294.31, 158328.55, 41420.31, 13224.39, 172769.38, -7421.63, 28542.10, 571.44, 107511.46, -5238.31, 0.000, 0.000, 0.000, 16:38:38.945
106, -130063.05, -36998.44, 153463.63, 159738.55, -37323.25, -40372.73, -37294.31, 158328.55, 41426.97, 13226.55, 172765.33, -7422.01, 28540.88, 571.15, 107516.00, -5217.17, 0.000, 0.000, 0.000, 16:38:38.945
107, -130062.38, -36992.11, 153457.50, 159734.88, -37324.77, -40387.88, -37287.92, 158329.36, 41426.97, 13226.55, 172765.33, -7422.01, 28540.88, 571.15, 107516.00, -5217.17, 0.000, 0.000, 0.000, 16:38:38.946
108, -130062.38, -36992.11, 153457.50, 159734.88, -37324.77, -40387.88, -37287.92, 158329.36, 41437.52, 13226.40, 172769.23, -7418.36, 28544.63, 572.88, 107524.43, -5205.48, 0.022, 0.930, -0.186, 16:38:38.946
109, -130074.16, -37004.00, 153454.28, 159732.73, -37327.59, -40374.16, -37282.78, 158335.23, 41437.52, 13226.40, 172769.23, -7418.36, 28544.63, 572.88, 107524.43, -5205.48, 0.000, 0.000, 0.000, 16:38:38.946
110, -130074.16, -37004.00, 153454.28, 159732.73, -37327.59, -40374.16, -37282.78, 158335.23, 41433.61, 13229.10, 172757.78, -7430.84, 28533.50, 561.86, 107522.68, -5220.54, 0.000, 0.000, 0.000, 16:38:38.946
111, -130050.58, -36976.13, 153441.03, 159707.02, -37306.89, -40395.12, -37272.80, 158330.95, 41433.61, 13229.10, 172757.78, -7430.84, 28533.50, 561.86, 107522.68, -5220.54, 0.000, 0.000, 0.000, 16:38:38.947
112, -130050.58, -36976.13, 153441.03, 159707.02, -37306.89, -40395.12, -37272.80, 158330.95, 41437.61, 13225.75, 172753.78, -7438.73, 28530.84, 553.30, 107543.65, -5238.20, 0.000, 0.000, 0.000, 16:38:38.947
113, -130043.41, -36965.05, 153443.94, 159706.30, -37313.51, -40397.74, -37282.64, 158328.89, 41437.61, 13225.75, 172753.78, -7438.73, 28530.84, 553.30, 107543.65, -5238.20, 0.000, 0.000, 0.000, 16:38:38.947
114, -130043.41, -36965.05, 153443.94, 159706.30, -37313.51, -40397.74, -37282.64, 158328.89, 41442.68, 13212.67, 172767.25, -7425.09, 28549.12, 551.55, 107527.20, -5260.86, 0.000, 0.000, 0.000, 16:38:38.947
115, -130074.12, -36987.82, 153452.66, 159715.80, -37325.29, -40384.04, -37285.66, 158323.81, 41442.68, 13212.67, 172767.25, -7425.09, 28549.12, 551.55, 107527.20, -5260.86, 0.000, 0.000, 0.000, 16:38:38.948
116, -130074.12, -36987.82, 153452.66, 159715.80, -37325.29, -40384.04, -37285.66, 158323.81, 41436.49, 13202.17, 172766.33, -7424.15, 28549.41, 561.95, 107506.23, -5267.52, 0.000, 0.000, 0.000, 16:38:38.948
117, -130089.79, -36996.45, 153454.23, 159717.42, -37322.02, -40400.17, -37287.56, 158319.17, 41436.49, 13202.17, 172766.33, -7424.15, 28549.41, 561.95, 107506.23, -5267.52, 0.000, 0.000, 0.000, 16:38:38.948
118, -130089.79, -36996.45, 153454.23, 159717.42, -37322.02, -40400.17, -37287.56, 158319.17, 41428.44, 13202.91, 172748.16, -7433.41, 28537.23, 544.33, 107506.55, -5281.96, 0.022, 0.924, -0.188, 16:38:38.948
119, -130073.36, -36975.84, 153450.67, 159710.39, -37320.71, -40406.70, -37298.15, 158315.48, 41428.44, 13202.91, 172748.16, -7433.41, 28537.23, 544.33, 107506.55, -5281.96, 0.000, 0.000, 0.000, 16:38:38.949
120, -130073.36, -36975.84, 153450.67, 159710.39, -37320.71, -40406.70, -37298.15, 158315.48, 41432.09, 13208.56, 172749.05, -7431.35, 28542.30, 539.68, 107521.72, -5290.99, 0.000, 0.000, 0.000, 16:38:38.949
121, -130058.78, -36958.16, 153453.02, 159707.86, -37314.52, -40402.97, -37303.03, 158312.64, 41432.09, 13208.56, 172749.05, -7431.35, 28542.30, 539.68, 107521.72, -5290.99, 0.000, 0.000, 0.000, 16:38:38.949
122, -130058.78, -36958.16, 153453.02, 159707.86, -37314.52, -40402.97, -37303.03, 158312.64, 41429.52, 13206.01, 172747.48, -7433.90, 28542.21, 540.20, 107530.66, -5292.76, 0.000, 0.000, 0.000, 16:38:38.950
123, -130059.09, -36952.86, 153462.47, 159721.83, -37314.22, -40395.75, -37299.88, 158319.14, 41429.52, 13206.01, 172747.48, -7433.90, 28542.21, 540.20, 107530.66, -5292.76, 0.000, 0.000, 0.000, 16:38:38.950
124, -130059.09, -36952.86, 153462.47, 159721.83, -37314.22, -40395.75, -37299.88, 158319.14, 41425.29, 13195.42, 172745.63, -7431.24, 28540.63, 546.16, 107522.99, -5291.22, 0.000, 0.000, 0.000, 16:38:38.950
125, -130065.51, -36954.14, 153459.73, 159724.83, -37310.58, -40391.01, -37294.11, 158323.19, 41425.29, 13195.42, 172745.63, -7431.24, 28540.63, 546.16, 107522.99, -5291.22, 0.000, 0.000, 0.000, 16:38:38.950
126, -130065.51, -36954.14, 153459.73, 159724.83, -37310.58, -40391.01, -37294.11, 158323.19, 41425.89, 13196.67, 172737.89, -7434.91, 28539.44, 552.00, 107528.49, -5276.78, 0.000, 0.000, 0.000, 16:38:38.951
127, -130073.13, -36954.72, 153460.19, 159736.22, -37325.40, -40385.69, -37290.06, 158328.39, 41425.89, 13196.67, 172737.89, -7434.91, 28539.44, 552.00, 107528.49, -5276.78, 0.000, 0.000, 0.000, 16:38:38.951
128, -130073.13, -36954.72, 153460.19, 159736.22, -37325.40, -40385.69, -37290.06, 158328.39, 41421.27, 13197.10, 172734.31, -7428.45, 28536.49, 545.70, 107527.89, -5260.51, 0.018, 0.920, -0.196, 16:38:38.951
129, -130039.05, -36922.87, 153457.11, 159735.55, -37304.10, -40383.92, -37286.48, 158330.39, 41421.27, 13197.10, 172734.31, -7428.45, 28536.49, 545.70, 107527.89, -5260.51, 0.000, 0.000, 0.000, 16:38:38.951
130, -130039.05, -36922.87, 153457.11, 159735.55, -37304.10, -40383.92, -37286.48, 158330.39, 41431.93, 13214.13, 172736.69, -7422.92, 28540.92, 541.67, 107555.74, -5241.98, 0.000, 0.000, 0.000, 16:38:38.952
131, -130038.53, -36920.03, 153458.53, 159734.28, -37312.08, -40377.91, -37293.79, 158334.55, 41431.93, 13214.13, 172736.69, -7422.92, 28540.92, 541.67, 107555.74, -5241.98, 0.000, 0.000, 0.000, 16:38:38.952
132, -130038.53, -36920.03, 153458.53, 159734.28, -37312.08, -40377.91, -37293.79, 158334.55, 41427.06, 13209.17, 172732.70, -7428.40, 28543.20, 540.38, 107549.23, -5236.05, 0.000, 0.000, 0.000, 16:38:38.952
133, -130027.34, -36905.75, 153458.47, 159727.91, -37315.14, -40395.34, -37300.50, 158332.98, 41427.06, 13209.17, 172732.70, -7428.40, 28543.20, 540.38, 107549.23, -5236.05, 0.000, 0.000, 0.000, 16:38:38.952
134, -130027.34, -36905.75, 153458.47, 159727.91, -37315.14, -40395.34, -37300.50, 158332.98, 41423.32, 13206.15, 172729.52, -7436.38, 28542.97, 533.27, 107550.96, -5235.76, 0.000, 0.000, 0.000, 16:38:38.953
135, -130019.13, -36891.73, 153461.81, 159721.17, -37307.05, -40400.48, -37303.90, 158325.80, 41423.32, 13206.15, 172729.52, -7436.38, 28542.97, 533.27, 107550.96, -5235.76, 0.000, 0.000, 0.000, 16:38:38.953
136, -130019.13, -36891.73, 153461.81, 159721.17, -37307.05, -40400.48, -37303.90, 158325.80, 41427.39, 13208.50, 172729.98, -7434.03, 28545.70, 529.20, 107566.83, -5244.37, 0.000, 0.000, 0.000, 16:38:38.953
137, -130015.76, -36886.59, 153463.70, 159719.59, -37318.16, -40395.43, -37303.25, 158321.88, 41427.39, 13208.50, 172729.98, -7434.03, 28545.70, 529.20, 107566.83, -5244.37, 0.010, 0.922, -0.186, 16:38:38.953
138, -130015.76, -36886.59, 153463.70, 159719.59, -37318.16, -40395.43, -37303.25, 158321.88, 41430.41, 13197.99, 172740.38, -7422.19, 28553.95, 536.75, 107558.13, -5270.54, 0.000, 0.000, 0.000, 16:38:38.953
139, -130007.80, -36876.53, 153459.86, 159714.34, -37319.28, -40412.40, -37294.67, 158328.05, 41430.41, 13197.99, 172740.38, -7422.19, 28553.95, 536.75, 107558.13, -5270.54, 0.000, 0.000, 0.000, 16:38:38.953
140, -130007.80, -36876.53, 153459.86, 159714.34, -37319.28, -40412.40, -37294.67, 158328.05, 41421.98, 13204.43, 172727.39, -7433.43, 28539.22, 523.37, 107564.91, -5289.03, 0.000, 0.000, 0.000, 16:38:38.954
141, -129995.26, -36863.93, 153460.48, 159714.52, -37317.80, -40401.83, -37296.05, 158331.08, 41421.98, 13204.43, 172727.39, -7433.43, 28539.22, 523.37, 107564.91, -5289.03, 0.000, 0.000, 0.000, 16:38:38.954
142, -129995.26, -36863.93, 153460.48, 159714.52, -37317.80, -40401.83, -37296.05, 158331.08, 41419.28, 13202.17, 172725.38, -7432.58, 28541.08, 520.30, 107558.65, -5312.79, 0.000, 0.000, 0.000, 16:38:38.954
143, -129993.78, -36859.57, 153462.25, 159716.48, -37325.87, -40416.85, -37301.59, 158321.73, 41419.28, 13202.17, 172725.38, -7432.58, 28541.08, 520.30, 107558.65, -5312.79, 0.000, 0.000, 0.000, 16:38:38.955
144, -129993.78, -36859.57, 153462.25, 159716.48, -37325.87, -40416.85, -37301.59, 158321.73, 41423.91, 13202.24, 172725.41, -7424.62, 28552.97, 518.11, 107554.52, -5320.85, 0.000, 0.000, 0.000, 16:38:38.955
145, -130002.34, -36867.79, 153464.97, 159724.64, -37334.81, -40402.97, -37300.37, 158313.75, 41423.91, 13202.24, 172725.41, -7424.62, 28552.97, 518.11, 107554.52, -5320.85, 0.000, 0.000, 0.000, 16:38:38.956
146, -130002.34, -36867.79, 153464.97, 159724.64, -37334.81, -40402.97, -37300.37, 158313.75, 41426.61, 13202.28, 172728.48, -7420.15, 28559.47, 517.98, 107545.26, -5307.27, 0.000, 0.000, 0.000, 16:38:38.956
147, -129994.03, -36859.32, 153458.38, 159723.33, -37316.55, -40405.71, -37302.38, 158321.14, 41426.61, 13202.28, 172728.48, -7420.15, 28559.47, 517.98, 107545.26, -5307.27, 0.014, 0.926, -0.184, 16:38:38.956
148, -129994.03, -36859.32, 153458.38, 159723.33, -37316.55, -40405.71, -37302.38, 158321.14, 41422.16, 13210.93, 172720.84, -7424.65, 28547.71, 519.50, 107556.28, -5302.88, 0.000, 0.000, 0.000, 16:38:38.957
149, -129981.70, -36844.57, 153450.11, 159728.91, -37326.96, -40396.95, -37300.61, 158327.17, 41422.16, 13210.93, 172720.84, -7424.65, 28547.71, 519.50, 107556.28, -5302.88, 0.000, 0.000, 0.000, 16:38:38.957
150, -129981.70, -36844.57, 153450.11, 159728.91, -37326.96, -40396.95, -37300.61, 158327.17, 41422.77, 13213.14, 172721.80, -7417.98, 28540.81, 523.37, 107564.81, -5300.11, 0.000, 0.000, 0.000, 16:38:38.957
151, -129981.38, -36842.25, 153452.81, 159743.16, -37333.71, -40389.31, -37304.84, 158336.06, 41422.77, 13213.14, 172721.80, -7417.98, 28540.81, 523.37, 107564.81, -5300.11, 0.000, 0.000, 0.000, 16:38:38.957
152, -129981.38, -36842.25, 153452.81, 159743.16, -37333.71, -40389.31, -37304.84, 158336.06, 41426.88, 13206.93, 172735.58, -7405.67, 28547.47, 538.57, 107552.79, -5289.58, 0.000, 0.000, 0.000, 16:38:38.957
153, -129990.08, -36850.11, 153457.78, 159749.98, -37324.02, -40386.85, -37303.09, 158340.56, 41426.88, 13206.93, 172735.58, -7405.67, 28547.47, 538.57, 107552.79, -5289.58, 0.000, 0.000, 0.000, 16:38:38.958
154, -129990.08, -36850.11, 153457.78, 159749.98, -37324.02, -40386.85, -37303.09, 158340.56, 41422.50, 13210.28, 172727.50, -7417.83, 28541.01, 529.85, 107550.00, -5273.51, 0.000, 0.000, 0.000, 16:38:38.958
155, -129995.71, -36855.93, 153464.77, 159753.30, -37335.28, -40387.14, -37295.63, 158343.59, 41422.50, 13210.28, 172727.50, -7417.83, 28541.01, 529.85, 107550.00, -5273.51, 0.000, 0.000, 0.000, 16:38:38.958
156, -129995.71, -36855.93, 153464.77, 159753.30, -37335.28, -40387.14, -37295.63, 158343.59, 41419.82, 13212.34, 172720.69, -7423.42, 28542.04, 523.99, 107552.14, -5257.71, 0.000, 0.000, 0.000, 16:38:38.958
157, -129977.58, -36838.64, 153458.00, 159744.47, -37328.80, -40388.02, -37296.25, 158338.48, 41419.82, 13212.34, 172720.69, -7423.42, 28542.04, 523.99, 107552.14, -5257.71, 0.016, 0.932, -0.188, 16:38:38.959
158, -129977.58, -36838.64, 153458.00, 159744.47, -37328.80, -40388.02, -37296.25, 158338.48, 41416.37, 13213.34, 172705.63, -7440.34, 28530.77, 513.29, 107573.66, -5269.18, 0.000, 0.000, 0.000, 16:38:38.959
159, -129936.20, -36797.47, 153444.72, 159727.91, -37327.57, -40412.31, -37301.77, 158325.20, 41416.37, 13213.34, 172705.63, -7440.34, 28530.77, 513.29, 107573.66, -5269.18, 0.000, 0.000, 0.000, 16:38:38.959
160, -129936.20, -36797.47, 153444.72, 159727.91, -37327.57, -40412.31, -37301.77, 158325.20, 41424.60, 13218.11, 172713.91, -7432.83, 28528.71, 506.38, 107602.81, -5281.94, 0.000, 0.000, 0.000, 16:38:38.959
161, -129943.31, -36799.44, 153453.92, 159738.72, -37349.27, -40400.93, -37305.78, 158319.66, 41424.60, 13218.11, 172713.91, -7432.83, 28528.71, 506.38, 107602.81, -5281.94, 0.000, 0.000, 0.000, 16:38:38.959
162, -129943.31, -36799.44, 153453.92, 159738.72, -37349.27, -40400.93, -37305.78, 158319.66, 41426.18, 13196.54, 172725.05, -7421.67, 28537.75, 520.51, 107568.91, -5303.02, 0.000, 0.000, 0.000, 16:38:38.960
163, -129962.23, -36818.22, 153457.61, 159736.47, -37345.56, -40404.31, -37299.70, 158322.97, 41426.18, 13196.54, 172725.05, -7421.67, 28537.75, 520.51, 107568.91, -5303.02, 0.000, 0.000, 0.000, 16:38:38.960
164, -129962.23, -36818.22, 153457.61, 159736.47, -37345.56, -40404.31, -37299.70, 158322.97, 41409.13, 13195.35, 172701.86, -7443.53, 28517.99, 497.57, 107562.27, -5309.01, 0.000, 0.000, 0.000, 16:38:38.960
165, -129939.07, -36797.21, 153453.03, 159733.14, -37333.54, -40406.34, -37305.33, 158328.44, 41409.13, 13195.35, 172701.86, -7443.53, 28517.99, 497.57, 107562.27, -5309.01, 0.000, 0.000, 0.000, 16:38:38.960
166, -129939.07, -36797.21, 153453.03, 159733.14, -37333.54, -40406.34, -37305.33, 158328.44, 41417.76, 13192.49, 172708.75, -7432.51, 28530.35, 504.46, 107557.04, -5317.64, 0.000, 0.000, 0.000, 16:38:38.961
167, -129942.98, -36799.60, 153453.55, 159735.80, -37334.18, -40403.79, -37304.10, 158332.16, 41417.76, 13192.49, 172708.75, -7432.51, 28530.35, 504.46, 107557.04, -5317.64, 0.022, 0.928, -0.192, 16:38:38.961
168, -129942.98, -36799.60, 153453.55, 159735.80, -37334.18, -40403.79, -37304.10, 158332.16, 41416.04, 13185.50, 172705.08, -7432.94, 28525.54, 509.73, 107548.97, -5320.12, 0.000, 0.000, 0.000, 16:38:38.961
169, -129958.05, -36814.53, 153456.81, 159748.16, -37342.50, -40385.18, -37310.31, 158336.72, 41416.04, 13185.50, 172705.08, -7432.94, 28525.54, 509.73, 107548.97, -5320.12, 0.000, 0.000, 0.000, 16:38:38.962
170, -129958.05, -36814.53, 153456.81, 159748.16, -37342.50, -40385.18, -37310.31, 158336.72, 41413.60, 13188.11, 172697.91, -7433.63, 28522.03, 503.92, 107542.35, -5307.98, 0.000, 0.000, 0.000, 16:38:38.962
171, -129954.71, -36811.02, 153452.66, 159749.72, -37333.56, -40396.11, -37313.96, 158336.33, 41413.60, 13188.11, 172697.91, -7433.63, 28522.03, 503.92, 107542.35, -5307.98, 0.000, 0.000, 0.000, 16:38:38.962
172, -129954.71, -36811.02, 153452.66, 159749.72, -37333.56, -40396.11, -37313.96, 158336.33, 41413.22, 13193.03, 172693.11, -7431.04, 28519.51, 511.56, 107536.43, -5311.67, 0.000, 0.000, 0.000, 16:38:38.962
173, -129940.25, -36795.08, 153450.63, 159749.50, -37333.83, -40389.64, -37311.36, 158340.02, 41413.22, 13193.03, 172693.11, -7431.04, 28519.51, 511.56, 107536.43, -5311.67, 0.000, 0.000, 0.000, 16:38:38.963
174, -129940.25, -36795.08, 153450.63, 159749.50, -37333.83, -40389.64, -37311.36, 158340.02, 41412.17, 13207.22, 172687.66, -7435.15, 28510.21, 511.23, 107553.46, -5295.89, 0.000, 0.000, 0.000, 16:38:38.963
175, -129923.58, -36779.79, 153451.25, 159751.22, -37345.32, -40386.49, -37307.65, 158340.20, 41412.17, 13207.22, 172687.66, -7435.15, 28510.21, 511.23, 107553.46, -5295.89, 0.000, 0.000, 0.000, 16:38:38.963
176, -129923.58, -36779.79, 153451.25, 159751.22, -37345.32, -40386.49, -37307.65, 158340.20, 41415.21, 13207.96, 172693.17, -7429.14, 28516.15, 504.93, 107553.08, -5300.56, 0.000, 0.000, 0.000, 16:38:38.963
177, -129928.59, -36786.03, 153451.61, 159754.30, -37354.30, -40380.64, -37312.91, 158342.20, 41415.21, 13207.96, 172693.17, -7429.14, 28516.15, 504.93, 107553.08, -5300.56, 0.018, 0.926, -0.192, 16:38:38.964
178, -129928.59, -36786.03, 153451.61, 159754.30, -37354.30, -40380.64, -37312.91, 158342.20, 41416.53, 13204.02, 172690.20, -7429.09, 28516.47, 508.21, 107545.44, -5302.91, 0.000, 0.000, 0.000, 16:38:38.964
179, -129929.08, -36782.86, 153453.28, 159750.97, -37360.16, -40378.25, -37310.31, 158351.27, 41416.53, 13204.02, 172690.20, -7429.09, 28516.47, 508.21, 107545.44, -5302.91, 0.000, 0.000, 0.000, 16:38:38.964
180, -129929.08, -36782.86, 153453.28, 159750.97, -37360.16, -40378.25, -37310.31, 158351.27, 41416.24, 13201.74, 172682.64, -7436.78, 28513.22, 500.14, 107547.52, -5314.04, 0.000, 0.000, 0.000, 16:38:38.965
181, -129934.64, -36784.44, 153451.06, 159742.75, -37350.81, -40404.42, -37321.45, 158349.70, 41416.24, 13201.74, 172682.64, -7436.78, 28513.22, 500.14, 107547.52, -5314.04, 0.000, 0.000, 0.000, 16:38:38.965
182, -129934.64, -36784.44, 153451.06, 159742.75, -37350.81, -40404.42, -37321.45, 158349.70, 41418.90, 13196.38, 172678.03, -7433.94, 28514.92, 505.62, 107545.70, -5328.57, 0.000, 0.000, 0.000, 16:38:38.965
183, -129916.63, -36766.74, 153445.86, 159732.73, -37332.29, -40406.77, -37319.99, 158348.02, 41418.90, 13196.38, 172678.03, -7433.94, 28514.92, 505.62, 107545.70, -5328.57, 0.000, 0.000, 0.000, 16:38:38.965
184, -129916.63, -36766.74, 153445.86, 159732.73, -37332.29, -40406.77, -37319.99, 158348.02, 41419.46, 13206.89, 172675.83, -7434.64, 28512.76, 490.78, 107561.71, -5342.74, 0.000, 0.000, 0.000, 16:38:38.966
185, -129914.03, -36769.11, 153452.16, 159737.34, -37336.31, -40415.80, -37326.23, 158336.73, 41419.46, 13206.89, 172675.83, -7434.64, 28512.76, 490.78, 107561.71, -5342.74, 0.000, 0.000, 0.000, 16:38:38.966
186, -129914.03, -36769.11, 153452.16, 159737.34, -37336.31, -40415.80, -37326.23, 158336.73, 41422.30, 13198.37, 172684.31, -7426.12, 28523.53, 497.95, 107545.23, -5351.92, 0.000, 0.000, 0.000, 16:38:38.966
187, -129927.73, -36783.08, 153452.50, 159742.44, -37343.73, -40399.82, -37320.48, 158343.16, 41422.30, 13198.37, 172684.31, -7426.12, 28523.53, 497.95, 107545.23, -5351.92, 0.020, 0.924, -0.188, 16:38:38.966
188, -129927.73, -36783.08, 153452.50, 159742.44, -37343.73, -40399.82, -37320.48, 158343.16, 41416.95, 13190.93, 172678.80, -7428.67, 28518.68, 499.25, 107536.48, -5354.00, 0.000, 0.000, 0.000, 16:38:38.967
189, -129924.72, -36778.36, 153451.78, 159750.59, -37346.86, -40394.34, -37318.85, 158344.11, 41416.95, 13190.93, 172678.80, -7428.67, 28518.68, 499.25, 107536.48, -5354.00, 0.000, 0.000, 0.000, 16:38:38.967
190, -129924.72, -36778.36, 153451.78, 159750.59, -37346.86, -40394.34, -37318.85, 158344.11, 41413.78, 13196.96, 172668.66, -7427.69, 28507.23, 507.54, 107541.88, -5344.06, 0.000, 0.000, 0.000, 16:38:38.967
191, -129920.20, -36774.56, 153448.05, 159757.23, -37361.50, -40392.46, -37326.92, 158337.45, 41413.78, 13196.96, 172668.66, -7427.69, 28507.23, 507.54, 107541.88, -5344.06, 0.000, 0.000, 0.000, 16:38:38.967
192, -129920.20, -36774.56, 153448.05, 159757.23, -37361.50, -40392.46, -37326.92, 158337.45, 41424.60, 13193.07, 172682.48, -7410.65, 28520.04, 519.63, 107528.85, -5331.94, 0.000, 0.000, 0.000, 16:38:38.968
193, -129946.11, -36799.96, 153455.45, 159766.05, -37354.59, -40381.53, -37316.93, 158348.09, 41424.60, 13193.07, 172682.48, -7410.65, 28520.04, 519.63, 107528.85, -5331.94, 0.000, 0.000, 0.000, 16:38:38.968
194, -129946.11, -36799.96, 153455.45, 159766.05, -37354.59, -40381.53, -37316.93, 158348.09, 41415.08, 13200.29, 172669.08, -7423.28, 28505.67, 507.81, 107525.73, -5322.96, 0.000, 0.000, 0.000, 16:38:38.968
195, -129925.86, -36778.09, 153448.03, 159756.67, -37331.48, -40386.20, -37319.14, 158345.41, 41415.08, 13200.29, 172669.08, -7423.28, 28505.67, 507.81, 107525.73, -5322.96, 0.000, 0.000, 0.000, 16:38:38.968
196, -129925.86, -36778.09, 153448.03, 159756.67, -37331.48, -40386.20, -37319.14, 158345.41, 41421.52, 13213.61, 172671.47, -7419.75, 28509.43, 503.54, 107543.42, -5318.53, 0.000, 0.000, 0.000, 16:38:38.969
197, -129930.24, -36778.74, 153445.23, 159754.34, -37344.55, -40385.02, -37317.29, 158339.64, 41421.52, 13213.61, 172671.47, -7419.75, 28509.43, 503.54, 107543.42, -5318.53, 0.018, 0.930, -0.182, 16:38:38.969
198, -129930.24, -36778.74, 153445.23, 159754.34, -37344.55, -40385.02, -37317.29, 158339.64, 41421.76, 13205.01, 172670.91, -7425.41, 28510.19, 497.33, 107536.54, -5323.69, 0.000, 0.000, 0.000, 16:38:38.969
199, -129942.20, -36787.26, 153445.97, 159754.69, -37347.84, -40386.49, -37318.34, 158343.50, 41421.76, 13205.01, 172670.91, -7425.41, 28510.19, 497.33, 107536.54, -5323.69, 0.000, 0.000, 0.000, 16:38:38.969
200, -129942.20, -36787.26, 153445.97, 159754.69, -37347.84, -40386.49, -37318.34, 158343.50, 41419.12, 13200.16, 172669.77, -7425.38, 28506.97, 502.67, 107523.84, -5328.88, 0.000, 0.000, 0.000, 16:38:38.970
201, -129948.68, -36789.07, 153443.53, 159755.22, -37340.29, -40391.64, -37314.36, 158352.84, 41419.12, 13200.16, 172669.77, -7425.38, 28506.97, 502.67, 107523.84, -5328.88, 0.000, 0.000, 0.000, 16:38:38.970
202, -129948.68, -36789.07, 153443.53, 159755.22, -37340.29, -40391.64, -37314.36, 158352.84, 41416.04, 13199.82, 172660.06, -7436.65, 28500.28, 492.86, 107530.87, -5328.37, 0.000, 0.000, 0.000, 16:38:38.970
203, -129923.76, -36764.89, 153438.03, 159749.98, -37336.91, -40397.40, -37318.00, 158359.72, 41416.04, 13199.82, 172660.06, -7436.65, 28500.28, 492.86, 107530.87, -5328.37, 0.000, 0.000, 0.000, 16:38:38.970
204, -129923.76, -36764.89, 153438.03, 159749.98, -37336.91, -40397.40, -37318.00, 158359.72, 41422.86, 13199.04, 172666.28, -7428.69, 28502.99, 505.24, 107541.28, -5330.71, 0.000, 0.000, 0.000, 16:38:38.971
205, -129947.09, -36781.87, 153449.22, 159758.63, -37356.04, -40389.87, -37318.79, 158360.63, 41422.86, 13199.04, 172666.28, -7428.69, 28502.99, 505.24, 107541.28, -5330.71, 0.000, 0.000, 0.000, 16:38:38.971
206, -129947.09, -36781.87, 153449.22, 159758.63, -37356.04, -40389.87, -37318.79, 158360.63, 41418.47, 13198.30, 172659.83, -7432.27, 28502.52, 502.62, 107524.25, -5338.16, 0.000, 0.000, 0.000, 16:38:38.971
207, -129932.67, -36769.51, 153442.73, 159745.47, -37349.72, -40394.54, -37314.74, 158360.55, 41418.47, 13198.30, 172659.83, -7432.27, 28502.52, 502.62, 107524.25, -5338.16, 0.016, 0.930, -0.186, 16:38:38.972
208, -129932.67, -36769.51, 153442.73, 159745.47, -37349.72, -40394.54, -37314.74, 158360.55, 41420.60, 13199.80, 172655.00, -7438.01, 28499.10, 495.67, 107538.44, -5340.41, 0.000, 0.000, 0.000, 16:38:38.972
209, -129910.10, -36750.71, 153440.98, 159742.80, -37346.99, -40391.03, -37319.45, 158359.63, 41420.60, 13199.80, 172655.00, -7438.01, 28499.10, 495.67, 107538.44, -5340.41, 0.000, 0.000, 0.000, 16:38:38.972
210, -129910.10, -36750.71, 153440.98, 159742.80, -37346.99, -40391.03, -37319.45, 158359.63, 41426.81, 13197.92, 172661.05, -7431.82, 28502.27, 490.22, 107549.73, -5342.83, 0.000, 0.000, 0.000, 16:38:38.972
211, -129927.84, -36765.22, 153451.83, 159759.28, -37360.00, -40389.09, -37322.76, 158361.56, 41426.81, 13197.92, 172661.05, -7431.82, 28502.27, 490.22, 107549.73, -5342.83, 0.000, 0.000, 0.000, 16:38:38.973
212, -129927.84, -36765.22, 153451.83, 159759.28, -37360.00, -40389.09, -37322.76, 158361.56, 41417.76, 13181.14, 172654.88, -7433.63, 28495.66, 492.57, 107533.88, -5346.36, 0.000, 0.000, 0.000, 16:38:38.973
213, -129927.94, -36761.33, 153451.69, 159769.44, -37359.35, -40388.71, -37319.90, 158365.41, 41417.76, 13181.14, 172654.88, -7433.63, 28495.66, 492.57, 107533.88, -5346.36, 0.000, 0.000, 0.000, 16:38:38.973
214, -129927.94, -36761.33, 153451.69, 159769.44, -37359.35, -40388.71, -37319.90, 158365.41, 41413.63, 13178.05, 172645.97, -7436.65, 28484.77, 493.41, 107538.58, -5342.36, 0.000, 0.000, 0.000, 16:38:38.974
215, -129922.95, -36753.75, 153446.58, 159773.75, -37380.45, -40389.27, -37328.04, 158362.08, 41413.63, 13178.05, 172645.97, -7436.65, 28484.77, 493.41, 107538.58, -5342.36, 0.000, 0.000, 0.000, 16:38:38.974
216, -129922.95, -36753.75, 153446.58, 159773.75, -37380.45, -40389.27, -37328.04, 158362.08, 41409.27, 13181.65, 172634.86, -7445.50, 28475.88, 489.35, 107548.23, -5340.32, 0.000, 0.000, 0.000, 16:38:38.974
217, -129899.33, -36730.42, 153442.03, 159777.78, -37372.54, -40388.21, -37324.80, 158362.16, 41409.27, 13181.65, 172634.86, -7445.50, 28475.88, 489.35, 107548.23, -5340.32, 0.018, 0.932, -0.172, 16:38:38.974
218, -129899.33, -36730.42, 153442.03, 159777.78, -37372.54, -40388.21, -37324.80, 158362.16, 41419.30, 13192.00, 172649.72, -7425.56, 28487.34, 507.21, 107552.30, -5346.05, 0.000, 0.000, 0.000, 16:38:38.975
219, -129924.80, -36753.38, 153448.67, 159785.34, -37385.44, -40368.93, -37326.85, 158370.33, 41419.30, 13192.00, 172649.72, -7425.56, 28487.34, 507.21, 107552.30, -5346.05, 0.000, 0.000, 0.000, 16:38:38.975
220, -129924.80, -36753.38, 153448.67, 159785.34, -37385.44, -40368.93, -37326.85, 158370.33, 41410.90, 13193.65, 172637.25, -7433.74, 28475.07, 500.75, 107529.12, -5350.31, 0.000, 0.000, 0.000, 16:38:38.975
221, -129911.87, -36737.68, 153438.34, 159775.89, -37375.63, -40383.68, -37327.57, 158368.36, 41410.90, 13193.65, 172637.25, -7433.74, 28475.07, 500.75, 107529.12, -5350.31, 0.000, 0.000, 0.000, 16:38:38.976
222, -129911.87, -36737.68, 153438.34, 159775.89, -37375.63, -40383.68, -37327.57, 158368.36, 41419.28, 13207.76, 172635.30, -7436.51, 28475.74, 504.48, 107551.20, -5337.40, 0.000, 0.000, 0.000, 16:38:38.976
223, -129924.43, -36746.94, 153443.64, 159780.13, -37368.36, -40382.20, -37332.29, 158367.33, 41419.28, 13207.76, 172635.30, -7436.51, 28475.74, 504.48, 107551.20, -5337.40, 0.000, 0.000, 0.000, 16:38:38.976
224, -129924.43, -36746.94, 153443.64, 159780.13, -37368.36, -40382.20, -37332.29, 158367.33, 41418.99, 13204.16, 172633.30, -7432.85, 28477.55, 503.34, 107541.41, -5331.87, 0.000, 0.000, 0.000, 16:38:38.976
225, -129924.59, -36747.41, 153439.36, 159777.91, -37378.24, -40393.27, -37329.45, 158375.47, 41418.99, 13204.16, 172633.30, -7432.85, 28477.55, 503.34, 107541.41, -5331.87, 0.000, 0.000, 0.000, 16:38:38.977
226, -129924.59, -36747.41, 153439.36, 159777.91, -37378.24, -40393.27, -37329.45, 158375.47, 41429.79, 13199.96, 172643.39, -7419.10, 28484.62, 520.71, 107534.77, -5326.78, 0.014, 0.932, -0.178, 16:38:39.426
227, -129941.59, -36766.09, 153441.33, 159779.14, -37375.94, -40388.55, -37324.57, 158387.73, 41429.79, 13199.96, 172643.39, -7419.10, 28484.62, 520.71, 107534.77, -5326.78, 0.000, 0.000, 0.000, 16:38:39.427
228, -129941.59, -36766.09, 153441.33, 159779.14, -37375.94, -40388.55, -37324.57, 158387.73, 41416.48, 13202.12, 172616.66, -7441.43, 28462.80, 489.75, 107539.94, -5328.54, 0.000, 0.000, 0.000, 16:38:39.427
229, -129900.51, -36726.84, 153427.70, 159768.50, -37362.10, -40397.09, -37323.63, 158379.72, 41416.48, 13202.12, 172616.66, -7441.43, 28462.80, 489.75, 107539.94, -5328.54, 0.000, 0.000, 0.000, 16:38:39.427
230, -129900.51, -36726.84, 153427.70, 159768.50, -37362.10, -40397.09, -37323.63, 158379.72, 41427.86, 13214.37, 172622.47, -7435.20, 28471.29, 495.02, 107576.59, -5335.96, 0.000, 0.000, 0.000, 16:38:39.427
231, -129912.60, -36736.66, 153434.11, 159775.77, -37384.77, -40390.38, -37331.75, 158372.45, 41427.86, 13214.37, 172622.47, -7435.20, 28471.29, 495.02, 107576.59, -5335.96, 0.000, 0.000, 0.000, 16:38:39.428
232, -129912.60, -36736.66, 153434.11, 159775.77, -37384.77, -40390.38, -37331.75, 158372.45, 41425.85, 13208.88, 172624.50, -7434.10, 28476.30, 499.87, 107564.10, -5334.69, 0.000, 0.000, 0.000, 16:38:39.428
233, -129901.45, -36721.68, 153432.84, 159769.02, -37370.91, -40392.73, -37326.27, 158371.31, 41425.85, 13208.88, 172624.50, -7434.10, 28476.30, 499.87, 107564.10, -5334.69, 0.000, 0.000, 0.000, 16:38:39.428
234, -129901.45, -36721.68, 153432.84, 159769.02, -37370.91, -40392.73, -37326.27, 158371.31, 41426.92, 13204.14, 172629.48, -7433.43, 28472.17, 499.92, 107567.77, -5335.12, 0.000, 0.000, 0.000, 16:38:39.429
235, -129898.08, -36718.89, 153439.56, 159767.22, -37366.37, -40393.51, -37325.60, 158374.67, 41426.92, 13204.14, 172629.48, -7433.43, 28472.17, 499.92, 107567.77, -5335.12, 0.000, 0.000, 0.000, 16:38:39.429
236, -129898.08, -36718.89, 153439.56, 159767.22, -37366.37, -40393.51, -37325.60, 158374.67, 41424.15, 13204.40, 172619.31, -7444.27, 28463.80, 487.27, 107584.48, -5333.62, 0.018, 0.932, -0.180, 16:38:39.429
237, -129878.54, -36698.61, 153436.58, 159762.44, -37371.29, -40394.45, -37334.88, 158371.64, 41424.15, 13204.40, 172619.31, -7444.27, 28463.80, 487.27, 107584.48, -5333.62, 0.000, 0.000, 0.000, 16:38:39.429
238, -129878.54, -36698.61, 153436.58, 159762.44, -37371.29, -40394.45, -37334.88, 158371.64, 41432.15, 13201.95, 172634.47, -7430.08, 28475.94, 504.93, 107592.78, -5331.94, 0.000, 0.000, 0.000, 16:38:39.430
239, -129905.74, -36722.93, 153443.06, 159768.92, -37387.00, -40397.20, -37332.71, 158367.45, 41432.15, 13201.95, 172634.47, -7430.08, 28475.94, 504.93, 107592.78, -5331.94, 0.000, 0.000, 0.000, 16:38:39.430
240, -129905.74, -36722.93, 153443.06, 159768.92, -37387.00, -40397.20, -37332.71, 158367.45, 41422.00, 13196.45, 172623.25, -7437.25, 28464.92, 488.77, 107571.37, -5344.15, 0.000, 0.000, 0.000, 16:38:39.430
241, -129913.92, -36729.23, 153441.88, 159766.05, -37379.94, -40394.43, -37330.16, 158361.20, 41422.00, 13196.45, 172623.25, -7437.25, 28464.92, 488.77, 107571.37, -5344.15, 0.000, 0.000, 0.000, 16:38:39.431
242, -129913.92, -36729.23, 153441.88, 159766.05, -37379.94, -40394.43, -37330.16, 158361.20, 41421.94, 13194.17, 172623.80, -7436.34, 28468.05, 499.25, 107561.17, -5342.45, 0.000, 0.000, 0.000, 16:38:39.431
243, -129923.09, -36738.09, 153438.78, 159767.11, -37370.82, -40397.43, -37325.22, 158360.09, 41421.94, 13194.17, 172623.80, -7436.34, 28468.05, 499.25, 107561.17, -5342.45, 0.000, 0.000, 0.000, 16:38:39.431
244, -129923.09, -36738.09, 153438.78, 159767.11, -37370.82, -40397.43, -37325.22, 158360.09, 41421.94, 13185.07, 172622.77, -7437.59, 28468.57, 488.12, 107550.63, -5346.29, 0.000, 0.000, 0.000, 16:38:39.431
245, -129955.34, -36767.37, 153442.78, 159772.64, -37378.44, -40396.86, -37321.51, 158360.72, 41421.94, 13185.07, 172622.77, -7437.59, 28468.57, 488.12, 107550.63, -5346.29, 0.000, 0.000, 0.000, 16:38:39.432
246, -129955.34, -36767.37, 153442.78, 159772.64, -37378.44, -40396.86, -37321.51, 158360.72, 41414.07, 13187.35, 172606.61, -7447.80, 28458.96, 479.44, 107544.37, -5350.45, 0.014, 0.930, -0.186, 16:38:39.432
247, -129942.31, -36749.29, 153433.34, 159764.25, -37376.47, -40399.26, -37318.32, 158370.27, 41414.07, 13187.35, 172606.61, -7447.80, 28458.96, 479.44, 107544.37, -5350.45, 0.000, 0.000, 0.000, 16:38:39.432
248, -129942.31, -36749.29, 153433.34, 159764.25, -37376.47, -40399.26, -37318.32, 158370.27, 41419.50, 13204.27, 172600.83, -7448.92, 28448.88, 480.43, 107585.54, -5331.20, 0.000, 0.000, 0.000, 16:38:39.432
249, -129907.62, -36712.02, 153428.58, 159760.92, -37383.36, -40407.32, -37322.79, 158378.91, 41419.50, 13204.27, 172600.83, -7448.92, 28448.88, 480.43, 107585.54, -5331.20, 0.000, 0.000, 0.000, 16:38:39.433
250, -129907.62, -36712.02, 153428.58, 159760.92, -37383.36, -40407.32, -37322.79, 158378.91, 41429.27, 13217.44, 172609.34, -7436.27, 28457.17, 495.09, 107617.39, -5325.79, 0.000, 0.000, 0.000, 16:38:39.433
251, -129905.07, -36709.79, 153429.98, 159768.50, -37408.46, -40394.36, -37324.21, 158383.05, 41429.27, 13217.44, 172609.34, -7436.27, 28457.17, 495.09, 107617.39, -5325.79, 0.000, 0.000, 0.000, 16:38:39.433
252, -129905.07, -36709.79, 153429.98, 159768.50, -37408.46, -40394.36, -37324.21, 158383.05, 41433.90, 13219.04, 172610.80, -7429.81, 28463.94, 505.71, 107610.05, -5321.75, 0.000, 0.000, 0.000, 16:38:39.433
253, -129913.14, -36717.77, 153428.58, 159767.33, -37392.88, -40395.86, -37318.83, 158379.58, 41433.90, 13219.04, 172610.80, -7429.81, 28463.94, 505.71, 107610.05, -5321.75, 0.000, 0.000, 0.000, 16:38:39.433
254, -129913.14, -36717.77, 153428.58, 159767.33, -37392.88, -40395.86, -37318.83, 158379.58, 41432.46, 13217.90, 172599.03, -7443.56, 28455.31, 496.28, 107613.38, -5324.79, 0.000, 0.000, 0.000, 16:38:39.434
255, -129918.21, -36721.81, 153428.72, 159768.28, -37399.99, -40405.14, -37330.86, 158381.17, 41432.46, 13217.90, 172599.03, -7443.56, 28455.31, 496.28, 107613.38, -5324.79, 0.000, 0.000, 0.000, 16:38:39.434
0, -129918.21, -36721.81, 153428.72, 159768.28, -37399.99, -40405.14, -37330.86, 158381.17, 41437.09, 13213.64, 172605.55, -7435.46, 28467.56, 493.41, 107605.88, -5324.48, 0.014, 0.928, -0.188, 16:38:39.434
1, -129934.38, -36737.15, 153433.97, 159773.28, -37400.84, -40390.09, -37340.44, 158385.86, 41437.09, 13213.64, 172605.55, -7435.46, 28467.56, 493.41, 107605.88, -5324.48, 0.000, 0.000, 0.000, 16:38:39.434
2, -129934.38, -36737.15, 153433.97, 159773.28, -37400.84, -40390.09, -37340.44, 158385.86, 41430.57, 13214.19, 172596.59, -7440.23, 28460.47, 493.10, 107598.66, -5321.26, 0.000, 0.000, 0.000, 16:38:39.434
3, -129929.45, -36735.18, 153434.28, 159763.83, -37389.59, -40399.39, -37350.43, 158384.98, 41430.57, 13214.19, 172596.59, -7440.23, 28460.47, 493.10, 107598.66, -5321.26, 0.000, 0.000, 0.000, 16:38:39.435
4, -129929.45, -36735.18, 153434.28, 159763.83, -37389.59, -40399.39, -37350.43, 158384.98, 41432.38, 13209.34, 172593.22, -7443.87, 28460.56, 489.66, 107603.95, -5330.38, 0.000, 0.000, 0.000, 16:38:39.435
5, -129923.17, -36729.52, 153431.83, 159754.13, -37380.09, -40400.71, -37348.67, 158385.89, 41432.38, 13209.34, 172593.22, -7443.87, 28460.56, 489.66, 107603.95, -5330.38, 0.000, 0.000, 0.000, 16:38:39.435
6, -129923.17, -36729.52, 153431.83, 159754.13, -37380.09, -40400.71, -37348.67, 158385.89, 41431.77, 13205.10, 172581.44, -7449.97, 28456.52, 483.92, 107617.14, -5334.96, 0.000, 0.000, 0.000, 16:38:39.435
7, -129908.78, -36718.08, 153427.53, 159756.00, -37385.39, -40414.88, -37354.35, 158374.70, 41431.77, 13205.10, 172581.44, -7449.97, 28456.52, 483.92, 107617.14, -5334.96, 0.000, 0.000, 0.000, 16:38:39.436
8, -129908.78, -36718.08, 153427.53, 159756.00, -37385.39, -40414.88, -37354.35, 158374.70, 41441.05, 13209.63, 172591.48, -7435.53, 28461.97, 486.28, 107630.10, -5330.24, 0.000, 0.000, 0.000, 16:38:39.436
9, -129932.16, -36743.43, 153437.92, 159772.25, -37394.07, -40395.70, -37346.16, 158373.48, 41441.05, 13209.63, 172591.48, -7435.53, 28461.97, 486.28, 107630.10, -5330.24, 0.000, 0.000, 0.000, 16:38:39.436
10, -129932.16, -36743.43, 153437.92, 159772.25, -37394.07, -40395.70, -37346.16, 158373.48, 41442.14, 13216.97, 172596.80, -7422.21, 28467.67, 492.92, 107616.45, -5328.81, 0.016, 0.922, -0.188, 16:38:39.437
11, -129950.29, -36763.50, 153442.66, 159773.39, -37390.91, -40384.62, -37337.11, 158379.92, 41442.14, 13216.97, 172596.80, -7422.21, 28467.67, 492.92, 107616.45, -5328.81, 0.000, 0.000, 0.000, 16:38:39.437
12, -129950.29, -36763.50, 153442.66, 159773.39, -37390.91, -40384.62, -37337.11, 158379.92, 41446.50, 13217.66, 172604.52, -7411.73, 28475.36, 498.65, 107601.90, -5333.10, 0.000, 0.000, 0.000, 16:38:39.437
13, -129964.64, -36776.35, 153439.33, 159773.55, -37382.73, -40402.21, -37329.18, 158394.25, 41446.50, 13217.66, 172604.52, -7411.73, 28475.36, 498.65, 107601.90, -5333.10, 0.000, 0.000, 0.000, 16:38:39.438
14, -129964.64, -36776.35, 153439.33, 159773.55, -37382.73, -40402.21, -37329.18, 158394.25, 41434.61, 13217.23, 172580.63, -7427.66, 28451.78, 480.83, 107616.72, -5334.24, 0.000, 0.000, 0.000, 16:38:39.438
15, -129951.92, -36761.33, 153427.00, 159768.28, -37396.52, -40405.34, -37337.25, 158397.42, 41434.61, 13217.23, 172580.63, -7427.66, 28451.78, 480.83, 107616.72, -5334.24, 0.000, 0.000, 0.000, 16:38:39.438
16, -129951.92, -36761.33, 153427.00, 159768.28, -37396.52, -40405.34, -37337.25, 158397.42, 41439.86, 13214.89, 172583.00, -7425.61, 28451.56, 482.51, 107628.25, -5341.69, 0.000, 0.000, 0.000, 16:38:39.438
17, -129948.41, -36755.52, 153422.75, 159766.84, -37395.29, -40402.57, -37337.38, 158398.27, 41439.86, 13214.89, 172583.00, -7425.61, 28451.56, 482.51, 107628.25, -5341.69, 0.000, 0.000, 0.000, 16:38:39.439
18, -129948.41, -36755.52, 153422.75, 159766.84, -37395.29, -40402.57, -37337.38, 158398.27, 41434.07, 13216.36, 172573.25, -7434.73, 28438.84, 479.74, 107640.72, -5343.79, 0.000, 0.000, 0.000, 16:38:39.439
19, -129934.15, -36739.41, 153423.42, 159766.00, -37396.77, -40401.83, -37338.54, 158402.97, 41434.07, 13216.36, 172573.25, -7434.73, 28438.84, 479.74, 107640.72, -5343.79, 0.000, 0.000, 0.000, 16:38:39.439
20, -129934.15, -36739.41, 153423.42, 159766.00, -37396.77, -40401.83, -37338.54, 158402.97, 41440.82, 13219.42, 172580.03, -7424.11, 28443.35, 492.57, 107645.73, -5329.17, 0.014, 0.930, -0.184, 16:38:39.440
21, -129953.41, -36759.59, 153428.89, 159776.02, -37410.92, -40387.12, -37337.05, 158411.33, 41440.82, 13219.42, 172580.03, -7424.11, 28443.35, 492.57, 107645.73, -5329.17, 0.000, 0.000, 0.000, 16:38:39.440
22, -129953.41, -36759.59, 153428.89, 159776.02, -37410.92, -40387.12, -37337.05, 158411.33, 41437.16, 13210.39, 172577.92, -7419.71, 28447.67, 486.26, 107625.84, -5326.93, 0.000, 0.000, 0.000, 16:38:39.440
23, -129960.23, -36769.89, 153433.48, 159777.89, -37389.71, -40388.08, -37331.48, 158412.17, 41437.16, 13210.39, 172577.92, -7419.71, 28447.67, 486.26, 107625.84, -5326.93, 0.000, 0.000, 0.000, 16:38:39.441
24, -129960.23, -36769.89, 153433.48, 159777.89, -37389.71, -40388.08, -37331.48, 158412.17, 41427.41, 13212.09, 172558.09, -7434.70, 28433.38, 472.87, 107638.71, -5320.72, 0.000, 0.000, 0.000, 16:38:39.441
25, -129952.08, -36764.10, 153431.06, 159774.00, -37392.52, -40392.11, -37342.45, 158410.00, 41427.41, 13212.09, 172558.09, -7434.70, 28433.38, 472.87, 107638.71, -5320.72, 0.000, 0.000, 0.000, 16:38:39.441
26, -129952.08, -36764.10, 153431.06, 159774.00, -37392.52, -40392.11, -37342.45, 158410.00, 41435.93, 13204.56, 172579.48, -7410.59, 28451.71, 492.05, 107616.98, -5336.32, 0.000, 0.000, 0.000, 16:38:39.441
27, -129976.48, -36783.44, 153437.09, 159773.08, -37385.95, -40383.79, -37337.65, 158419.70, 41435.93, 13204.56, 172579.48, -7410.59, 28451.71, 492.05, 107616.98, -5336.32, 0.000, 0.000, 0.000, 16:38:39.442
28, -129976.48, -36783.44, 153437.09, 159773.08, -37385.95, -40383.79, -37337.65, 158419.70, 41426.79, 13207.76, 172562.17, -7429.21, 28432.63, 477.21, 107615.40, -5342.31, 0.000, 0.000, 0.000, 16:38:39.442
29, -129984.45, -36789.70, 153437.97, 159771.31, -37396.84, -40396.15, -37345.41, 158406.56, 41426.79, 13207.76, 172562.17, -7429.21, 28432.63, 477.21, 107615.40, -5342.31, 0.000, 0.000, 0.000, 16:38:39.442
30, -129984.45, -36789.70, 153437.97, 159771.31, -37396.84, -40396.15, -37345.41, 158406.56, 41423.21, 13204.61, 172556.13, -7432.78, 28430.01, 481.43, 107612.60, -5347.99, 0.016, 0.926, -0.184, 16:38:39.442
31, -129968.80, -36773.18, 153436.67, 159772.97, -37388.72, -40393.04, -37340.69, 158409.72, 41423.21, 13204.61, 172556.13, -7432.78, 28430.01, 481.43, 107612.60, -5347.99, 0.000, 0.000, 0.000, 16:38:39.443
32, -129968.80, -36773.18, 153436.67, 159772.97, -37388.72, -40393.04, -37340.69, 158409.72, 41429.09, 13209.10, 172569.55, -7421.83, 28438.06, 485.01, 107618.64, -5356.10, 0.000, 0.000, 0.000, 16:38:39.443
33, -129979.86, -36783.35, 153440.30, 159782.52, -37399.54, -40393.11, -37340.53, 158408.89, 41429.09, 13209.10, 172569.55, -7421.83, 28438.06, 485.01, 107618.64, -5356.10, 0.000, 0.000, 0.000, 16:38:39.443
34, -129979.86, -36783.35, 153440.30, 159782.52, -37399.54, -40393.11, -37340.53, 158408.89, 41420.22, 13211.07, 172550.59, -7433.21, 28420.33, 480.38, 107626.10, -5351.03, 0.000, 0.000, 0.000, 16:38:39.443
35, -129953.71, -36754.45, 153430.14, 159779.27, -37395.90, -40388.48, -37344.78, 158407.50, 41420.22, 13211.07, 172550.59, -7433.21, 28420.33, 480.38, 107626.10, -5351.03, 0.000, 0.000, 0.000, 16:38:39.444
36, -129953.71, -36754.45, 153430.14, 159779.27, -37395.90, -40388.48, -37344.78, 158407.50, 41426.77, 13221.15, 172554.36, -7424.13, 28425.03, 487.31, 107650.27, -5346.63, 0.000, 0.000, 0.000, 16:38:39.444
37, -129959.25, -36759.61, 153433.97, 159783.45, -37396.23, -40398.56, -37352.82, 158409.11, 41426.77, 13221.15, 172554.36, -7424.13, 28425.03, 487.31, 107650.27, -5346.63, 0.000, 0.000, 0.000, 16:38:39.444
38, -129959.25, -36759.61, 153433.97, 159783.45, -37396.23, -40398.56, -37352.82, 158409.11, 41430.36, 13217.06, 172562.50, -7417.09, 28434.26, 501.91, 107639.07, -5350.58, 0.000, 0.000, 0.000, 16:38:39.445
39, -129983.97, -36782.54, 153442.38, 159789.73, -37402.20, -40384.48, -37343.91, 158421.94, 41430.36, 13217.06, 172562.50, -7417.09, 28434.26, 501.91, 107639.07, -5350.58, 0.000, 0.000, 0.000, 16:38:39.445
40, -129983.97, -36782.54, 153442.38, 159789.73, -37402.20, -40384.48, -37343.91, 158421.94, 41422.16, 13213.99, 172557.03, -7422.01, 28428.45, 489.99, 107622.69, -5345.91, 0.016, 0.928, -0.182, 16:38:39.445
41, -129993.20, -36791.60, 153445.28, 159798.92, -37410.29, -40374.80, -37335.97, 158427.17, 41422.16, 13213.99, 172557.03, -7422.01, 28428.45, 489.99, 107622.69, -5345.91, 0.000, 0.000, 0.000, 16:38:39.446
42, -129993.20, -36791.60, 153445.28, 159798.92, -37410.29, -40374.80, -37335.97, 158427.17, 41412.57, 13211.94, 172536.84, -7432.96, 28415.84, 484.27, 107625.73, -5341.11, 0.000, 0.000, 0.000, 16:38:39.446
43, -129974.74, -36772.66, 153434.38, 159794.34, -37406.76, -40377.66, -37342.05, 158425.14, 41412.57, 13211.94, 172536.84, -7432.96, 28415.84, 484.27, 107625.73, -5341.11, 0.000, 0.000, 0.000, 16:38:39.446
44, -129974.74, -36772.66, 153434.38, 159794.34, -37406.76, -40377.66, -37342.05, 158425.14, 41424.55, 13216.61, 172542.50, -7419.21, 28423.93, 501.39, 107644.01, -5338.09, 0.000, 0.000, 0.000, 16:38:39.446
45, -129988.42, -36783.37, 153433.25, 159787.45, -37413.46, -40377.42, -37349.20, 158427.19, 41424.55, 13216.61, 172542.50, -7419.21, 28423.93, 501.39, 107644.01, -5338.09, 0.000, 0.000, 0.000, 16:38:39.447
46, -129988.42, -36783.37, 153433.25, 159787.45, -37413.46, -40377.42, -37349.20, 158427.19, 41419.88, 13208.05, 172533.05, -7434.79, 28413.36, 486.53, 107640.32, -5343.99, 0.000, 0.000, 0.000, 16:38:39.447
47, -129990.90, -36783.53, 153433.03, 159778.05, -37409.13, -40377.66, -37353.90, 158432.20, 41419.88, 13208.05, 172533.05, -7434.79, 28413.36, 486.53, 107640.32, -5343.99, 0.000, 0.000, 0.000, 16:38:39.447
48, -129990.90, -36783.53, 153433.03, 159778.05, -37409.13, -40377.66, -37353.90, 158432.20, 41422.03, 13203.78, 172530.38, -7431.82, 28417.13, 483.20, 107642.69, -5348.82, 0.000, 0.000, 0.000, 16:38:39.447
49, -129981.11, -36775.66, 153428.34, 159766.73, -37396.01, -40397.38, -37347.98, 158435.00, 41422.03, 13203.78, 172530.38, -7431.82, 28417.13, 483.20, 107642.69, -5348.82, 0.000, 0.000, 0.000, 16:38:39.447
50, -129981.11, -36775.66, 153428.34, 159766.73, -37396.01, -40397.38, -37347.98, 158435.00, 41426.70, 13209.21, 172520.64, -7436.04, 28416.31, 473.12, 107671.91, -5353.67, 0.024, 0.928, -0.180, 16:38:39.447
51, -129976.46, -36774.88, 153427.22, 159763.94, -37398.27, -40404.46, -37354.68, 158433.56, 41426.70, 13209.21, 172520.64, -7436.04, 28416.31, 473.12, 107671.91, -5353.67, 0.000, 0.000, 0.000, 16:38:39.448
52, -129976.46, -36774.88, 153427.22, 159763.94, -37398.27, -40404.46, -37354.68, 158433.56, 41437.83, 13203.58, 172533.44, -7420.40, 28427.60, 488.14, 107668.22, -5354.43, 0.000, 0.000, 0.000, 16:38:39.448
53, -129983.03, -36785.27, 153431.91, 159769.34, -37387.38, -40396.08, -37341.74, 158441.91, 41437.83, 13203.58, 172533.44, -7420.40, 28427.60, 488.14, 107668.22, -5354.43, 0.000, 0.000, 0.000, 16:38:39.448
54, -129983.03, -36785.27, 153431.91, 159769.34, -37387.38, -40396.08, -37341.74, 158441.91, 41430.75, 13206.44, 172521.27, -7423.10, 28418.05, 492.70, 107675.08, -5352.53, 0.000, 0.000, 0.000, 16:38:39.448
55, -129991.04, -36791.80, 153432.98, 159776.77, -37393.68, -40399.39, -37344.27, 158429.70, 41430.75, 13206.44, 172521.27, -7423.10, 28418.05, 492.70, 107675.08, -5352.53, 0.000, 0.000, 0.000, 16:38:39.448
56, -129991.04, -36791.80, 153432.98, 159776.77, -37393.68, -40399.39, -37344.27, 158429.70, 41429.88, 13202.84, 172522.72, -7418.90, 28423.24, 489.06, 107663.95, -5356.13, 0.000, 0.000, 0.000, 16:38:39.449
57, -129988.15, -36788.80, 153433.28, 159774.06, -37377.34, -40397.87, -37346.95, 158423.77, 41429.88, 13202.84, 172522.72, -7418.90, 28423.24, 489.06, 107663.95, -5356.13, 0.000, 0.000, 0.000, 16:38:39.449
58, -129988.15, -36788.80, 153433.28, 159774.06, -37377.34, -40397.87, -37346.95, 158423.77, 41429.32, 13217.77, 172512.14, -7425.81, 28413.87, 476.14, 107684.66, -5349.78, 0.000, 0.000, 0.000, 16:38:39.449
59, -129984.42, -36786.90, 153430.97, 159777.39, -37400.01, -40399.28, -37363.04, 158424.83, 41429.32, 13217.77, 172512.14, -7425.81, 28413.87, 476.14, 107684.66, -5349.78, 0.000, 0.000, 0.000, 16:38:39.450
60, -129984.42, -36786.90, 153430.97, 159777.39, -37400.01, -40399.28, -37363.04, 158424.83, 41438.86, 13211.36, 172520.80, -7415.33, 28418.07, 491.87, 107684.45, -5344.19, 0.018, 0.928, -0.182, 16:38:39.450
61, -129989.83, -36792.89, 153429.52, 159785.00, -37413.22, -40394.09, -37362.66, 158426.97, 41438.86, 13211.36, 172520.80, -7415.33, 28418.07, 491.87, 107684.45, -5344.19, 0.000, 0.000, 0.000, 16:38:39.450
62, -129989.83, -36792.89, 153429.52, 159785.00, -37413.22, -40394.09, -37362.66, 158426.97, 41437.32, 13222.04, 172521.33, -7406.03, 28415.17, 492.86, 107691.15, -5339.85, 0.000, 0.000, 0.000, 16:38:39.451
63, -130002.03, -36803.71, 153438.47, 159791.78, -37415.25, -40387.12, -37365.70, 158431.95, 41437.32, 13222.04, 172521.33, -7406.03, 28415.17, 492.86, 107691.15, -5339.85, 0.000, 0.000, 0.000, 16:38:39.451
64, -130002.03, -36803.71, 153438.47, 159791.78, -37415.25, -40387.12, -37365.70, 158431.95, 41433.67, 13222.71, 172519.59, -7402.27, 28414.79, 493.79, 107684.55, -5348.28, 0.000, 0.000, 0.000, 16:38:39.451
