%OpenBCI Raw EEG Data
%
%Sample Rate = 250.0 Hz
%First Column = SampleIndex
%Last Column = Timestamp 
%Other Columns = EEG data in microvolts followed by Accel Data (in G) interleaved with Aux Data
0, 0.00, 0.00, 0.00, 0.00, 0.00, 0.00, 0.00, 0.00, -1384.69, -33037.22, -37723.44, -17.55, -37523.21, -43045.46, -31045.66, -54308.28, -0.074, 0.944, 0.160, 16:57:20.610
1, -31361.35, 50638.12, 45695.26, 62246.32, 70306.38, 52252.10, 60350.87, 83361.25, -1384.69, -33037.22, -37723.44, -17.55, -37523.21, -43045.46, -31045.66, -54308.28, 0.000, 0.000, 0.000, 16:57:21.100
2, -31361.35, 50638.12, 45695.26, 62246.32, 70306.38, 52252.10, 60350.87, 83361.25, 1286.16, -59696.84, -72827.05, 8093.68, -72610.63, -83631.69, -59493.03, -104715.28, 0.000, 0.000, 0.000, 16:57:21.100
3, -62718.01, 101266.66, 91382.78, 124487.70, 140611.36, 104514.23, 120701.34, 166746.42, 1286.16, -59696.84, -72827.05, 8093.68, -72610.63, -83631.69, -59493.03, -104715.28, 0.000, 0.000, 0.000, 16:57:21.100
4, -62718.01, 101266.66, 91382.78, 124487.70, 140611.36, 104514.23, 120701.34, 166746.42, 1240.57, -59706.11, -72836.40, 8087.93, -72618.05, -83642.26, -59502.49, -104717.27, 0.000, 0.000, 0.000, 16:57:21.100
5, -62775.41, 101273.38, 91381.44, 124493.85, 140609.36, 104509.87, 120700.47, 166766.61, 1240.57, -59706.11, -72836.40, 8087.93, -72618.05, -83642.26, -59502.49, -104717.27, 0.000, 0.000, 0.000, 16:57:21.100
6, -62775.41, 101273.38, 91381.44, 124493.85, 140609.36, 104509.87, 120700.47, 166766.61, 1225.14, -59693.75, -72831.77, 8092.52, -72612.08, -83627.88, -59491.69, -104705.55, 0.000, 0.000, 0.000, 16:57:21.101
7, -62803.24, 101271.75, 91379.74, 124494.30, 140608.34, 104527.77, 120700.71, 166790.86, 1225.14, -59693.75, -72831.77, 8092.52, -72612.08, -83627.88, -59491.69, -104705.55, 0.032, 0.952, -0.044, 16:57:21.101
8, -62803.24, 101271.75, 91379.74, 124494.30, 140608.34, 104527.77, 120700.71, 166790.86, 1255.65, -59713.04, -72838.55, 8083.71, -72624.97, -83635.48, -59495.98, -104709.36, 0.000, 0.000, 0.000, 16:57:21.101
9, -62807.24, 101268.27, 91367.70, 124482.31, 140603.98, 104548.52, 120693.63, 166796.64, 1255.65, -59713.04, -72838.55, 8083.71, -72624.97, -83635.48, -59495.98, -104709.36, 0.000, 0.000, 0.000, 16:57:21.101
10, -62807.24, 101268.27, 91367.70, 124482.31, 140603.98, 104548.52, 120693.63, 166796.64, 1221.46, -59714.02, -72844.47, 8072.73, -72623.30, -83646.66, -59499.18, -104721.92, 0.000, 0.000, 0.000, 16:57:21.101
11, -62834.86, 101279.64, 91367.02, 124478.67, 140604.53, 104532.47, 120690.19, 166774.66, 1221.46, -59714.02, -72844.47, 8072.73, -72623.30, -83646.66, -59499.18, -104721.92, 0.000, 0.000, 0.000, 16:57:21.102
12, -62834.86, 101279.64, 91367.02, 124478.67, 140604.53, 104532.47, 120690.19, 166774.66, 1235.34, -59716.33, -72836.33, 8078.12, -72617.80, -83641.95, -59505.55, -104728.27, 0.000, 0.000, 0.000, 16:57:21.102
13, -62874.92, 101284.58, 91366.38, 124480.46, 140603.95, 104534.01, 120691.39, 166762.30, 1235.34, -59716.33, -72836.33, 8078.12, -72617.80, -83641.95, -59505.55, -104728.27, 0.000, 0.000, 0.000, 16:57:21.102
14, -62874.92, 101284.58, 91366.38, 124480.46, 140603.95, 104534.01, 120691.39, 166762.30, 1197.05, -59728.22, -72842.45, 8067.68, -72624.86, -83646.53, -59513.69, -104727.69, 0.000, 0.000, 0.000, 16:57:21.102
15, -62926.15, 101264.66, 91363.47, 124474.11, 140602.02, 104525.72, 120687.62, 166749.66, 1197.05, -59728.22, -72842.45, 8067.68, -72624.86, -83646.53, -59513.69, -104727.69, 0.000, 0.000, 0.000, 16:57:21.102
16, -62926.15, 101264.66, 91363.47, 124474.11, 140602.02, 104525.72, 120687.62, 166749.66, 1191.06, -59726.47, -72841.65, 8063.79, -72622.94, -83648.96, -59508.84, -104734.28, 0.000, 0.000, 0.000, 16:57:21.102
17, -62940.59, 101267.86, 91360.80, 124468.12, 140598.97, 104525.38, 120684.77, 166747.50, 1191.06, -59726.47, -72841.65, 8063.79, -72622.94, -83648.96, -59508.84, -104734.28, 0.028, 0.956, -0.042, 16:57:21.103
18, -62940.59, 101267.86, 91360.80, 124468.12, 140598.97, 104525.38, 120684.77, 166747.50, 1212.60, -59725.22, -72837.78, 8064.67, -72621.20, -83650.17, -59514.38, -104739.71, 0.000, 0.000, 0.000, 16:57:21.103
19, -62978.86, 101279.10, 91367.52, 124473.33, 140605.31, 104525.13, 120689.16, 166745.11, 1212.60, -59725.22, -72837.78, 8064.67, -72621.20, -83650.17, -59514.38, -104739.71, 0.000, 0.000, 0.000, 16:57:21.103
20, -62978.86, 101279.10, 91367.52, 124473.33, 140605.31, 104525.13, 120689.16, 166745.11, 1162.11, -59722.90, -72835.44, 8067.93, -72620.34, -83652.20, -59507.11, -104738.52, 0.000, 0.000, 0.000, 16:57:21.104
21, -62999.89, 101270.19, 91366.22, 124474.58, 140601.81, 104533.59, 120681.40, 166770.94, 1162.11, -59722.90, -72835.44, 8067.93, -72620.34, -83652.20, -59507.11, -104738.52, 0.000, 0.000, 0.000, 16:57:21.104
22, -62999.89, 101270.19, 91366.22, 124474.58, 140601.81, 104533.59, 120681.40, 166770.94, 1224.20, -59738.07, -72832.89, 8068.87, -72625.33, -83655.89, -59502.78, -104737.70, 0.000, 0.000, 0.000, 16:57:21.104
23, -63001.99, 101253.45, 91369.01, 124483.79, 140614.42, 104536.89, 120688.22, 166777.22, 1224.20, -59738.07, -72832.89, 8068.87, -72625.33, -83655.89, -59502.78, -104737.70, 0.000, 0.000, 0.000, 16:57:21.105
24, -63001.99, 101253.45, 91369.01, 124483.79, 140614.42, 104536.89, 120688.22, 166777.22, 1189.34, -59734.12, -72833.09, 8067.62, -72617.20, -83647.78, -59506.00, -104736.67, 0.000, 0.000, 0.000, 16:57:21.105
25, -63046.69, 101255.37, 91368.79, 124482.52, 140613.83, 104529.63, 120685.80, 166786.34, 1189.34, -59734.12, -72833.09, 8067.62, -72617.20, -83647.78, -59506.00, -104736.67, 0.000, 0.000, 0.000, 16:57:21.105
26, -63046.69, 101255.37, 91368.79, 124482.52, 140613.83, 104529.63, 120685.80, 166786.34, 1185.45, -59730.48, -72825.85, 8070.61, -72609.51, -83638.33, -59493.39, -104731.11, 0.000, 0.000, 0.000, 16:57:21.105
27, -63043.70, 101262.67, 91371.83, 124485.04, 140615.31, 104551.60, 120687.99, 166811.83, 1185.45, -59730.48, -72825.85, 8070.61, -72609.51, -83638.33, -59493.39, -104731.11, 0.030, 0.964, -0.044, 16:57:21.105
28, -63043.70, 101262.67, 91371.83, 124485.04, 140615.31, 104551.60, 120687.99, 166811.83, 1225.55, -59726.54, -72827.73, 8068.35, -72614.02, -83643.82, -59500.81, -104724.16, 0.000, 0.000, 0.000, 16:57:21.106
29, -63070.77, 101276.00, 91365.48, 124484.95, 140619.33, 104534.26, 120685.54, 166813.92, 1225.55, -59726.54, -72827.73, 8068.35, -72614.02, -83643.82, -59500.81, -104724.16, 0.000, 0.000, 0.000, 16:57:21.106
30, -63070.77, 101276.00, 91365.48, 124484.95, 140619.33, 104534.26, 120685.54, 166813.92, 1152.37, -59731.48, -72830.99, 8074.25, -72612.75, -83644.54, -59503.40, -104725.30, 0.000, 0.000, 0.000, 16:57:21.106
31, -63126.40, 101261.31, 91360.47, 124485.80, 140614.02, 104534.73, 120681.02, 166821.17, 1152.37, -59731.48, -72830.99, 8074.25, -72612.75, -83644.54, -59503.40, -104725.30, 0.000, 0.000, 0.000, 16:57:21.106
32, -63126.40, 101261.31, 91360.47, 124485.80, 140614.02, 104534.73, 120681.02, 166821.17, 1203.64, -59739.84, -72838.90, 8069.40, -72620.91, -83646.84, -59510.40, -104723.09, 0.000, 0.000, 0.000, 16:57:21.106
33, -63134.09, 101258.45, 91353.68, 124487.26, 140612.63, 104540.36, 120679.32, 166834.73, 1203.64, -59739.84, -72838.90, 8069.40, -72620.91, -83646.84, -59510.40, -104723.09, 0.000, 0.000, 0.000, 16:57:21.106
34, -63134.09, 101258.45, 91353.68, 124487.26, 140612.63, 104540.36, 120679.32, 166834.73, 1155.59, -59725.98, -72834.79, 8076.96, -72619.56, -83633.50, -59513.24, -104718.66, 0.000, 0.000, 0.000, 16:57:21.107
35, -63196.27, 101253.06, 91352.74, 124491.52, 140608.97, 104540.36, 120677.84, 166835.19, 1155.59, -59725.98, -72834.79, 8076.96, -72619.56, -83633.50, -59513.24, -104718.66, 0.000, 0.000, 0.000, 16:57:21.107
36, -63196.27, 101253.06, 91352.74, 124491.52, 140608.97, 104540.36, 120677.84, 166835.19, 1144.59, -59745.34, -72844.65, 8068.78, -72627.41, -83641.74, -59515.23, -104727.51, 0.000, 0.000, 0.000, 16:57:21.107
37, -63216.70, 101243.56, 91349.48, 124478.83, 140602.91, 104541.90, 120668.39, 166826.39, 1144.59, -59745.34, -72844.65, 8068.78, -72627.41, -83641.74, -59515.23, -104727.51, 0.030, 0.966, -0.048, 16:57:21.107
38, -63216.70, 101243.56, 91349.48, 124478.83, 140602.91, 104541.90, 120668.39, 166826.39, 1180.64, -59747.53, -72838.84, 8069.45, -72617.20, -83648.09, -59519.27, -104734.46, 0.000, 0.000, 0.000, 16:57:21.108
39, -63255.84, 101250.41, 91359.13, 124481.58, 140609.23, 104535.64, 120673.66, 166823.00, 1180.64, -59747.53, -72838.84, 8069.45, -72617.20, -83648.09, -59519.27, -104734.46, 0.000, 0.000, 0.000, 16:57:21.108
40, -63255.84, 101250.41, 91359.13, 124481.58, 140609.23, 104535.64, 120673.66, 166823.00, 1134.28, -59734.10, -72834.32, 8074.61, -72618.31, -83647.94, -59518.20, -104737.43, 0.000, 0.000, 0.000, 16:57:21.109
41, -63306.48, 101238.36, 91349.72, 124474.71, 140607.56, 104527.39, 120674.29, 166822.48, 1134.28, -59734.10, -72834.32, 8074.61, -72618.31, -83647.94, -59518.20, -104737.43, 0.000, 0.000, 0.000, 16:57:21.109
42, -63306.48, 101238.36, 91349.72, 124474.71, 140607.56, 104527.39, 120674.29, 166822.48, 1192.62, -59752.11, -72843.51, 8070.95, -72629.80, -83647.55, -59523.03, -104743.96, 0.000, 0.000, 0.000, 16:57:21.109
43, -63303.49, 101243.59, 91348.31, 124477.87, 140608.45, 104536.09, 120667.99, 166835.14, 1192.62, -59752.11, -72843.51, 8070.95, -72629.80, -83647.55, -59523.03, -104743.96, 0.000, 0.000, 0.000, 16:57:21.109
44, -63303.49, 101243.59, 91348.31, 124477.87, 140608.45, 104536.09, 120667.99, 166835.14, 1145.95, -59749.03, -72836.66, 8076.91, -72619.77, -83646.75, -59522.76, -104740.49, 0.000, 0.000, 0.000, 16:57:21.109
45, -63358.23, 101251.55, 91356.63, 124485.82, 140614.58, 104536.78, 120675.84, 166841.73, 1145.95, -59749.03, -72836.66, 8076.91, -72619.77, -83646.75, -59522.76, -104740.49, 0.000, 0.000, 0.000, 16:57:21.109
46, -63358.23, 101251.55, 91356.63, 124485.82, 140614.58, 104536.78, 120675.84, 166841.73, 1126.71, -59738.37, -72831.41, 8079.24, -72612.79, -83640.00, -59508.81, -104728.00, 0.000, 0.000, 0.000, 16:57:21.109
47, -63371.44, 101253.87, 91358.62, 124492.28, 140615.48, 104562.22, 120679.68, 166852.14, 1126.71, -59738.37, -72831.41, 8079.24, -72612.79, -83640.00, -59508.81, -104728.00, 0.034, 0.970, -0.048, 16:57:21.110
48, -63371.44, 101253.87, 91358.62, 124492.28, 140615.48, 104562.22, 120679.68, 166852.14, 1151.47, -59754.53, -72843.13, 8069.11, -72623.20, -83649.44, -59514.18, -104727.35, 0.000, 0.000, 0.000, 16:57:21.110
49, -63391.56, 101235.02, 91344.63, 124478.88, 140609.92, 104552.12, 120668.41, 166841.81, 1151.47, -59754.53, -72843.13, 8069.11, -72623.20, -83649.44, -59514.18, -104727.35, 0.000, 0.000, 0.000, 16:57:21.110
50, -63391.56, 101235.02, 91344.63, 124478.88, 140609.92, 104552.12, 120668.41, 166841.81, 1100.51, -59774.20, -72855.77, 8057.71, -72631.08, -83659.38, -59518.87, -104734.77, 0.000, 0.000, 0.000, 16:57:21.110
51, -63395.36, 101248.39, 91340.49, 124473.09, 140609.28, 104555.42, 120670.70, 166855.39, 1100.51, -59774.20, -72855.77, 8057.71, -72631.08, -83659.38, -59518.87, -104734.77, 0.000, 0.000, 0.000, 16:57:21.110
52, -63395.36, 101248.39, 91340.49, 124473.09, 140609.28, 104555.42, 120670.70, 166855.39, 1165.35, -59771.31, -72850.79, 8057.89, -72630.43, -83654.53, -59514.65, -104732.20, 0.000, 0.000, 0.000, 16:57:21.111
53, -63385.21, 101245.87, 91341.72, 124474.49, 140606.66, 104557.77, 120665.11, 166843.78, 1165.35, -59771.31, -72850.79, 8057.89, -72630.43, -83654.53, -59514.65, -104732.20, 0.000, 0.000, 0.000, 16:57:21.111
54, -63385.21, 101245.87, 91341.72, 124474.49, 140606.66, 104557.77, 120665.11, 166843.78, 1132.21, -59773.66, -72856.67, 8052.26, -72640.09, -83660.05, -59531.16, -104737.92, 0.000, 0.000, 0.000, 16:57:21.111
55, -63404.16, 101243.23, 91334.14, 124468.19, 140602.70, 104556.27, 120661.46, 166847.77, 1132.21, -59773.66, -72856.67, 8052.26, -72640.09, -83660.05, -59531.16, -104737.92, 0.000, 0.000, 0.000, 16:57:21.111
56, -63404.16, 101243.23, 91334.14, 124468.19, 140602.70, 104556.27, 120661.46, 166847.77, 1145.15, -59768.36, -72853.90, 8053.02, -72630.52, -83665.04, -59521.46, -104737.32, 0.000, 0.000, 0.000, 16:57:21.112
57, -63371.33, 101248.88, 91337.70, 124463.00, 140605.59, 104562.35, 120664.34, 166861.94, 1145.15, -59768.36, -72853.90, 8053.02, -72630.52, -83665.04, -59521.46, -104737.32, 0.038, 0.970, -0.048, 16:57:21.112
58, -63371.33, 101248.88, 91337.70, 124463.00, 140605.59, 104562.35, 120664.34, 166861.94, 1179.68, -59778.26, -72857.34, 8048.19, -72637.24, -83667.25, -59525.75, -104745.50, 0.000, 0.000, 0.000, 16:57:21.112
59, -63349.34, 101241.89, 91339.17, 124460.25, 140612.45, 104555.34, 120669.15, 166866.19, 1179.68, -59778.26, -72857.34, 8048.19, -72637.24, -83667.25, -59525.75, -104745.50, 0.000, 0.000, 0.000, 16:57:21.112
60, -63349.34, 101241.89, 91339.17, 124460.25, 140612.45, 104555.34, 120669.15, 166866.19, 1127.78, -59774.06, -72853.77, 8053.74, -72627.95, -83661.08, -59521.15, -104738.04, 0.000, 0.000, 0.000, 16:57:21.113
61, -63375.62, 101256.98, 91347.66, 124475.99, 140620.91, 104553.55, 120678.34, 166863.64, 1127.78, -59774.06, -72853.77, 8053.74, -72627.95, -83661.08, -59521.15, -104738.04, 0.000, 0.000, 0.000, 16:57:21.113
62, -63375.62, 101256.98, 91347.66, 124475.99, 140620.91, 104553.55, 120678.34, 166863.64, 1170.47, -59764.09, -72843.55, 8069.85, -72627.21, -83642.26, -59506.98, -104725.77, 0.000, 0.000, 0.000, 16:57:21.113
63, -63346.45, 101261.45, 91341.23, 124475.43, 140615.44, 104570.84, 120676.21, 166861.94, 1170.47, -59764.09, -72843.55, 8069.85, -72627.21, -83642.26, -59506.98, -104725.77, 0.000, 0.000, 0.000, 16:57:21.113
64, -63346.45, 101261.45, 91341.23, 124475.43, 140615.44, 104570.84, 120676.21, 166861.94, 1140.48, -59772.95, -72852.40, 8067.42, -72644.30, -83657.08, -59519.81, -104731.82, 0.000, 0.000, 0.000, 16:57:21.114
65, -63380.02, 101245.51, 91332.84, 124468.12, 140614.50, 104539.15, 120673.17, 166834.94, 1140.48, -59772.95, -72852.40, 8067.42, -72644.30, -83657.08, -59519.81, -104731.82, 0.000, 0.000, 0.000, 16:57:21.114
66, -63380.02, 101245.51, 91332.84, 124468.12, 140614.50, 104539.15, 120673.17, 166834.94, 1126.57, -59775.02, -72853.85, 8059.86, -72642.97, -83668.14, -59520.08, -104742.93, 0.038, 0.976, -0.042, 16:57:21.114
67, -63364.02, 101257.60, 91337.09, 124472.48, 140612.56, 104550.17, 120665.55, 166836.33, 1126.57, -59775.02, -72853.85, 8059.86, -72642.97, -83668.14, -59520.08, -104742.93, 0.000, 0.000, 0.000, 16:57:21.115
68, -63364.02, 101257.60, 91337.09, 124472.48, 140612.56, 104550.17, 120665.55, 166836.33, 1194.77, -59766.39, -72841.77, 8076.20, -72633.09, -83655.27, -59519.79, -104728.40, 0.000, 0.000, 0.000, 16:57:21.115
69, -63351.32, 101277.05, 91349.52, 124489.76, 140624.72, 104561.10, 120679.91, 166841.13, 1194.77, -59766.39, -72841.77, 8076.20, -72633.09, -83655.27, -59519.79, -104728.40, 0.000, 0.000, 0.000, 16:57:21.115
70, -63351.32, 101277.05, 91349.52, 124489.76, 140624.72, 104561.10, 120679.91, 166841.13, 1167.21, -59765.77, -72840.04, 8077.09, -72633.17, -83642.51, -59513.33, -104717.59, 0.000, 0.000, 0.000, 16:57:21.115
71, -63350.23, 101250.83, 91342.44, 124481.24, 140621.28, 104568.90, 120674.54, 166850.98, 1167.21, -59765.77, -72840.04, 8077.09, -72633.17, -83642.51, -59513.33, -104717.59, 0.000, 0.000, 0.000, 16:57:21.116
72, -63350.23, 101250.83, 91342.44, 124481.24, 140621.28, 104568.90, 120674.54, 166850.98, 1264.91, -59784.43, -72857.70, 8060.66, -72649.72, -83659.96, -59518.47, -104728.16, 0.000, 0.000, 0.000, 16:57:21.116
74, -63350.23, 101250.83, 91342.44, 124481.24, 140621.28, 104568.90, 120674.54, 166850.98, 1302.68, -59782.18, -72861.07, 8061.18, -72648.48, -83660.68, -59526.76, -104726.93, 0.000, 0.000, 0.000, 16:57:21.116
75, -63265.09, 101233.38, 91337.67, 124481.82, 140622.00, 104578.22, 120678.45, 166856.84, 1302.68, -59782.18, -72861.07, 8061.18, -72648.48, -83660.68, -59526.76, -104726.93, 0.000, 0.000, 0.000, 16:57:21.116
76, -63265.09, 101233.38, 91337.67, 124481.82, 140622.00, 104578.22, 120678.45, 166856.84, 1411.80, -59779.25, -72856.54, 8064.31, -72641.34, -83653.34, -59508.12, -104714.77, 0.040, 0.968, -0.038, 16:57:21.116
77, -63205.41, 101223.29, 91330.41, 124475.30, 140622.06, 104596.37, 120681.34, 166886.88, 1411.80, -59779.25, -72856.54, 8064.31, -72641.34, -83653.34, -59508.12, -104714.77, 0.000, 0.000, 0.000, 16:57:21.117
78, -63205.41, 101223.29, 91330.41, 124475.30, 140622.06, 104596.37, 120681.34, 166886.88, 1527.41, -59794.34, -72861.55, 8056.04, -72647.08, -83663.07, -59513.82, -104725.66, 0.000, 0.000, 0.000, 16:57:21.117
79, -63167.19, 101235.23, 91332.84, 124474.20, 140634.38, 104587.66, 120688.09, 166870.86, 1527.41, -59794.34, -72861.55, 8056.04, -72647.08, -83663.07, -59513.82, -104725.66, 0.000, 0.000, 0.000, 16:57:21.117
80, -63167.19, 101235.23, 91332.84, 124474.20, 140634.38, 104587.66, 120688.09, 166870.86, 1500.49, -59783.23, -72859.51, 8060.28, -72644.24, -83650.69, -59504.72, -104719.53, 0.000, 0.000, 0.000, 16:57:21.117
81, -63157.91, 101234.53, 91333.52, 124475.12, 140636.08, 104583.90, 120688.77, 166858.05, 1500.49, -59783.23, -72859.51, 8060.28, -72644.24, -83650.69, -59504.72, -104719.53, 0.000, 0.000, 0.000, 16:57:21.117
82, -63157.91, 101234.53, 91333.52, 124475.12, 140636.08, 104583.90, 120688.77, 166858.05, 1571.95, -59785.97, -72872.18, 8045.69, -72652.27, -83654.38, -59504.03, -104728.98, 0.000, 0.000, 0.000, 16:57:21.117
83, -63075.91, 101204.54, 91311.19, 124449.05, 140616.11, 104582.49, 120661.46, 166851.59, 1571.95, -59785.97, -72872.18, 8045.69, -72652.27, -83654.38, -59504.03, -104728.98, 0.000, 0.000, 0.000, 16:57:21.118
84, -63075.91, 101204.54, 91311.19, 124449.05, 140616.11, 104582.49, 120661.46, 166851.59, 1558.27, -59793.77, -72880.05, 8037.31, -72655.51, -83668.90, -59525.38, -104751.73, 0.000, 0.000, 0.000, 16:57:21.118
85, -63056.93, 101221.64, 91316.95, 124451.18, 140621.88, 104559.53, 120662.31, 166835.72, 1558.27, -59793.77, -72880.05, 8037.31, -72655.51, -83668.90, -59525.38, -104751.73, 0.000, 0.000, 0.000, 16:57:21.118
86, -63056.93, 101221.64, 91316.95, 124451.18, 140621.88, 104559.53, 120662.31, 166835.72, 1544.39, -59802.18, -72873.66, 8039.34, -72651.51, -83670.31, -59519.03, -104752.72, 0.034, 0.964, -0.030, 16:57:21.118
87, -62990.43, 101221.99, 91318.90, 124451.02, 140623.78, 104574.42, 120664.32, 166836.14, 1544.39, -59802.18, -72873.66, 8039.34, -72651.51, -83670.31, -59519.03, -104752.72, 0.000, 0.000, 0.000, 16:57:21.118
88, -62990.43, 101221.99, 91318.90, 124451.02, 140623.78, 104574.42, 120664.32, 166836.14, 1539.50, -59803.39, -72872.67, 8039.83, -72652.24, -83671.54, -59521.64, -104752.63, 0.000, 0.000, 0.000, 16:57:21.118
89, -62946.78, 101236.91, 91315.70, 124450.27, 140629.28, 104572.56, 120666.40, 166826.52, 1539.50, -59803.39, -72872.67, 8039.83, -72652.24, -83671.54, -59521.64, -104752.63, 0.000, 0.000, 0.000, 16:57:21.119
90, -62946.78, 101236.91, 91315.70, 124450.27, 140629.28, 104572.56, 120666.40, 166826.52, 1391.82, -59796.55, -72875.34, 8039.14, -72650.95, -83666.31, -59517.69, -104751.91, 0.000, 0.000, 0.000, 16:57:21.119
91, -62950.67, 101223.02, 91318.77, 124454.84, 140631.92, 104566.15, 120673.20, 166824.14, 1391.82, -59796.55, -72875.34, 8039.14, -72650.95, -83666.31, -59517.69, -104751.91, 0.000, 0.000, 0.000, 16:57:21.119
92, -62950.67, 101223.02, 91318.77, 124454.84, 140631.92, 104566.15, 120673.20, 166824.14, 1334.33, -59787.18, -72869.41, 8044.48, -72645.49, -83662.06, -59511.07, -104742.13, 0.000, 0.000, 0.000, 16:57:21.119
93, -62899.33, 101218.09, 91312.48, 124454.11, 140621.70, 104582.34, 120664.79, 166835.92, 1334.33, -59787.18, -72869.41, 8044.48, -72645.49, -83662.06, -59511.07, -104742.13, 0.000, 0.000, 0.000, 16:57:21.120
94, -62899.33, 101218.09, 91312.48, 124454.11, 140621.70, 104582.34, 120664.79, 166835.92, 1220.99, -59800.61, -72876.59, 8036.77, -72666.97, -83665.98, -59525.22, -104750.09, 0.000, 0.000, 0.000, 16:57:21.120
95, -62898.93, 101227.76, 91319.52, 124463.09, 140623.16, 104564.20, 120666.05, 166832.34, 1220.99, -59800.61, -72876.59, 8036.77, -72666.97, -83665.98, -59525.22, -104750.09, 0.000, 0.000, 0.000, 16:57:21.120
96, -62898.93, 101227.76, 91319.52, 124463.09, 140623.16, 104564.20, 120666.05, 166832.34, 1141.57, -59800.86, -72871.13, 8042.60, -72652.91, -83655.80, -59505.68, -104729.12, 0.034, 0.968, -0.024, 16:57:21.120
97, -62855.38, 101224.79, 91320.77, 124468.81, 140626.06, 104582.40, 120670.58, 166840.52, 1141.57, -59800.86, -72871.13, 8042.60, -72652.91, -83655.80, -59505.68, -104729.12, 0.000, 0.000, 0.000, 16:57:21.120
98, -62855.38, 101224.79, 91320.77, 124468.81, 140626.06, 104582.40, 120670.58, 166840.52, 1123.42, -59804.44, -72877.62, 8038.63, -72658.12, -83656.99, -59509.06, -104724.89, 0.000, 0.000, 0.000, 16:57:21.121
99, -62838.64, 101230.98, 91320.46, 124472.16, 140634.28, 104580.50, 120680.23, 166840.59, 1123.42, -59804.44, -72877.62, 8038.63, -72658.12, -83656.99, -59509.06, -104724.89, 0.000, 0.000, 0.000, 16:57:21.121
100, -62838.64, 101230.98, 91320.46, 124472.16, 140634.28, 104580.50, 120680.23, 166840.59, 1004.58, -59799.83, -72872.61, 8040.77, -72656.47, -83660.50, -59504.54, -104728.85, 0.000, 0.000, 0.000, 16:57:21.121
101, -62856.70, 101228.41, 91317.52, 124468.88, 140638.84, 104574.27, 120683.61, 166849.89, 1004.58, -59799.83, -72872.61, 8040.77, -72656.47, -83660.50, -59504.54, -104728.85, 0.000, 0.000, 0.000, 16:57:21.121
102, -62856.70, 101228.41, 91317.52, 124468.88, 140638.84, 104574.27, 120683.61, 166849.89, 1021.05, -59802.00, -72875.71, 8034.96, -72664.80, -83649.41, -59504.86, -104728.49, 0.000, 0.000, 0.000, 16:57:21.122
103, -62812.22, 101225.34, 91301.09, 124454.80, 140624.91, 104578.24, 120669.06, 166846.06, 1021.05, -59802.00, -72875.71, 8034.96, -72664.80, -83649.41, -59504.86, -104728.49, 0.000, 0.000, 0.000, 16:57:21.122
104, -62812.22, 101225.34, 91301.09, 124454.80, 140624.91, 104578.24, 120669.06, 166846.06, 965.39, -59813.87, -72897.30, 8020.81, -72678.21, -83673.73, -59526.61, -104743.78, 0.000, 0.000, 0.000, 16:57:21.122
105, -62796.80, 101203.82, 91288.61, 124444.80, 140615.48, 104558.84, 120657.77, 166845.59, 965.39, -59813.87, -72897.30, 8020.81, -72678.21, -83673.73, -59526.61, -104743.78, 0.000, 0.000, 0.000, 16:57:21.122
106, -62796.80, 101203.82, 91288.61, 124444.80, 140615.48, 104558.84, 120657.77, 166845.59, 943.78, -59801.57, -72890.09, 8030.94, -72664.55, -83664.66, -59516.93, -104741.79, 0.030, 0.962, -0.028, 16:57:21.123
107, -62778.09, 101223.07, 91302.29, 124461.02, 140632.50, 104567.67, 120670.83, 166843.19, 943.78, -59801.57, -72890.09, 8030.94, -72664.55, -83664.66, -59516.93, -104741.79, 0.000, 0.000, 0.000, 16:57:21.123
108, -62778.09, 101223.07, 91302.29, 124461.02, 140632.50, 104567.67, 120670.83, 166843.19, 966.91, -59800.53, -72881.46, 8042.92, -72660.80, -83651.91, -59514.00, -104735.60, 0.000, 0.000, 0.000, 16:57:21.123
109, -62758.33, 101242.34, 91305.45, 124466.09, 140635.30, 104570.94, 120668.81, 166842.27, 966.91, -59800.53, -72881.46, 8042.92, -72660.80, -83651.91, -59514.00, -104735.60, 0.000, 0.000, 0.000, 16:57:21.123
110, -62758.33, 101242.34, 91305.45, 124466.09, 140635.30, 104570.94, 120668.81, 166842.27, 912.82, -59791.50, -72878.11, 8045.62, -72658.91, -83656.56, -59512.66, -104739.38, 0.000, 0.000, 0.000, 16:57:21.123
111, -62753.19, 101228.01, 91301.27, 124458.91, 140628.80, 104570.13, 120662.05, 166852.97, 912.82, -59791.50, -72878.11, 8045.62, -72658.91, -83656.56, -59512.66, -104739.38, 0.000, 0.000, 0.000, 16:57:21.123
112, -62753.19, 101228.01, 91301.27, 124458.91, 140628.80, 104570.13, 120662.05, 166852.97, 958.58, -59803.45, -72878.76, 8037.15, -72662.48, -83668.14, -59516.21, -104751.20, 0.000, 0.000, 0.000, 16:57:21.124
113, -62712.80, 101230.17, 91297.02, 124449.86, 140624.28, 104567.49, 120655.56, 166852.44, 958.58, -59803.45, -72878.76, 8037.15, -72662.48, -83668.14, -59516.21, -104751.20, 0.000, 0.000, 0.000, 16:57:21.124
114, -62712.80, 101230.17, 91297.02, 124449.86, 140624.28, 104567.49, 120655.56, 166852.44, 937.03, -59806.45, -72883.09, 8031.36, -72668.52, -83673.38, -59522.78, -104760.48, 0.000, 0.000, 0.000, 16:57:21.124
115, -62702.00, 101233.59, 91294.80, 124449.70, 140629.28, 104547.91, 120653.41, 166842.17, 937.03, -59806.45, -72883.09, 8031.36, -72668.52, -83673.38, -59522.78, -104760.48, 0.034, 0.960, -0.032, 16:57:21.124
116, -62702.00, 101233.59, 91294.80, 124449.70, 140629.28, 104547.91, 120653.41, 166842.17, 924.02, -59800.01, -72875.45, 8043.39, -72655.77, -83669.20, -59507.02, -104749.63, 0.000, 0.000, 0.000, 16:57:21.124
117, -62680.14, 101245.17, 91308.93, 124467.41, 140638.42, 104559.38, 120667.99, 166863.50, 924.02, -59800.01, -72875.45, 8043.39, -72655.77, -83669.20, -59507.02, -104749.63, 0.000, 0.000, 0.000, 16:57:21.124
118, -62680.14, 101245.17, 91308.93, 124467.41, 140638.42, 104559.38, 120667.99, 166863.50, 953.57, -59785.19, -72874.06, 8044.42, -72657.36, -83659.07, -59504.68, -104739.35, 0.000, 0.000, 0.000, 16:57:21.125
119, -62661.75, 101242.29, 91310.38, 124475.54, 140637.00, 104568.72, 120670.18, 166867.28, 953.57, -59785.19, -72874.06, 8044.42, -72657.36, -83659.07, -59504.68, -104739.35, 0.000, 0.000, 0.000, 16:57:21.125
120, -62661.75, 101242.29, 91310.38, 124475.54, 140637.00, 104568.72, 120670.18, 166867.28, 908.84, -59793.71, -72879.52, 8045.42, -72666.26, -83652.43, -59503.02, -104730.39, 0.000, 0.000, 0.000, 16:57:21.125
121, -62647.85, 101234.84, 91309.33, 124478.29, 140638.36, 104563.98, 120671.16, 166867.50, 908.84, -59793.71, -72879.52, 8045.42, -72666.26, -83652.43, -59503.02, -104730.39, 0.000, 0.000, 0.000, 16:57:21.125
122, -62647.85, 101234.84, 91309.33, 124478.29, 140638.36, 104563.98, 120671.16, 166867.50, 963.76, -59802.65, -72881.23, 8047.30, -72664.63, -83656.66, -59505.91, -104733.72, 0.000, 0.000, 0.000, 16:57:21.527
123, -62584.26, 101223.02, 91301.91, 124467.20, 140627.30, 104567.58, 120664.77, 166864.42, 963.76, -59802.65, -72881.23, 8047.30, -72664.63, -83656.66, -59505.91, -104733.72, 0.000, 0.000, 0.000, 16:57:21.528
124, -62584.26, 101223.02, 91301.91, 124467.20, 140627.30, 104567.58, 120664.77, 166864.42, 950.22, -59817.45, -72891.79, 8037.17, -72676.34, -83668.77, -59524.48, -104742.13, 0.000, 0.000, 0.000, 16:57:21.528
125, -62561.88, 101208.29, 91298.38, 124456.66, 140623.22, 104555.80, 120666.13, 166853.86, 950.22, -59817.45, -72891.79, 8037.17, -72676.34, -83668.77, -59524.48, -104742.13, 0.038, 0.968, -0.034, 16:57:21.528
126, -62561.88, 101208.29, 91298.38, 124456.66, 140623.22, 104555.80, 120666.13, 166853.86, 943.36, -59809.04, -72885.20, 8039.77, -72664.22, -83665.77, -59523.09, -104742.44, 0.000, 0.000, 0.000, 16:57:21.528
127, -62530.77, 101213.08, 91307.25, 124461.37, 140626.31, 104565.46, 120673.55, 166835.66, 943.36, -59809.04, -72885.20, 8039.77, -72664.22, -83665.77, -59523.09, -104742.44, 0.000, 0.000, 0.000, 16:57:21.528
128, -62530.77, 101213.08, 91307.25, 124461.37, 140626.31, 104565.46, 120673.55, 166835.66, 973.40, -59803.16, -72883.38, 8044.82, -72670.75, -83667.77, -59528.24, -104749.32, 0.000, 0.000, 0.000, 16:57:21.529
129, -62508.98, 101218.95, 91311.52, 124464.97, 140633.23, 104558.64, 120680.04, 166808.94, 973.40, -59803.16, -72883.38, 8044.82, -72670.75, -83667.77, -59528.24, -104749.32, 0.000, 0.000, 0.000, 16:57:21.529
130, -62508.98, 101218.95, 91311.52, 124464.97, 140633.23, 104558.64, 120680.04, 166808.94, 908.24, -59812.15, -72883.47, 8044.15, -72669.85, -83671.72, -59524.73, -104748.81, 0.000, 0.000, 0.000, 16:57:21.529
131, -62509.89, 101224.14, 91314.14, 124458.33, 140629.44, 104545.92, 120680.51, 166798.66, 908.24, -59812.15, -72883.47, 8044.15, -72669.85, -83671.72, -59524.73, -104748.81, 0.000, 0.000, 0.000, 16:57:21.529
132, -62509.89, 101224.14, 91314.14, 124458.33, 140629.44, 104545.92, 120680.51, 166798.66, 956.16, -59816.69, -72881.55, 8045.22, -72664.09, -83671.00, -59523.32, -104751.49, 0.000, 0.000, 0.000, 16:57:21.529
133, -62464.96, 101227.29, 91318.07, 124460.41, 140627.09, 104551.09, 120678.52, 166797.72, 956.16, -59816.69, -72881.55, 8045.22, -72664.09, -83671.00, -59523.32, -104751.49, 0.000, 0.000, 0.000, 16:57:21.529
134, -62464.96, 101227.29, 91318.07, 124460.41, 140627.09, 104551.09, 120678.52, 166797.72, 910.19, -59811.57, -72878.38, 8049.58, -72669.52, -83668.79, -59532.98, -104759.90, 0.000, 0.000, 0.000, 16:57:21.530
135, -62497.98, 101215.27, 91319.37, 124458.71, 140627.63, 104540.18, 120676.73, 166782.47, 910.19, -59811.57, -72878.38, 8049.58, -72669.52, -83668.79, -59532.98, -104759.90, 0.036, 0.974, -0.028, 16:57:21.530
136, -62497.98, 101215.27, 91319.37, 124458.71, 140627.63, 104540.18, 120676.73, 166782.47, 884.66, -59824.35, -72885.30, 8038.98, -72670.80, -83674.89, -59535.97, -104767.09, 0.000, 0.000, 0.000, 16:57:21.530
137, -62488.77, 101213.91, 91316.35, 124455.20, 140627.14, 104549.27, 120679.52, 166782.39, 884.66, -59824.35, -72885.30, 8038.98, -72670.80, -83674.89, -59535.97, -104767.09, 0.000, 0.000, 0.000, 16:57:21.530
138, -62488.77, 101213.91, 91316.35, 124455.20, 140627.14, 104549.27, 120679.52, 166782.39, 909.81, -59827.55, -72893.13, 8036.12, -72674.64, -83676.14, -59545.67, -104767.45, 0.000, 0.000, 0.000, 16:57:21.530
139, -62494.49, 101214.62, 91314.02, 124452.61, 140621.66, 104549.52, 120674.90, 166776.02, 909.81, -59827.55, -72893.13, 8036.12, -72674.64, -83676.14, -59545.67, -104767.45, 0.000, 0.000, 0.000, 16:57:21.530
140, -62494.49, 101214.62, 91314.02, 124452.61, 140621.66, 104549.52, 120674.90, 166776.02, 842.17, -59825.80, -72890.11, 8035.07, -72676.18, -83679.63, -59552.85, -104761.23, 0.000, 0.000, 0.000, 16:57:21.530
141, -62530.21, 101215.05, 91323.01, 124459.29, 140630.59, 104541.88, 120681.55, 166787.73, 842.17, -59825.80, -72890.11, 8035.07, -72676.18, -83679.63, -59552.85, -104761.23, 0.000, 0.000, 0.000, 16:57:21.531
142, -62530.21, 101215.05, 91323.01, 124459.29, 140630.59, 104541.88, 120681.55, 166787.73, 873.71, -59835.71, -72883.98, 8030.49, -72674.62, -83683.59, -59544.20, -104757.34, 0.000, 0.000, 0.000, 16:57:21.531
143, -62528.80, 101228.25, 91328.40, 124464.43, 140642.36, 104546.86, 120689.52, 166803.17, 873.71, -59835.71, -72883.98, 8030.49, -72674.62, -83683.59, -59544.20, -104757.34, 0.000, 0.000, 0.000, 16:57:21.531
144, -62528.80, 101228.25, 91328.40, 124464.43, 140642.36, 104546.86, 120689.52, 166803.17, 800.82, -59825.45, -72880.16, 8034.80, -72665.34, -83677.02, -59547.30, -104749.34, 0.000, 0.000, 0.000, 16:57:21.531
145, -62595.30, 101234.31, 91333.67, 124473.20, 140646.73, 104529.12, 120692.69, 166788.28, 800.82, -59825.45, -72880.16, 8034.80, -72665.34, -83677.02, -59547.30, -104749.34, 0.034, 0.968, -0.022, 16:57:21.531
146, -62595.30, 101234.31, 91333.67, 124473.20, 140646.73, 104529.12, 120692.69, 166788.28, 692.66, -59828.15, -72882.42, 8034.02, -72657.56, -83671.07, -59539.64, -104745.45, 0.000, 0.000, 0.000, 16:57:21.532
147, -62640.16, 101232.23, 91328.24, 124464.95, 140647.94, 104538.84, 120693.91, 166800.95, 692.66, -59828.15, -72882.42, 8034.02, -72657.56, -83671.07, -59539.64, -104745.45, 0.000, 0.000, 0.000, 16:57:21.532
148, -62640.16, 101232.23, 91328.24, 124464.95, 140647.94, 104538.84, 120693.91, 166800.95, 667.83, -59849.05, -72896.62, 8012.41, -72672.58, -83685.17, -59546.07, -104754.84, 0.000, 0.000, 0.000, 16:57:21.532
149, -62653.46, 101211.06, 91320.84, 124451.20, 140646.69, 104538.88, 120687.28, 166790.50, 667.83, -59849.05, -72896.62, 8012.41, -72672.58, -83685.17, -59546.07, -104754.84, 0.000, 0.000, 0.000, 16:57:21.532
150, -62653.46, 101211.06, 91320.84, 124451.20, 140646.69, 104538.88, 120687.28, 166790.50, 582.08, -59840.60, -72895.70, 8008.14, -72673.38, -83688.21, -59547.23, -104759.54, 0.000, 0.000, 0.000, 16:57:21.533
151, -62686.07, 101218.17, 91321.96, 124446.77, 140642.92, 104532.80, 120685.11, 166800.05, 582.08, -59840.60, -72895.70, 8008.14, -72673.38, -83688.21, -59547.23, -104759.54, 0.000, 0.000, 0.000, 16:57:21.533
152, -62686.07, 101218.17, 91321.96, 124446.77, 140642.92, 104532.80, 120685.11, 166800.05, 609.49, -59858.48, -72897.20, 8000.05, -72675.78, -83697.45, -59546.48, -104769.13, 0.000, 0.000, 0.000, 16:57:21.533
153, -62668.72, 101218.06, 91321.40, 124445.86, 140639.08, 104539.82, 120682.48, 166808.02, 609.49, -59858.48, -72897.20, 8000.05, -72675.78, -83697.45, -59546.48, -104769.13, 0.000, 0.000, 0.000, 16:57:21.533
154, -62668.72, 101218.06, 91321.40, 124445.86, 140639.08, 104539.82, 120682.48, 166808.02, 589.26, -59861.48, -72900.41, 7991.62, -72676.43, -83699.99, -59551.26, -104766.55, 0.000, 0.000, 0.000, 16:57:21.533
155, -62684.66, 101211.09, 91317.02, 124439.47, 140640.23, 104534.52, 120679.91, 166810.91, 589.26, -59861.48, -72900.41, 7991.62, -72676.43, -83699.99, -59551.26, -104766.55, 0.030, 0.962, -0.018, 16:57:21.533
156, -62684.66, 101211.09, 91317.02, 124439.47, 140640.23, 104534.52, 120679.91, 166810.91, 572.25, -59870.29, -72907.09, 7979.19, -72674.99, -83702.66, -59555.19, -104770.78, 0.000, 0.000, 0.000, 16:57:21.534
157, -62694.09, 101211.67, 91313.13, 124440.90, 140639.72, 104534.48, 120677.24, 166821.69, 572.25, -59870.29, -72907.09, 7979.19, -72674.99, -83702.66, -59555.19, -104770.78, 0.000, 0.000, 0.000, 16:57:21.534
158, -62694.09, 101211.67, 91313.13, 124440.90, 140639.72, 104534.48, 120677.24, 166821.69, 608.57, -59870.13, -72911.63, 7978.19, -72679.40, -83700.28, -59564.60, -104768.57, 0.000, 0.000, 0.000, 16:57:21.534
159, -62690.90, 101218.48, 91305.82, 124446.62, 140630.56, 104540.54, 120667.90, 166825.75, 608.57, -59870.13, -72911.63, 7978.19, -72679.40, -83700.28, -59564.60, -104768.57, 0.000, 0.000, 0.000, 16:57:21.534
160, -62690.90, 101218.48, 91305.82, 124446.62, 140630.56, 104540.54, 120667.90, 166825.75, 563.26, -59856.79, -72908.23, 7989.34, -72686.64, -83699.08, -59572.45, -104762.49, 0.000, 0.000, 0.000, 16:57:21.534
161, -62731.46, 101227.49, 91309.78, 124456.05, 140629.44, 104536.24, 120673.06, 166825.88, 563.26, -59856.79, -72908.23, 7989.34, -72686.64, -83699.08, -59572.45, -104762.49, 0.000, 0.000, 0.000, 16:57:21.534
162, -62731.46, 101227.49, 91309.78, 124456.05, 140629.44, 104536.24, 120673.06, 166825.88, 596.17, -59854.28, -72897.15, 8000.27, -72683.98, -83695.52, -59571.31, -104764.55, 0.000, 0.000, 0.000, 16:57:21.535
163, -62735.49, 101233.08, 91309.02, 124454.33, 140626.13, 104546.91, 120668.10, 166830.69, 596.17, -59854.28, -72897.15, 8000.27, -72683.98, -83695.52, -59571.31, -104764.55, 0.000, 0.000, 0.000, 16:57:21.535
164, -62735.49, 101233.08, 91309.02, 124454.33, 140626.13, 104546.91, 120668.10, 166830.69, 564.54, -59850.44, -72896.10, 8002.91, -72683.27, -83683.03, -59576.47, -104768.81, 0.024, 0.966, -0.018, 16:57:21.535
165, -62784.24, 101229.08, 91309.78, 124455.13, 140625.19, 104535.20, 120668.84, 166821.36, 564.54, -59850.44, -72896.10, 8002.91, -72683.27, -83683.03, -59576.47, -104768.81, 0.000, 0.000, 0.000, 16:57:21.535
166, -62784.24, 101229.08, 91309.78, 124455.13, 140625.19, 104535.20, 120668.84, 166821.36, 563.26, -59850.59, -72902.83, 7996.87, -72689.77, -83694.16, -59565.36, -104770.40, 0.000, 0.000, 0.000, 16:57:21.535
167, -62754.40, 101236.70, 91316.40, 124456.70, 140630.78, 104551.96, 120670.20, 166855.63, 563.26, -59850.59, -72902.83, 7996.87, -72689.77, -83694.16, -59565.36, -104770.40, 0.000, 0.000, 0.000, 16:57:21.535
168, -62754.40, 101236.70, 91316.40, 124456.70, 140630.78, 104551.96, 120670.20, 166855.63, 609.62, -59854.53, -72900.80, 7995.78, -72681.86, -83698.45, -59562.34, -104773.53, 0.000, 0.000, 0.000, 16:57:21.536
169, -62779.57, 101230.24, 91322.23, 124454.84, 140639.73, 104531.38, 120669.27, 166848.23, 609.62, -59854.53, -72900.80, 7995.78, -72681.86, -83698.45, -59562.34, -104773.53, 0.000, 0.000, 0.000, 16:57:21.536
170, -62779.57, 101230.24, 91322.23, 124454.84, 140639.73, 104531.38, 120669.27, 166848.23, 528.33, -59849.12, -72894.16, 7997.12, -72677.19, -83692.41, -59558.07, -104773.51, 0.000, 0.000, 0.000, 16:57:21.536
171, -62812.40, 101244.50, 91318.65, 124449.19, 140633.59, 104533.80, 120668.57, 166866.89, 528.33, -59849.12, -72894.16, 7997.12, -72677.19, -83692.41, -59558.07, -104773.51, 0.000, 0.000, 0.000, 16:57:21.536
172, -62812.40, 101244.50, 91318.65, 124449.19, 140633.59, 104533.80, 120668.57, 166866.89, 599.14, -59853.86, -72903.48, 7988.47, -72685.32, -83702.19, -59558.37, -104771.52, 0.000, 0.000, 0.000, 16:57:21.536
173, -62779.88, 101235.47, 91317.42, 124452.30, 140635.61, 104538.93, 120670.11, 166887.95, 599.14, -59853.86, -72903.48, 7988.47, -72685.32, -83702.19, -59558.37, -104771.52, 0.000, 0.000, 0.000, 16:57:21.537
174, -62779.88, 101235.47, 91317.42, 124452.30, 140635.61, 104538.93, 120670.11, 166887.95, 569.92, -59850.48, -72902.24, 7993.77, -72684.65, -83699.21, -59561.61, -104772.68, 0.034, 0.962, -0.018, 16:57:21.537
175, -62809.45, 101240.95, 91318.63, 124456.19, 140641.58, 104542.26, 120671.34, 166900.50, 569.92, -59850.48, -72902.24, 7993.77, -72684.65, -83699.21, -59561.61, -104772.68, 0.000, 0.000, 0.000, 16:57:21.537
176, -62809.45, 101240.95, 91318.63, 124456.19, 140641.58, 104542.26, 120671.34, 166900.50, 568.11, -59856.67, -72900.97, 7991.28, -72685.45, -83688.28, -59549.56, -104772.16, 0.000, 0.000, 0.000, 16:57:21.537
177, -62814.03, 101235.18, 91317.11, 124451.47, 140643.25, 104544.13, 120671.72, 166912.14, 568.11, -59856.67, -72900.97, 7991.28, -72685.45, -83688.28, -59549.56, -104772.16, 0.000, 0.000, 0.000, 16:57:21.537
178, -62814.03, 101235.18, 91317.11, 124451.47, 140643.25, 104544.13, 120671.72, 166912.14, 608.01, -59857.59, -72900.99, 7998.55, -72674.77, -83691.50, -59558.21, -104778.25, 0.000, 0.000, 0.000, 16:57:21.538
179, -62833.70, 101241.15, 91325.05, 124460.88, 140648.06, 104538.84, 120672.17, 166925.22, 608.01, -59857.59, -72900.99, 7998.55, -72674.77, -83691.50, -59558.21, -104778.25, 0.000, 0.000, 0.000, 16:57:21.538
180, -62833.70, 101241.15, 91325.05, 124460.88, 140648.06, 104538.84, 120672.17, 166925.22, 535.79, -59852.27, -72893.87, 8006.84, -72677.99, -83681.73, -59559.86, -104767.96, 0.000, 0.000, 0.000, 16:57:21.538
181, -62898.75, 101229.73, 91318.90, 124459.59, 140639.70, 104541.45, 120666.20, 166936.14, 535.79, -59852.27, -72893.87, 8006.84, -72677.99, -83681.73, -59559.86, -104767.96, 0.000, 0.000, 0.000, 16:57:21.538
182, -62898.75, 101229.73, 91318.90, 124459.59, 140639.70, 104541.45, 120666.20, 166936.14, 606.13, -59858.46, -72906.31, 7994.12, -72690.24, -83690.74, -59559.82, -104765.33, 0.000, 0.000, 0.000, 16:57:21.538
183, -62862.80, 101237.98, 91313.78, 124461.30, 140638.27, 104555.60, 120664.34, 166959.25, 606.13, -59858.46, -72906.31, 7994.12, -72690.24, -83690.74, -59559.82, -104765.33, 0.000, 0.000, 0.000, 16:57:21.538
184, -62862.80, 101237.98, 91313.78, 124461.30, 140638.27, 104555.60, 120664.34, 166959.25, 579.63, -59856.81, -72897.51, 8005.23, -72683.84, -83683.68, -59566.17, -104762.84, 0.036, 0.960, -0.018, 16:57:21.539
185, -62908.96, 101241.44, 91315.68, 124464.01, 140638.77, 104554.30, 120664.86, 166973.53, 579.63, -59856.81, -72897.51, 8005.23, -72683.84, -83683.68, -59566.17, -104762.84, 0.000, 0.000, 0.000, 16:57:21.539
186, -62908.96, 101241.44, 91315.68, 124464.01, 140638.77, 104554.30, 120664.86, 166973.53, 565.07, -59864.88, -72896.81, 8000.61, -72686.24, -83694.49, -59568.87, -104770.98, 0.000, 0.000, 0.000, 16:57:21.539
187, -62914.86, 101248.08, 91307.81, 124456.41, 140625.70, 104564.99, 120653.41, 166987.19, 565.07, -59864.88, -72896.81, 8000.61, -72686.24, -83694.49, -59568.87, -104770.98, 0.000, 0.000, 0.000, 16:57:21.539
188, -62914.86, 101248.08, 91307.81, 124456.41, 140625.70, 104564.99, 120653.41, 166987.19, 616.51, -59866.73, -72903.03, 7995.40, -72692.68, -83706.03, -59580.25, -104775.36, 0.000, 0.000, 0.000, 16:57:21.539
189, -62908.07, 101251.56, 91303.79, 124447.52, 140627.02, 104565.41, 120649.44, 167004.00, 616.51, -59866.73, -72903.03, 7995.40, -72692.68, -83706.03, -59580.25, -104775.36, 0.000, 0.000, 0.000, 16:57:21.540
190, -62908.07, 101251.56, 91303.79, 124447.52, 140627.02, 104565.41, 120649.44, 167004.00, 556.18, -59863.27, -72904.21, 7989.88, -72692.56, -83711.15, -59586.62, -104788.26, 0.000, 0.000, 0.000, 16:57:21.540
191, -62969.55, 101261.89, 91306.23, 124443.09, 140629.95, 104533.25, 120650.33, 166995.38, 556.18, -59863.27, -72904.21, 7989.88, -72692.56, -83711.15, -59586.62, -104788.26, 0.000, 0.000, 0.000, 16:57:21.540
192, -62969.55, 101261.89, 91306.23, 124443.09, 140629.95, 104533.25, 120650.33, 166995.38, 603.05, -59864.83, -72907.14, 7988.80, -72691.02, -83703.21, -59587.47, -104791.14, 0.000, 0.000, 0.000, 16:57:21.541
193, -62959.50, 101255.27, 91306.41, 124438.75, 140627.72, 104536.96, 120647.18, 167016.86, 603.05, -59864.83, -72907.14, 7988.80, -72691.02, -83703.21, -59587.47, -104791.14, 0.000, 0.000, 0.000, 16:57:21.541
194, -62959.50, 101255.27, 91306.41, 124438.75, 140627.72, 104536.96, 120647.18, 167016.86, 578.44, -59858.95, -72909.13, 7990.84, -72690.30, -83701.29, -59593.28, -104797.09, 0.036, 0.962, -0.016, 16:57:21.541
195, -63004.29, 101258.34, 91308.21, 124438.48, 140630.89, 104534.05, 120649.08, 167009.25, 578.44, -59858.95, -72909.13, 7990.84, -72690.30, -83701.29, -59593.28, -104797.09, 0.000, 0.000, 0.000, 16:57:21.541
196, -63004.29, 101258.34, 91308.21, 124438.48, 140630.89, 104534.05, 120649.08, 167009.25, 570.93, -59857.72, -72909.55, 7988.74, -72694.30, -83705.02, -59582.04, -104791.59, 0.000, 0.000, 0.000, 16:57:21.541
197, -63008.07, 101264.95, 91310.20, 124440.07, 140629.39, 104543.46, 120651.41, 167033.27, 570.93, -59857.72, -72909.55, 7988.74, -72694.30, -83705.02, -59582.04, -104791.59, 0.000, 0.000, 0.000, 16:57:21.542
198, -63008.07, 101264.95, 91310.20, 124440.07, 140629.39, 104543.46, 120651.41, 167033.27, 618.83, -59854.01, -72909.78, 7992.36, -72698.24, -83701.52, -59580.72, -104778.98, 0.000, 0.000, 0.000, 16:57:21.542
199, -63007.44, 101265.36, 91314.05, 124447.16, 140629.28, 104552.34, 120651.65, 167047.30, 618.83, -59854.01, -72909.78, 7992.36, -72698.24, -83701.52, -59580.72, -104778.98, 0.000, 0.000, 0.000, 16:57:21.542
200, -63007.44, 101265.36, 91314.05, 124447.16, 140629.28, 104552.34, 120651.65, 167047.30, 553.47, -59840.67, -72901.93, 8000.52, -72688.98, -83695.97, -59574.19, -104777.46, 0.000, 0.000, 0.000, 16:57:21.542
201, -63070.74, 101264.82, 91327.30, 124455.89, 140636.45, 104552.38, 120661.20, 167065.72, 553.47, -59840.67, -72901.93, 8000.52, -72688.98, -83695.97, -59574.19, -104777.46, 0.000, 0.000, 0.000, 16:57:21.542
202, -63070.74, 101264.82, 91327.30, 124455.89, 140636.45, 104552.38, 120661.20, 167065.72, 589.71, -59844.56, -72906.29, 7993.16, -72693.99, -83693.20, -59569.07, -104773.98, 0.000, 0.000, 0.000, 16:57:21.543
203, -63087.30, 101261.80, 91325.42, 124451.36, 140637.70, 104562.91, 120659.77, 167084.06, 589.71, -59844.56, -72906.29, 7993.16, -72693.99, -83693.20, -59569.07, -104773.98, 0.000, 0.000, 0.000, 16:57:21.543
204, -63087.30, 101261.80, 91325.42, 124451.36, 140637.70, 104562.91, 120659.77, 167084.06, 564.27, -59852.32, -72911.79, 7992.22, -72694.51, -83694.49, -59579.45, -104779.37, 0.040, 0.964, -0.018, 16:57:21.543
205, -63110.80, 101265.18, 91311.74, 124442.23, 140624.77, 104565.05, 120648.38, 167113.92, 564.27, -59852.32, -72911.79, 7992.22, -72694.51, -83694.49, -59579.45, -104779.37, 0.000, 0.000, 0.000, 16:57:21.543
206, -63110.80, 101265.18, 91311.74, 124442.23, 140624.77, 104565.05, 120648.38, 167113.92, 563.17, -59856.32, -72917.36, 7990.12, -72705.08, -83704.71, -59585.95, -104793.73, 0.000, 0.000, 0.000, 16:57:21.543
207, -63107.91, 101265.65, 91308.82, 124446.64, 140627.73, 104569.39, 120643.98, 167121.13, 563.17, -59856.32, -72917.36, 7990.12, -72705.08, -83704.71, -59585.95, -104793.73, 0.000, 0.000, 0.000, 16:57:21.544
208, -63107.91, 101265.65, 91308.82, 124446.64, 140627.73, 104569.39, 120643.98, 167121.13, 591.18, -59838.48, -72905.20, 8001.19, -72699.41, -83706.43, -59588.59, -104788.20, 0.000, 0.000, 0.000, 16:57:21.544
209, -63129.50, 101264.87, 91309.80, 124451.94, 140628.75, 104575.27, 120642.71, 167135.23, 591.18, -59838.48, -72905.20, 8001.19, -72699.41, -83706.43, -59588.59, -104788.20, 0.000, 0.000, 0.000, 16:57:21.544
210, -63129.50, 101264.87, 91309.80, 124451.94, 140628.75, 104575.27, 120642.71, 167135.23, 546.12, -59838.39, -72904.75, 8002.91, -72701.48, -83697.18, -59587.31, -104787.90, 0.000, 0.000, 0.000, 16:57:21.544
211, -63163.26, 101271.91, 91312.86, 124452.63, 140631.19, 104572.52, 120650.63, 167150.36, 546.12, -59838.39, -72904.75, 8002.91, -72701.48, -83697.18, -59587.31, -104787.90, 0.000, 0.000, 0.000, 16:57:21.544
212, -63163.26, 101271.91, 91312.86, 124452.63, 140631.19, 104572.52, 120650.63, 167150.36, 583.38, -59837.50, -72909.73, 7997.88, -72704.27, -83711.66, -59592.07, -104800.11, 0.000, 0.000, 0.000, 16:57:21.544
213, -63160.64, 101284.60, 91309.60, 124445.66, 140625.77, 104580.50, 120641.55, 167163.97, 583.38, -59837.50, -72909.73, 7997.88, -72704.27, -83711.66, -59592.07, -104800.11, 0.000, 0.000, 0.000, 16:57:21.545
214, -63160.64, 101284.60, 91309.60, 124445.66, 140625.77, 104580.50, 120641.55, 167163.97, 566.01, -59838.41, -72904.28, 8007.83, -72702.47, -83696.04, -59591.45, -104796.93, 0.040, 0.956, -0.018, 16:57:21.545
215, -63194.44, 101275.41, 91310.98, 124445.97, 140625.30, 104584.75, 120638.59, 167173.86, 566.01, -59838.41, -72904.28, 8007.83, -72702.47, -83696.04, -59591.45, -104796.93, 0.000, 0.000, 0.000, 16:57:21.545
216, -63194.44, 101275.41, 91310.98, 124445.97, 140625.30, 104584.75, 120638.59, 167173.86, 567.02, -59829.40, -72903.14, 8004.38, -72702.06, -83697.94, -59583.33, -104799.19, 0.000, 0.000, 0.000, 16:57:21.545
217, -63202.26, 101292.31, 91324.91, 124457.02, 140638.09, 104587.63, 120649.21, 167201.64, 567.02, -59829.40, -72903.14, 8004.38, -72702.06, -83697.94, -59583.33, -104799.19, 0.000, 0.000, 0.000, 16:57:21.545
218, -63202.26, 101292.31, 91324.91, 124457.02, 140638.09, 104587.63, 120649.21, 167201.64, 619.48, -59823.05, -72899.77, 7999.76, -72692.88, -83699.01, -59577.95, -104794.01, 0.000, 0.000, 0.000, 16:57:21.545
219, -63189.77, 101281.30, 91316.64, 124444.80, 140639.70, 104593.66, 120645.91, 167244.19, 619.48, -59823.05, -72899.77, 7999.76, -72692.88, -83699.01, -59577.95, -104794.01, 0.000, 0.000, 0.000, 16:57:21.546
220, -63189.77, 101281.30, 91316.64, 124444.80, 140639.70, 104593.66, 120645.91, 167244.19, 584.63, -59840.65, -72913.09, 7984.94, -72709.89, -83707.46, -59581.14, -104802.45, 0.000, 0.000, 0.000, 16:57:21.546
221, -63208.07, 101276.58, 91304.82, 124434.52, 140632.56, 104587.92, 120639.60, 167260.64, 584.63, -59840.65, -72913.09, 7984.94, -72709.89, -83707.46, -59581.14, -104802.45, 0.000, 0.000, 0.000, 16:57:21.546
222, -63208.07, 101276.58, 91304.82, 124434.52, 140632.56, 104587.92, 120639.60, 167260.64, 641.00, -59844.40, -72914.98, 7982.88, -72705.48, -83705.96, -59578.62, -104798.72, 0.000, 0.000, 0.000, 16:57:21.546
223, -63190.21, 101290.39, 91314.59, 124450.27, 140640.08, 104609.54, 120649.80, 167287.89, 641.00, -59844.40, -72914.98, 7982.88, -72705.48, -83705.96, -59578.62, -104798.72, 0.032, 0.966, -0.016, 16:57:21.546
224, -63190.21, 101290.39, 91314.59, 124450.27, 140640.08, 104609.54, 120649.80, 167287.89, 618.38, -59815.70, -72899.85, 8002.62, -72693.08, -83676.37, -59576.76, -104786.12, 0.000, 0.000, 0.000, 16:57:21.546
225, -63225.19, 101298.62, 91313.71, 124449.63, 140633.38, 104606.54, 120641.84, 167308.19, 618.38, -59815.70, -72899.85, 8002.62, -72693.08, -83676.37, -59576.76, -104786.12, 0.000, 0.000, 0.000, 16:57:21.546
0, -63225.19, 101298.62, 91313.71, 124449.63, 140633.38, 104606.54, 120641.84, 167308.19, 324.59, -29919.42, -36457.84, 3996.72, -36354.42, -41847.16, -29791.03, -52398.75, 0.058, 0.974, -0.048, 16:58:04.614
1, -20704.42, 50931.53, 46583.89, 63347.17, 71915.23, 57963.44, 61225.25, 82256.70, 324.59, -29919.42, -36457.84, 3996.72, -36354.42, -41847.16, -29791.03, -52398.75, 0.000, 0.000, 0.000, 16:58:05.099
2, -20704.42, 50931.53, 46583.89, 63347.17, 71915.23, 57963.44, 61225.25, 82256.70, -15267.60, -64117.36, -70793.25, 10298.30, -70827.49, -81869.05, -58040.32, -102294.92, 0.000, 0.000, 0.000, 16:58:05.099
3, -41618.10, 101867.85, 93155.02, 126688.81, 143825.02, 115910.35, 122464.38, 164429.84, -15267.60, -64117.36, -70793.25, 10298.30, -70827.49, -81869.05, -58040.32, -102294.92, 0.000, 0.000, 0.000, 16:58:05.100
4, -41618.10, 101867.85, 93155.02, 126688.81, 143825.02, 115910.35, 122464.38, 164429.84, -15165.79, -64082.43, -70790.54, 10305.23, -70817.14, -81855.59, -58021.33, -102279.39, 0.000, 0.000, 0.000, 16:58:05.100
5, -41909.48, 101899.32, 93155.61, 126689.68, 143839.89, 115877.56, 122481.84, 164306.42, -15165.79, -64082.43, -70790.54, 10305.23, -70817.14, -81855.59, -58021.33, -102279.39, 0.000, 0.000, 0.000, 16:58:05.100
6, -41909.48, 101899.32, 93155.61, 126689.68, 143839.89, 115877.56, 122481.84, 164306.42, -15108.53, -64067.70, -70800.31, 10295.86, -70814.95, -81844.33, -58027.83, -102290.07, 0.000, 0.000, 0.000, 16:58:05.100
7, -42282.95, 101905.45, 93136.85, 126661.81, 143832.13, 115845.45, 122465.94, 164214.03, -15108.53, -64067.70, -70800.31, 10295.86, -70814.95, -81844.33, -58027.83, -102290.07, 0.032, 0.968, -0.048, 16:58:05.100
8, -42282.95, 101905.45, 93136.85, 126661.81, 143832.13, 115845.45, 122465.94, 164214.03, -15003.41, -64072.93, -70810.66, 10284.48, -70820.16, -81866.03, -58033.29, -102289.98, 0.000, 0.000, 0.000, 16:58:05.100
9, -42567.11, 101927.41, 93121.97, 126651.20, 143826.03, 115882.21, 122458.19, 164120.30, -15003.41, -64072.93, -70810.66, 10284.48, -70820.16, -81866.03, -58033.29, -102289.98, 0.000, 0.000, 0.000, 16:58:05.101
10, -42567.11, 101927.41, 93121.97, 126651.20, 143826.03, 115882.21, 122458.19, 164120.30, -14927.28, -64067.61, -70821.09, 10274.38, -70825.44, -81887.36, -58055.75, -102294.55, 0.000, 0.000, 0.000, 16:58:05.101
11, -42986.32, 101939.75, 93095.26, 126624.08, 143816.91, 115874.52, 122438.98, 163967.08, -14927.28, -64067.61, -70821.09, 10274.38, -70825.44, -81887.36, -58055.75, -102294.55, 0.000, 0.000, 0.000, 16:58:05.101
12, -42986.32, 101939.75, 93095.26, 126624.08, 143816.91, 115874.52, 122438.98, 163967.08, -14882.44, -64053.95, -70825.12, 10270.29, -70826.80, -81881.10, -58069.47, -102301.18, 0.000, 0.000, 0.000, 16:58:05.101
13, -43286.16, 101968.09, 93088.91, 126618.80, 143811.95, 115875.89, 122439.97, 163891.91, -14882.44, -64053.95, -70825.12, 10270.29, -70826.80, -81881.10, -58069.47, -102301.18, 0.000, 0.000, 0.000, 16:58:05.101
14, -43286.16, 101968.09, 93088.91, 126618.80, 143811.95, 115875.89, 122439.97, 163891.91, -14785.50, -64043.13, -70821.84, 10275.12, -70829.23, -81868.36, -58065.54, -102295.52, 0.000, 0.000, 0.000, 16:58:05.101
15, -43570.41, 101993.80, 93089.49, 126616.68, 143808.33, 115790.98, 122432.59, 163802.61, -14785.50, -64043.13, -70821.84, 10275.12, -70829.23, -81868.36, -58065.54, -102295.52, 0.000, 0.000, 0.000, 16:58:05.102
16, -43570.41, 101993.80, 93089.49, 126616.68, 143808.33, 115790.98, 122432.59, 163802.61, -14783.33, -64040.27, -70814.55, 10277.62, -70821.34, -81860.69, -58080.27, -102308.40, 0.000, 0.000, 0.000, 16:58:05.102
17, -43875.64, 102034.77, 93094.52, 126614.49, 143809.02, 115727.72, 122427.02, 163739.59, -14783.33, -64040.27, -70814.55, 10277.62, -70821.34, -81860.69, -58080.27, -102308.40, -0.018, 0.952, -0.030, 16:58:05.102
18, -43875.64, 102034.77, 93094.52, 126614.49, 143809.02, 115727.72, 122427.02, 163739.59, -14727.99, -64030.10, -70804.06, 10289.51, -70811.46, -81864.09, -58068.06, -102306.10, 0.000, 0.000, 0.000, 16:58:05.102
19, -44029.09, 102065.35, 93098.01, 126614.65, 143809.91, 115667.19, 122428.99, 163722.56, -14727.99, -64030.10, -70804.06, 10289.51, -70811.46, -81864.09, -58068.06, -102306.10, 0.000, 0.000, 0.000, 16:58:05.102
20, -44029.09, 102065.35, 93098.01, 126614.65, 143809.91, 115667.19, 122428.99, 163722.56, -14616.63, -64027.69, -70788.11, 10312.45, -70801.07, -81856.96, -58067.33, -102292.06, 0.000, 0.000, 0.000, 16:58:05.102
21, -44333.48, 102098.59, 93104.91, 126622.59, 143820.84, 115627.91, 122438.45, 163649.00, -14616.63, -64027.69, -70788.11, 10312.45, -70801.07, -81856.96, -58067.33, -102292.06, 0.000, 0.000, 0.000, 16:58:05.103
22, -44333.48, 102098.59, 93104.91, 126622.59, 143820.84, 115627.91, 122438.45, 163649.00, -14309.27, -64039.06, -70793.54, 10317.05, -70803.51, -81849.42, -58069.00, -102297.78, 0.000, 0.000, 0.000, 16:58:05.103
23, -44533.97, 102097.89, 93090.70, 126611.25, 143813.95, 115581.02, 122437.64, 163628.67, -14309.27, -64039.06, -70793.54, 10317.05, -70803.51, -81849.42, -58069.00, -102297.78, 0.000, 0.000, 0.000, 16:58:05.103
24, -44533.97, 102097.89, 93090.70, 126611.25, 143813.95, 115581.02, 122437.64, 163628.67, -13762.93, -64050.82, -70793.13, 10330.19, -70803.64, -81852.33, -58061.76, -102287.52, 0.000, 0.000, 0.000, 16:58:05.103
25, -44721.01, 102077.48, 93097.72, 126619.19, 143821.44, 115525.84, 122447.70, 163552.78, -13762.93, -64050.82, -70793.13, 10330.19, -70803.64, -81852.33, -58061.76, -102287.52, 0.000, 0.000, 0.000, 16:58:05.103
26, -44721.01, 102077.48, 93097.72, 126619.19, 143821.44, 115525.84, 122447.70, 163552.78, -13529.13, -64046.29, -70786.72, 10346.94, -70804.69, -81855.69, -58071.28, -102283.84, 0.000, 0.000, 0.000, 16:58:05.103
27, -44911.52, 102019.39, 93079.97, 126613.40, 143822.81, 115423.66, 122447.26, 163506.52, -13529.13, -64046.29, -70786.72, 10346.94, -70804.69, -81855.69, -58071.28, -102283.84, -0.084, 0.962, 0.002, 16:58:05.104
28, -44911.52, 102019.39, 93079.97, 126613.40, 143822.81, 115423.66, 122447.26, 163506.52, -13322.42, -64025.79, -70783.05, 10357.87, -70797.12, -81834.49, -58059.50, -102274.09, 0.000, 0.000, 0.000, 16:58:05.104
29, -44930.65, 101968.12, 93055.41, 126615.03, 143827.70, 115418.55, 122457.83, 163468.47, -13322.42, -64025.79, -70783.05, 10357.87, -70797.12, -81834.49, -58059.50, -102274.09, 0.000, 0.000, 0.000, 16:58:05.104
30, -44930.65, 101968.12, 93055.41, 126615.03, 143827.70, 115418.55, 122457.83, 163468.47, -13079.50, -64047.27, -70797.94, 10345.53, -70809.36, -81843.50, -58070.79, -102273.29, 0.000, 0.000, 0.000, 16:58:05.104
31, -44697.95, 101911.61, 93016.05, 126602.29, 143824.78, 115421.66, 122451.77, 163442.13, -13079.50, -64047.27, -70797.94, 10345.53, -70809.36, -81843.50, -58070.79, -102273.29, 0.000, 0.000, 0.000, 16:58:05.104
32, -44697.95, 101911.61, 93016.05, 126602.29, 143824.78, 115421.66, 122451.77, 163442.13, -12695.41, -64050.20, -70802.88, 10342.67, -70811.58, -81846.05, -58072.49, -102274.96, 0.000, 0.000, 0.000, 16:58:05.105
33, -44070.82, 101865.44, 92987.99, 126592.32, 143824.38, 115405.95, 122452.28, 163490.16, -12695.41, -64050.20, -70802.88, 10342.67, -70811.58, -81846.05, -58072.49, -102274.96, 0.000, 0.000, 0.000, 16:58:05.105
34, -44070.82, 101865.44, 92987.99, 126592.32, 143824.38, 115405.95, 122452.28, 163490.16, -12281.93, -64041.99, -70807.98, 10345.10, -70814.28, -81855.30, -58067.53, -102281.89, 0.000, 0.000, 0.000, 16:58:05.105
35, -43430.13, 101829.52, 92972.62, 126595.13, 143821.83, 115461.64, 122447.05, 163425.67, -12281.93, -64041.99, -70807.98, 10345.10, -70814.28, -81855.30, -58067.53, -102281.89, 0.000, 0.000, 0.000, 16:58:05.105
36, -43430.13, 101829.52, 92972.62, 126595.13, 143821.83, 115461.64, 122447.05, 163425.67, -12200.95, -64039.11, -70804.67, 10351.81, -70812.60, -81881.95, -58080.27, -102284.48, 0.000, 0.000, 0.000, 16:58:05.105
37, -42819.17, 101788.90, 92961.93, 126591.85, 143808.06, 115453.66, 122417.33, 163363.64, -12200.95, -64039.11, -70804.67, 10351.81, -70812.60, -81881.95, -58080.27, -102284.48, -0.102, 0.932, 0.024, 16:58:05.105
38, -42819.17, 101788.90, 92961.93, 126591.85, 143808.06, 115453.66, 122417.33, 163363.64, -12087.69, -64042.11, -70804.69, 10362.54, -70815.80, -81850.50, -58084.20, -102280.13, 0.000, 0.000, 0.000, 16:58:05.106
39, -42192.98, 101755.06, 92958.55, 126606.20, 143795.23, 115431.38, 122390.48, 163336.06, -12087.69, -64042.11, -70804.69, 10362.54, -70815.80, -81850.50, -58084.20, -102280.13, 0.000, 0.000, 0.000, 16:58:05.106
40, -42192.98, 101755.06, 92958.55, 126606.20, 143795.23, 115431.38, 122390.48, 163336.06, -11894.91, -64044.94, -70805.12, 10371.77, -70818.52, -81850.92, -58094.06, -102277.06, 0.000, 0.000, 0.000, 16:58:05.106
41, -41690.18, 101728.17, 92956.19, 126613.64, 143798.22, 115383.01, 122371.93, 163257.89, -11894.91, -64044.94, -70805.12, 10371.77, -70818.52, -81850.92, -58094.06, -102277.06, 0.000, 0.000, 0.000, 16:58:05.106
42, -41690.18, 101728.17, 92956.19, 126613.64, 143798.22, 115383.01, 122371.93, 163257.89, -11760.97, -64049.55, -70805.90, 10381.74, -70819.27, -81853.94, -58100.16, -102271.23, 0.000, 0.000, 0.000, 16:58:05.106
43, -41280.92, 101704.50, 92955.45, 126625.22, 143803.81, 115372.84, 122371.02, 163243.33, -11760.97, -64049.55, -70805.90, 10381.74, -70819.27, -81853.94, -58100.16, -102271.23, 0.000, 0.000, 0.000, 16:58:05.106
44, -41280.92, 101704.50, 92955.45, 126625.22, 143803.81, 115372.84, 122371.02, 163243.33, -11706.48, -64057.55, -70806.93, 10381.29, -70823.98, -81860.84, -58095.89, -102274.29, 0.000, 0.000, 0.000, 16:58:05.107
45, -40953.82, 101676.92, 92951.78, 126621.48, 143803.05, 115358.78, 122362.56, 163201.66, -11706.48, -64057.55, -70806.93, 10381.29, -70823.98, -81860.84, -58095.89, -102274.29, 0.000, 0.000, 0.000, 16:58:05.107
46, -40953.82, 101676.92, 92951.78, 126621.48, 143803.05, 115358.78, 122362.56, 163201.66, -11570.25, -64052.70, -70804.24, 10382.03, -70822.77, -81855.80, -58093.95, -102288.22, 0.000, 0.000, 0.000, 16:58:05.107
47, -40688.02, 101660.09, 92954.94, 126629.27, 143815.59, 115353.02, 122365.67, 163212.23, -11570.25, -64052.70, -70804.24, 10382.03, -70822.77, -81855.80, -58093.95, -102288.22, -0.072, 0.940, 0.026, 16:58:05.107
48, -40688.02, 101660.09, 92954.94, 126629.27, 143815.59, 115353.02, 122365.67, 163212.23, -11523.44, -64053.48, -70803.13, 10384.78, -70824.79, -81863.82, -58083.98, -102291.52, 0.000, 0.000, 0.000, 16:58:05.107
49, -40498.36, 101636.59, 92950.24, 126630.85, 143820.38, 115317.74, 122366.43, 163207.25, -11523.44, -64053.48, -70803.13, 10384.78, -70824.79, -81863.82, -58083.98, -102291.52, 0.000, 0.000, 0.000, 16:58:05.107
50, -40498.36, 101636.59, 92950.24, 126630.85, 143820.38, 115317.74, 122366.43, 163207.25, -11493.27, -64057.39, -70814.91, 10376.08, -70834.35, -81871.73, -58085.59, -102297.54, 0.000, 0.000, 0.000, 16:58:05.108
51, -40281.29, 101595.52, 92939.71, 126626.92, 143819.02, 115265.08, 122357.65, 163158.41, -11493.27, -64057.39, -70814.91, 10376.08, -70834.35, -81871.73, -58085.59, -102297.54, 0.000, 0.000, 0.000, 16:58:05.108
52, -40281.29, 101595.52, 92939.71, 126626.92, 143819.02, 115265.08, 122357.65, 163158.41, -11445.86, -64051.27, -70809.84, 10383.68, -70830.24, -81849.20, -58082.77, -102301.90, 0.000, 0.000, 0.000, 16:58:05.108
53, -40146.48, 101583.38, 92948.74, 126634.02, 143836.28, 115232.83, 122375.82, 163154.16, -11445.86, -64051.27, -70809.84, 10383.68, -70830.24, -81849.20, -58082.77, -102301.90, 0.000, 0.000, 0.000, 16:58:05.108
54, -40146.48, 101583.38, 92948.74, 126634.02, 143836.28, 115232.83, 122375.82, 163154.16, -11534.80, -64059.45, -70812.13, 10376.57, -70838.51, -81868.38, -58082.19, -102301.07, 0.000, 0.000, 0.000, 16:58:05.108
55, -40131.19, 101561.85, 92941.27, 126624.35, 143833.67, 115191.16, 122369.02, 163145.80, -11534.80, -64059.45, -70812.13, 10376.57, -70838.51, -81868.38, -58082.19, -102301.07, 0.000, 0.000, 0.000, 16:58:05.108
56, -40131.19, 101561.85, 92941.27, 126624.35, 143833.67, 115191.16, 122369.02, 163145.80, -11590.09, -64061.02, -70816.11, 10370.43, -70844.41, -81873.05, -58094.20, -102317.68, 0.000, 0.000, 0.000, 16:58:05.109
57, -40255.40, 101545.38, 92940.77, 126617.45, 143837.61, 115148.09, 122369.13, 163106.58, -11590.09, -64061.02, -70816.11, 10370.43, -70844.41, -81873.05, -58094.20, -102317.68, -0.050, 0.964, 0.024, 16:58:05.109
58, -40255.40, 101545.38, 92940.77, 126617.45, 143837.61, 115148.09, 122369.13, 163106.58, -11725.01, -64060.68, -70820.41, 10367.81, -70851.90, -81877.55, -58096.32, -102332.83, 0.000, 0.000, 0.000, 16:58:05.109
59, -40294.54, 101524.75, 92932.70, 126616.77, 143831.91, 115151.04, 122360.80, 163121.58, -11725.01, -64060.68, -70820.41, 10367.81, -70851.90, -81877.55, -58096.32, -102332.83, 0.000, 0.000, 0.000, 16:58:05.109
60, -40294.54, 101524.75, 92932.70, 126616.77, 143831.91, 115151.04, 122360.80, 163121.58, -11319.21, -64054.91, -70823.69, 10364.97, -70849.66, -81876.47, -58067.04, -102322.46, 0.000, 0.000, 0.000, 16:58:05.109
61, -39861.25, 101504.05, 92924.63, 126611.48, 143820.75, 115146.15, 122345.73, 163176.05, -11319.21, -64054.91, -70823.69, 10364.97, -70849.66, -81876.47, -58067.04, -102322.46, 0.000, 0.000, 0.000, 16:58:05.110
62, -39861.25, 101504.05, 92924.63, 126611.48, 143820.75, 115146.15, 122345.73, 163176.05, -10966.73, -64044.29, -70827.85, 10366.07, -70856.93, -81876.45, -58080.85, -102332.92, 0.000, 0.000, 0.000, 16:58:05.110
63, -39516.16, 101501.08, 92928.11, 126622.13, 143818.00, 115130.84, 122332.68, 163181.83, -10966.73, -64044.29, -70827.85, 10366.07, -70856.93, -81876.45, -58080.85, -102332.92, 0.000, 0.000, 0.000, 16:58:05.110
64, -39516.16, 101501.08, 92928.11, 126622.13, 143818.00, 115130.84, 122332.68, 163181.83, -10980.56, -64030.88, -70820.34, 10374.43, -70858.34, -81876.49, -58091.04, -102334.77, 0.000, 0.000, 0.000, 16:58:05.110
65, -39279.23, 101493.77, 92929.48, 126624.66, 143807.34, 115111.63, 122310.15, 163156.42, -10980.56, -64030.88, -70820.34, 10374.43, -70858.34, -81876.49, -58091.04, -102334.77, 0.000, 0.000, 0.000, 16:58:05.110
66, -39279.23, 101493.77, 92929.48, 126624.66, 143807.34, 115111.63, 122310.15, 163156.42, -11005.84, -64035.24, -70810.52, 10380.24, -70848.77, -81864.60, -58104.74, -102337.80, -0.022, 0.962, 0.022, 16:58:05.111
67, -39101.20, 101482.41, 92935.47, 126627.12, 143800.02, 115099.55, 122293.48, 163143.30, -11005.84, -64035.24, -70810.52, 10380.24, -70848.77, -81864.60, -58104.74, -102337.80, 0.000, 0.000, 0.000, 16:58:05.111
68, -39101.20, 101482.41, 92935.47, 126627.12, 143800.02, 115099.55, 122293.48, 163143.30, -11001.95, -64044.79, -70814.95, 10374.74, -70851.79, -81869.99, -58104.32, -102340.16, 0.000, 0.000, 0.000, 16:58:05.111
69, -38956.92, 101458.72, 92931.55, 126618.67, 143795.00, 115090.11, 122274.63, 163178.19, -11001.95, -64044.79, -70814.95, 10374.74, -70851.79, -81869.99, -58104.32, -102340.16, 0.000, 0.000, 0.000, 16:58:05.111
70, -38956.92, 101458.72, 92931.55, 126618.67, 143795.00, 115090.11, 122274.63, 163178.19, -10985.64, -64056.97, -70819.17, 10367.50, -70853.46, -81889.50, -58113.41, -102351.65, 0.000, 0.000, 0.000, 16:58:05.111
71, -38888.66, 101442.85, 92921.30, 126612.66, 143798.67, 115060.54, 122267.23, 163232.77, -10985.64, -64056.97, -70819.17, 10367.50, -70853.46, -81889.50, -58113.41, -102351.65, 0.000, 0.000, 0.000, 16:58:05.112
72, -38888.66, 101442.85, 92921.30, 126612.66, 143798.67, 115060.54, 122267.23, 163232.77, -11040.42, -64045.79, -70817.52, 10374.72, -70852.50, -81874.62, -58120.03, -102360.15, 0.000, 0.000, 0.000, 16:58:05.112
73, -38872.75, 101428.70, 92914.25, 126618.78, 143801.48, 115065.77, 122262.07, 163237.53, -11040.42, -64045.79, -70817.52, 10374.72, -70852.50, -81874.62, -58120.03, -102360.15, 0.000, 0.000, 0.000, 16:58:05.112
74, -38872.75, 101428.70, 92914.25, 126618.78, 143801.48, 115065.77, 122262.07, 163237.53, -11020.75, -64052.61, -70834.27, 10360.35, -70862.34, -81884.12, -58116.05, -102359.68, 0.000, 0.000, 0.000, 16:58:05.112
75, -38843.15, 101413.73, 92906.38, 126607.05, 143803.72, 115038.01, 122256.75, 163373.13, -11020.75, -64052.61, -70834.27, 10360.35, -70862.34, -81884.12, -58116.05, -102359.68, 0.000, 0.000, 0.000, 16:58:05.113
76, -38843.15, 101413.73, 92906.38, 126607.05, 143803.72, 115038.01, 122256.75, 163373.13, -11025.31, -64042.98, -70826.91, 10365.87, -70865.84, -81899.85, -58122.13, -102369.89, 0.002, 0.950, 0.018, 16:58:05.113
77, -38913.56, 101416.09, 92910.25, 126605.71, 143811.47, 115030.12, 122262.90, 163488.30, -11025.31, -64042.98, -70826.91, 10365.87, -70865.84, -81899.85, -58122.13, -102369.89, 0.000, 0.000, 0.000, 16:58:05.113
78, -38913.56, 101416.09, 92910.25, 126605.71, 143811.47, 115030.12, 122262.90, 163488.30, -10967.22, -64037.34, -70825.14, 10360.39, -70854.09, -81904.99, -58105.91, -102375.59, 0.000, 0.000, 0.000, 16:58:05.113
79, -38931.37, 101383.58, 92907.82, 126594.30, 143814.89, 115016.95, 122264.53, 163538.09, -10967.22, -64037.34, -70825.14, 10360.39, -70854.09, -81904.99, -58105.91, -102375.59, 0.000, 0.000, 0.000, 16:58:05.113
80, -38931.37, 101383.58, 92907.82, 126594.30, 143814.89, 115016.95, 122264.53, 163538.09, -10938.67, -64028.78, -70835.16, 10351.81, -70861.06, -81881.52, -58115.23, -102374.36, 0.000, 0.000, 0.000, 16:58:05.114
81, -39110.25, 101375.59, 92906.50, 126592.38, 143819.86, 115012.66, 122268.87, 163508.66, -10938.67, -64028.78, -70835.16, 10351.81, -70861.06, -81881.52, -58115.23, -102374.36, 0.000, 0.000, 0.000, 16:58:05.114
82, -39110.25, 101375.59, 92906.50, 126592.38, 143819.86, 115012.66, 122268.87, 163508.66, -10959.64, -64021.68, -70848.52, 10343.09, -70869.84, -81891.23, -58117.44, -102384.20, 0.000, 0.000, 0.000, 16:58:05.114
83, -39192.78, 101356.04, 92894.34, 126580.47, 143811.47, 115023.64, 122262.30, 163503.97, -10959.64, -64021.68, -70848.52, 10343.09, -70869.84, -81891.23, -58117.44, -102384.20, 0.000, 0.000, 0.000, 16:58:05.114
84, -39192.78, 101356.04, 92894.34, 126580.47, 143811.47, 115023.64, 122262.30, 163503.97, -10901.19, -64017.27, -70856.48, 10336.70, -70870.31, -81907.56, -58117.64, -102392.69, 0.000, 0.000, 0.000, 16:58:05.115
85, -39285.54, 101344.64, 92893.66, 126571.87, 143803.98, 115018.77, 122248.23, 163493.33, -10901.19, -64017.27, -70856.48, 10336.70, -70870.31, -81907.56, -58117.64, -102392.69, 0.000, 0.000, 0.000, 16:58:05.115
86, -39285.54, 101344.64, 92893.66, 126571.87, 143803.98, 115018.77, 122248.23, 163493.33, -10909.62, -64011.08, -70854.83, 10336.83, -70872.75, -81931.95, -58133.98, -102415.04, 0.000, 0.956, 0.014, 16:58:05.115
87, -39427.49, 101342.18, 92901.55, 126576.31, 143794.11, 115014.45, 122234.20, 163464.00, -10909.62, -64011.08, -70854.83, 10336.83, -70872.75, -81931.95, -58133.98, -102415.04, 0.000, 0.000, 0.000, 16:58:05.115
88, -39427.49, 101342.18, 92901.55, 126576.31, 143794.11, 115014.45, 122234.20, 163464.00, -10935.08, -63996.37, -70849.88, 10347.23, -70872.53, -81902.96, -58132.77, -102416.00, 0.000, 0.000, 0.000, 16:58:05.115
89, -39481.58, 101327.85, 92904.82, 126583.83, 143782.69, 115017.18, 122222.89, 163452.36, -10935.08, -63996.37, -70849.88, 10347.23, -70872.53, -81902.96, -58132.77, -102416.00, 0.000, 0.000, 0.000, 16:58:05.116
90, -39481.58, 101327.85, 92904.82, 126583.83, 143782.69, 115017.18, 122222.89, 163452.36, -10936.78, -63981.55, -70838.55, 10361.62, -70863.23, -81886.89, -58136.55, -102415.31, 0.000, 0.000, 0.000, 16:58:05.116
91, -39594.82, 101331.49, 92925.88, 126601.88, 143793.64, 115032.09, 122226.66, 163427.56, -10936.78, -63981.55, -70838.55, 10361.62, -70863.23, -81886.89, -58136.55, -102415.31, 0.000, 0.000, 0.000, 16:58:05.116
92, -39594.82, 101331.49, 92925.88, 126601.88, 143793.64, 115032.09, 122226.66, 163427.56, -10988.56, -63973.89, -70828.77, 10371.03, -70850.42, -81892.25, -58140.30, -102411.22, 0.000, 0.000, 0.000, 16:58:05.116
93, -39735.50, 101327.65, 92922.19, 126600.70, 143784.28, 115042.99, 122213.95, 163436.22, -10988.56, -63973.89, -70828.77, 10371.03, -70850.42, -81892.25, -58140.30, -102411.22, 0.000, 0.000, 0.000, 16:58:05.117
94, -39735.50, 101327.65, 92922.19, 126600.70, 143784.28, 115042.99, 122213.95, 163436.22, -11163.38, -63983.86, -70833.55, 10360.50, -70859.61, -81923.90, -58151.82, -102424.70, 0.000, 0.000, 0.000, 16:58:05.117
95, -39971.87, 101326.06, 92916.76, 126594.46, 143776.77, 115045.25, 122200.27, 163317.95, -11163.38, -63983.86, -70833.55, 10360.50, -70859.61, -81923.90, -58151.82, -102424.70, 0.000, 0.000, 0.000, 16:58:05.117
96, -39971.87, 101326.06, 92916.76, 126594.46, 143776.77, 115045.25, 122200.27, 163317.95, -11341.92, -63963.38, -70819.13, 10381.96, -70852.77, -81896.70, -58148.60, -102412.09, -0.002, 0.978, 0.012, 16:58:05.117
97, -40248.27, 101325.80, 92942.06, 126628.93, 143796.88, 115081.64, 122218.64, 163229.91, -11341.92, -63963.38, -70819.13, 10381.96, -70852.77, -81896.70, -58148.60, -102412.09, 0.000, 0.000, 0.000, 16:58:05.118
98, -40248.27, 101325.80, 92942.06, 126628.93, 143796.88, 115081.64, 122218.64, 163229.91, -11437.45, -63959.98, -70821.95, 10384.44, -70858.11, -81879.09, -58133.51, -102404.58, 0.000, 0.000, 0.000, 16:58:05.118
99, -40419.02, 101307.27, 92932.59, 126618.72, 143780.11, 115083.34, 122206.98, 163226.95, -11437.45, -63959.98, -70821.95, 10384.44, -70858.11, -81879.09, -58133.51, -102404.58, 0.000, 0.000, 0.000, 16:58:05.118
100, -40419.02, 101307.27, 92932.59, 126618.72, 143780.11, 115083.34, 122206.98, 163226.95, -11412.20, -63957.12, -70825.23, 10372.64, -70852.48, -81898.55, -58138.67, -102428.32, 0.000, 0.000, 0.000, 16:58:05.119
101, -40572.01, 101295.38, 92922.66, 126602.73, 143778.02, 115069.93, 122201.09, 163182.53, -11412.20, -63957.12, -70825.23, 10372.64, -70852.48, -81898.55, -58138.67, -102428.32, 0.000, 0.000, 0.000, 16:58:05.119
102, -40572.01, 101295.38, 92922.66, 126602.73, 143778.02, 115069.93, 122201.09, 163182.53, -11388.88, -63954.48, -70831.73, 10362.45, -70858.54, -81913.13, -58136.26, -102434.20, 0.000, 0.000, 0.000, 16:58:05.119
103, -40720.56, 101285.97, 92917.72, 126589.39, 143786.98, 115064.25, 122213.16, 163171.06, -11388.88, -63954.48, -70831.73, 10362.45, -70858.54, -81913.13, -58136.26, -102434.20, 0.000, 0.000, 0.000, 16:58:05.119
104, -40720.56, 101285.97, 92917.72, 126589.39, 143786.98, 115064.25, 122213.16, 163171.06, -11446.98, -63948.38, -70837.73, 10353.17, -70859.25, -81933.83, -58138.34, -102446.91, 0.000, 0.000, 0.000, 16:58:05.120
105, -40923.79, 101283.80, 92920.45, 126584.92, 143804.23, 115067.54, 122234.89, 163140.84, -11446.98, -63948.38, -70837.73, 10353.17, -70859.25, -81933.83, -58138.34, -102446.91, 0.000, 0.000, 0.000, 16:58:05.120
106, -40923.79, 101283.80, 92920.45, 126584.92, 143804.23, 115067.54, 122234.89, 163140.84, -11448.14, -63941.12, -70843.45, 10348.66, -70857.17, -81934.01, -58133.27, -102435.98, -0.004, 0.982, 0.010, 16:58:05.120
107, -41103.11, 101257.34, 92906.95, 126567.13, 143798.95, 115087.30, 122237.71, 163085.47, -11448.14, -63941.12, -70843.45, 10348.66, -70857.17, -81934.01, -58133.27, -102435.98, 0.000, 0.000, 0.000, 16:58:05.120
108, -41103.11, 101257.34, 92906.95, 126567.13, 143798.95, 115087.30, 122237.71, 163085.47, -11479.81, -63936.76, -70857.46, 10338.20, -70864.91, -81937.40, -58138.34, -102447.25, 0.000, 0.000, 0.000, 16:58:05.121
109, -41281.30, 101240.95, 92902.85, 126554.14, 143792.86, 115083.00, 122232.48, 163064.91, -11479.81, -63936.76, -70857.46, 10338.20, -70864.91, -81937.40, -58138.34, -102447.25, 0.000, 0.000, 0.000, 16:58:05.121
110, -41281.30, 101240.95, 92902.85, 126554.14, 143792.86, 115083.00, 122232.48, 163064.91, -11455.87, -63933.48, -70864.95, 10336.43, -70867.39, -81941.54, -58139.43, -102446.87, 0.000, 0.000, 0.000, 16:58:05.121
111, -41388.93, 101229.39, 92916.11, 126561.38, 143785.70, 115098.43, 122235.43, 163039.19, -11455.87, -63933.48, -70864.95, 10336.43, -70867.39, -81941.54, -58139.43, -102446.87, 0.000, 0.000, 0.000, 16:58:05.122
112, -41388.93, 101229.39, 92916.11, 126561.38, 143785.70, 115098.43, 122235.43, 163039.19, -11406.59, -63907.77, -70851.97, 10354.49, -70855.59, -81937.07, -58143.73, -102437.75, 0.000, 0.000, 0.000, 16:58:05.122
113, -41490.96, 101229.57, 92931.22, 126571.13, 143779.64, 115119.17, 122235.18, 163014.47, -11406.59, -63907.77, -70851.97, 10354.49, -70855.59, -81937.07, -58143.73, -102437.75, 0.000, 0.000, 0.000, 16:58:05.122
114, -41490.96, 101229.57, 92931.22, 126571.13, 143779.64, 115119.17, 122235.18, 163014.47, -11428.87, -63892.86, -70851.52, 10357.98, -70856.77, -81937.83, -58149.67, -102422.26, 0.000, 0.000, 0.000, 16:58:05.122
115, -41650.35, 101224.25, 92938.05, 126580.25, 143767.44, 115140.07, 122220.19, 162979.89, -11428.87, -63892.86, -70851.52, 10357.98, -70856.77, -81937.83, -58149.67, -102422.26, -0.016, 0.978, 0.014, 16:58:05.122
116, -41650.35, 101224.25, 92938.05, 126580.25, 143767.44, 115140.07, 122220.19, 162979.89, -11421.65, -63861.95, -70843.00, 10372.04, -70849.51, -81913.84, -58152.53, -102406.50, 0.000, 0.000, 0.000, 16:58:05.123
117, -41819.09, 101227.56, 92942.23, 126584.27, 143769.95, 115157.32, 122223.63, 162976.83, -11421.65, -63861.95, -70843.00, 10372.04, -70849.51, -81913.84, -58152.53, -102406.50, 0.000, 0.000, 0.000, 16:58:05.123
118, -41819.09, 101227.56, 92942.23, 126584.27, 143769.95, 115157.32, 122223.63, 162976.83, -11524.83, -63848.76, -70851.70, 10365.84, -70855.45, -81916.19, -58166.17, -102402.73, 0.000, 0.000, 0.000, 16:58:05.123
119, -42100.61, 101229.59, 92936.96, 126583.09, 143766.38, 115171.94, 122220.81, 162920.97, -11524.83, -63848.76, -70851.70, 10365.84, -70855.45, -81916.19, -58166.17, -102402.73, 0.000, 0.000, 0.000, 16:58:05.123
120, -42100.61, 101229.59, 92936.96, 126583.09, 143766.38, 115171.94, 122220.81, 162920.97, -11644.32, -63833.23, -70843.67, 10377.62, -70845.69, -81928.26, -58161.41, -102388.73, 0.000, 0.000, 0.000, 16:58:05.123
121, -42467.20, 101230.31, 92950.33, 126592.81, 143777.14, 115181.22, 122233.80, 162909.83, -11644.32, -63833.23, -70843.67, 10377.62, -70845.69, -81928.26, -58161.41, -102388.73, 0.000, 0.000, 0.000, 16:58:05.580
122, -42467.20, 101230.31, 92950.33, 126592.81, 143777.14, 115181.22, 122233.80, 162909.83, -11722.98, -63820.17, -70840.72, 10386.65, -70839.49, -81911.97, -58163.86, -102383.52, 0.000, 0.000, 0.000, 16:58:05.580
123, -42895.03, 101219.88, 92935.53, 126580.23, 143764.42, 115172.57, 122225.59, 162902.89, -11722.98, -63820.17, -70840.72, 10386.65, -70839.49, -81911.97, -58163.86, -102383.52, 0.000, 0.000, 0.000, 16:58:05.580
124, -42895.03, 101219.88, 92935.53, 126580.23, 143764.42, 115172.57, 122225.59, 162902.89, -11606.48, -63835.15, -70855.66, 10372.48, -70851.02, -81916.64, -58136.86, -102374.79, 0.000, 0.000, 0.000, 16:58:05.580
125, -42035.81, 101186.90, 92906.88, 126567.09, 143720.70, 115269.80, 122215.63, 163105.69, -11606.48, -63835.15, -70855.66, 10372.48, -70851.02, -81916.64, -58136.86, -102374.79, -0.024, 0.972, 0.016, 16:58:05.580
126, -42035.81, 101186.90, 92906.88, 126567.09, 143720.70, 115269.80, 122215.63, 163105.69, -9586.93, -63868.14, -70881.31, 10340.56, -70869.18, -81933.11, -58038.25, -102348.77, 0.000, 0.000, 0.000, 16:58:05.581
127, -40378.76, 101171.99, 92895.16, 126557.43, 143729.63, 115237.01, 122210.53, 163091.69, -9586.93, -63868.14, -70881.31, 10340.56, -70869.18, -81933.11, -58038.25, -102348.77, 0.000, 0.000, 0.000, 16:58:05.581
128, -40378.76, 101171.99, 92895.16, 126557.43, 143729.63, 115237.01, 122210.53, 163091.69, -9944.45, -63849.28, -70869.38, 10355.45, -70876.89, -81955.24, -58128.28, -102393.78, 0.000, 0.000, 0.000, 16:58:05.581
129, -40407.39, 101167.12, 92902.23, 126566.23, 143764.14, 115232.29, 122232.84, 162984.13, -9944.45, -63849.28, -70869.38, 10355.45, -70876.89, -81955.24, -58128.28, -102393.78, 0.000, 0.000, 0.000, 16:58:05.581
130, -40407.39, 101167.12, 92902.23, 126566.23, 143764.14, 115232.29, 122232.84, 162984.13, -10625.66, -63845.88, -70872.30, 10349.04, -70880.15, -81965.59, -58148.15, -102400.98, 0.000, 0.000, 0.000, 16:58:05.581
131, -40680.09, 101157.53, 92886.72, 126554.08, 143782.53, 115228.24, 122238.49, 162946.69, -10625.66, -63845.88, -70872.30, 10349.04, -70880.15, -81965.59, -58148.15, -102400.98, 0.000, 0.000, 0.000, 16:58:05.582
132, -40680.09, 101157.53, 92886.72, 126554.08, 143782.53, 115228.24, 122238.49, 162946.69, -10925.46, -63855.69, -70879.01, 10336.90, -70881.00, -81958.14, -58145.67, -102411.22, 0.000, 0.000, 0.000, 16:58:05.582
133, -40783.30, 101152.91, 92884.41, 126558.95, 143784.67, 115246.10, 122240.30, 162958.58, -10925.46, -63855.69, -70879.01, 10336.90, -70881.00, -81958.14, -58145.67, -102411.22, 0.000, 0.000, 0.000, 16:58:05.582
134, -40783.30, 101152.91, 92884.41, 126558.95, 143784.67, 115246.10, 122240.30, 162958.58, -10946.77, -63842.01, -70870.41, 10346.73, -70876.13, -81946.68, -58125.57, -102396.31, 0.000, 0.000, 0.000, 16:58:05.582
135, -40812.90, 101165.20, 92883.79, 126568.67, 143776.78, 115252.72, 122232.55, 162975.45, -10946.77, -63842.01, -70870.41, 10346.73, -70876.13, -81946.68, -58125.57, -102396.31, -0.018, 0.970, 0.024, 16:58:05.582
136, -40812.90, 101165.20, 92883.79, 126568.67, 143776.78, 115252.72, 122232.55, 162975.45, -10945.67, -63833.09, -70868.69, 10353.04, -70879.73, -81955.48, -58146.92, -102402.03, 0.000, 0.000, 0.000, 16:58:05.583
137, -40847.70, 101161.06, 92876.81, 126570.37, 143755.11, 115246.53, 122207.66, 163008.66, -10945.67, -63833.09, -70868.69, 10353.04, -70879.73, -81955.48, -58146.92, -102402.03, 0.000, 0.000, 0.000, 16:58:05.583
138, -40847.70, 101161.06, 92876.81, 126570.37, 143755.11, 115246.53, 122207.66, 163008.66, -10933.91, -63824.91, -70868.28, 10359.45, -70880.38, -81951.80, -58152.40, -102394.95, 0.000, 0.000, 0.000, 16:58:05.583
139, -40828.32, 101161.31, 92877.55, 126577.14, 143746.33, 115258.29, 122194.16, 163018.13, -10933.91, -63824.91, -70868.28, 10359.45, -70880.38, -81951.80, -58152.40, -102394.95, 0.000, 0.000, 0.000, 16:58:05.583
140, -40828.32, 101161.31, 92877.55, 126577.14, 143746.33, 115258.29, 122194.16, 163018.13, -10967.49, -63805.55, -70861.69, 10369.85, -70876.42, -81935.55, -58164.80, -102390.14, 0.000, 0.000, 0.000, 16:58:05.583
141, -40990.39, 101167.14, 92883.74, 126585.52, 143754.39, 115279.32, 122190.37, 162992.41, -10967.49, -63805.55, -70861.69, 10369.85, -70876.42, -81935.55, -58164.80, -102390.14, 0.000, 0.000, 0.000, 16:58:05.583
142, -40990.39, 101167.14, 92883.74, 126585.52, 143754.39, 115279.32, 122190.37, 162992.41, -11237.70, -63795.63, -70861.17, 10376.10, -70876.93, -81930.41, -58195.02, -102397.98, 0.000, 0.000, 0.000, 16:58:05.584
143, -41504.55, 101152.03, 92878.85, 126582.57, 143752.17, 115274.73, 122183.82, 162931.77, -11237.70, -63795.63, -70861.17, 10376.10, -70876.93, -81930.41, -58195.02, -102397.98, 0.000, 0.000, 0.000, 16:58:05.584
144, -41504.55, 101152.03, 92878.85, 126582.57, 143752.17, 115274.73, 122183.82, 162931.77, -11545.88, -63805.62, -70875.39, 10363.77, -70889.63, -81938.36, -58202.18, -102398.44, 0.000, 0.000, 0.000, 16:58:05.584
145, -41896.78, 101130.35, 92872.30, 126575.76, 143741.27, 115288.15, 122178.30, 162896.05, -11545.88, -63805.62, -70875.39, 10363.77, -70889.63, -81938.36, -58202.18, -102398.44, -0.006, 0.960, 0.030, 16:58:05.584
146, -41896.78, 101130.35, 92872.30, 126575.76, 143741.27, 115288.15, 122178.30, 162896.05, -11397.76, -63803.32, -70875.79, 10360.82, -70884.62, -81945.85, -58185.86, -102385.45, 0.000, 0.000, 0.000, 16:58:05.584
147, -41877.45, 101124.32, 92870.00, 126582.46, 143737.14, 115333.45, 122181.11, 162936.39, -11397.76, -63803.32, -70875.79, 10360.82, -70884.62, -81945.85, -58185.86, -102385.45, 0.000, 0.000, 0.000, 16:58:05.585
148, -41877.45, 101124.32, 92870.00, 126582.46, 143737.14, 115333.45, 122181.11, 162936.39, -10998.51, -63800.59, -70884.38, 10359.61, -70892.80, -81925.02, -58154.30, -102369.20, 0.000, 0.000, 0.000, 16:58:05.585
149, -41486.85, 101120.85, 92865.05, 126576.85, 143729.95, 115359.34, 122187.93, 163013.08, -10998.51, -63800.59, -70884.38, 10359.61, -70892.80, -81925.02, -58154.30, -102369.20, 0.000, 0.000, 0.000, 16:58:05.585
150, -41486.85, 101120.85, 92865.05, 126576.85, 143729.95, 115359.34, 122187.93, 163013.08, -10428.23, -63810.23, -70900.31, 10346.22, -70884.17, -81935.48, -58123.86, -102371.26, 0.000, 0.000, 0.000, 16:58:05.585
151, -40593.45, 101098.81, 92843.58, 126553.05, 143712.44, 115365.93, 122185.96, 163093.95, -10428.23, -63810.23, -70900.31, 10346.22, -70884.17, -81935.48, -58123.86, -102371.26, 0.000, 0.000, 0.000, 16:58:05.585
152, -40593.45, 101098.81, 92843.58, 126553.05, 143712.44, 115365.93, 122185.96, 163093.95, -9593.19, -63826.45, -70930.46, 10323.87, -70903.22, -81951.02, -58098.69, -102362.18, 0.000, 0.000, 0.000, 16:58:05.585
153, -39226.35, 101093.98, 92842.55, 126557.18, 143717.42, 115433.13, 122193.01, 163117.50, -9593.19, -63826.45, -70930.46, 10323.87, -70903.22, -81951.02, -58098.69, -102362.18, 0.000, 0.000, 0.000, 16:58:05.586
154, -39226.35, 101093.98, 92842.55, 126557.18, 143717.42, 115433.13, 122193.01, 163117.50, -8848.94, -63811.39, -70925.26, 10329.79, -70887.13, -81919.56, -58049.78, -102333.99, 0.000, 0.000, 0.000, 16:58:05.586
155, -37452.54, 101082.16, 92834.75, 126549.54, 143716.44, 115492.98, 122208.23, 163217.86, -8848.94, -63811.39, -70925.26, 10329.79, -70887.13, -81919.56, -58049.78, -102333.99, -0.010, 0.930, 0.038, 16:58:05.586
156, -37452.54, 101082.16, 92834.75, 126549.54, 143716.44, 115492.98, 122208.23, 163217.86, -7690.39, -63828.36, -70941.55, 10305.12, -70899.87, -81931.57, -57999.06, -102338.48, 0.000, 0.000, 0.000, 16:58:05.586
157, -35211.82, 101056.28, 92808.75, 126524.95, 143711.61, 115527.42, 122200.20, 163295.36, -7690.39, -63828.36, -70941.55, 10305.12, -70899.87, -81931.57, -57999.06, -102338.48, 0.000, 0.000, 0.000, 16:58:05.586
158, -35211.82, 101056.28, 92808.75, 126524.95, 143711.61, 115527.42, 122200.20, 163295.36, -7042.94, -63826.23, -70949.64, 10296.49, -70919.78, -81952.84, -58017.86, -102363.41, 0.000, 0.000, 0.000, 16:58:05.586
159, -33772.84, 101069.17, 92819.05, 126527.79, 143715.55, 115483.15, 122185.23, 163194.78, -7042.94, -63826.23, -70949.64, 10296.49, -70919.78, -81952.84, -58017.86, -102363.41, 0.000, 0.000, 0.000, 16:58:05.587
160, -33772.84, 101069.17, 92819.05, 126527.79, 143715.55, 115483.15, 122185.23, 163194.78, -7983.66, -63780.79, -70917.55, 10338.26, -70916.65, -81959.15, -58106.24, -102395.66, 0.000, 0.000, 0.000, 16:58:05.587
161, -33901.09, 101094.19, 92867.23, 126556.73, 143723.33, 115451.16, 122175.37, 163011.09, -7983.66, -63780.79, -70917.55, 10338.26, -70916.65, -81959.15, -58106.24, -102395.66, 0.000, 0.000, 0.000, 16:58:05.587
162, -33901.09, 101094.19, 92867.23, 126556.73, 143723.33, 115451.16, 122175.37, 163011.09, -9378.39, -63725.49, -70860.95, 10393.65, -70902.62, -81952.53, -58166.84, -102400.83, 0.000, 0.000, 0.000, 16:58:05.587
163, -34933.54, 101095.91, 92920.06, 126585.55, 143720.92, 115456.14, 122171.23, 162887.66, -9378.39, -63725.49, -70860.95, 10393.65, -70902.62, -81952.53, -58166.84, -102400.83, 0.000, 0.000, 0.000, 16:58:05.587
164, -34933.54, 101095.91, 92920.06, 126585.55, 143720.92, 115456.14, 122171.23, 162887.66, -10092.17, -63709.76, -70852.13, 10416.29, -70908.80, -81932.64, -58146.79, -102373.29, -0.046, 0.996, 0.024, 16:58:05.587
165, -35513.43, 101086.59, 92936.52, 126595.29, 143711.09, 115483.03, 122160.93, 162857.11, -10092.17, -63709.76, -70852.13, 10416.29, -70908.80, -81932.64, -58146.79, -102373.29, 0.000, 0.000, 0.000, 16:58:05.588
166, -35513.43, 101086.59, 92936.52, 126595.29, 143711.09, 115483.03, 122160.93, 162857.11, -10400.98, -63688.01, -70848.34, 10430.73, -70898.86, -81939.01, -58166.34, -102362.42, 0.000, 0.000, 0.000, 16:58:05.588
167, -35918.05, 101068.86, 92925.41, 126596.99, 143717.44, 115526.77, 122160.95, 163023.45, -10400.98, -63688.01, -70848.34, 10430.73, -70898.86, -81939.01, -58166.34, -102362.42, 0.000, 0.000, 0.000, 16:58:05.588
168, -35918.05, 101068.86, 92925.41, 126596.99, 143717.44, 115526.77, 122160.95, 163023.45, -10254.98, -63669.39, -70847.14, 10426.66, -70894.34, -81940.45, -58151.61, -102359.12, 0.000, 0.000, 0.000, 16:58:05.588
169, -36128.91, 101068.08, 92895.27, 126591.88, 143725.64, 115519.11, 122163.70, 163083.17, -10254.98, -63669.39, -70847.14, 10426.66, -70894.34, -81940.45, -58151.61, -102359.12, 0.000, 0.000, 0.000, 16:58:05.588
170, -36128.91, 101068.08, 92895.27, 126591.88, 143725.64, 115519.11, 122163.70, 163083.17, -10499.28, -63649.81, -70852.32, 10410.79, -70896.80, -81952.87, -58189.48, -102376.59, 0.000, 0.000, 0.000, 16:58:05.589
171, -36946.07, 101074.38, 92859.88, 126585.41, 143744.48, 115489.07, 122168.71, 163020.16, -10499.28, -63649.81, -70852.32, 10410.79, -70896.80, -81952.87, -58189.48, -102376.59, 0.000, 0.000, 0.000, 16:58:05.589
172, -36946.07, 101074.38, 92859.88, 126585.41, 143744.48, 115489.07, 122168.71, 163020.16, -11618.01, -63611.74, -70846.78, 10411.40, -70892.34, -81964.02, -58268.65, -102398.37, 0.000, 0.000, 0.000, 16:58:05.589
173, -38863.76, 101067.14, 92837.88, 126589.62, 143760.36, 115464.08, 122186.23, 162922.17, -11618.01, -63611.74, -70846.78, 10411.40, -70892.34, -81964.02, -58268.65, -102398.37, 0.000, 0.000, 0.000, 16:58:05.589
174, -38863.76, 101067.14, 92837.88, 126589.62, 143760.36, 115464.08, 122186.23, 162922.17, -12004.43, -63596.21, -70853.62, 10403.53, -70885.78, -81918.90, -58198.15, -102345.66, -0.072, 1.008, 0.026, 16:58:05.589
175, -39499.29, 101068.44, 92818.12, 126588.27, 143756.67, 115496.76, 122198.03, 163048.91, -12004.43, -63596.21, -70853.62, 10403.53, -70885.78, -81918.90, -58198.15, -102345.66, 0.000, 0.000, 0.000, 16:58:05.590
176, -39499.29, 101068.44, 92818.12, 126588.27, 143756.67, 115496.76, 122198.03, 163048.91, -12504.50, -63577.14, -70863.90, 10398.05, -70913.52, -81964.54, -58320.44, -102401.32, 0.000, 0.000, 0.000, 16:58:05.590
177, -42930.41, 101074.45, 92825.92, 126572.83, 143807.83, 115301.09, 122182.99, 162663.31, -12504.50, -63577.14, -70863.90, 10398.05, -70913.52, -81964.54, -58320.44, -102401.32, 0.000, 0.000, 0.000, 16:58:05.590
178, -42930.41, 101074.45, 92825.92, 126572.83, 143807.83, 115301.09, 122182.99, 162663.31, -15175.60, -63578.04, -70859.63, 10400.18, -70901.85, -81960.40, -58377.77, -102409.79, 0.000, 0.000, 0.000, 16:58:05.590
179, -45316.21, 101042.16, 92791.27, 126549.98, 143776.86, 115417.25, 122187.86, 162890.36, -15175.60, -63578.04, -70859.63, 10400.18, -70901.85, -81960.40, -58377.77, -102409.79, 0.000, 0.000, 0.000, 16:58:05.590
180, -45316.21, 101042.16, 92791.27, 126549.98, 143776.86, 115417.25, 122187.86, 162890.36, -13463.33, -63630.41, -70898.45, 10355.34, -70901.74, -81966.41, -58223.48, -102362.05, 0.000, 0.000, 0.000, 16:58:05.590
181, -45281.32, 101025.63, 92764.32, 126530.12, 143766.97, 115433.95, 122182.86, 163004.88, -13463.33, -63630.41, -70898.45, 10355.34, -70901.74, -81966.41, -58223.48, -102362.05, 0.000, 0.000, 0.000, 16:58:05.590
182, -45281.32, 101025.63, 92764.32, 126530.12, 143766.97, 115433.95, 122182.86, 163004.88, -12116.90, -63654.32, -70917.34, 10338.24, -70907.35, -81979.87, -58196.50, -102361.51, 0.000, 0.000, 0.000, 16:58:05.591
183, -44966.03, 101019.64, 92750.30, 126532.62, 143754.70, 115463.19, 122178.30, 163015.94, -12116.90, -63654.32, -70917.34, 10338.24, -70907.35, -81979.87, -58196.50, -102361.51, 0.000, 0.000, 0.000, 16:58:05.591
184, -44966.03, 101019.64, 92750.30, 126532.62, 143754.70, 115463.19, 122178.30, 163015.94, -11388.10, -63654.61, -70909.03, 10342.51, -70904.98, -81953.70, -58190.73, -102364.05, -0.060, 0.954, 0.040, 16:58:05.591
185, -44660.44, 101026.38, 92746.28, 126531.61, 143734.19, 115453.33, 122147.79, 162999.36, -11388.10, -63654.61, -70909.03, 10342.51, -70904.98, -81953.70, -58190.73, -102364.05, 0.000, 0.000, 0.000, 16:58:05.591
186, -44660.44, 101026.38, 92746.28, 126531.61, 143734.19, 115453.33, 122147.79, 162999.36, -11004.93, -63664.11, -70911.63, 10339.29, -70915.11, -81961.50, -58210.98, -102389.16, 0.000, 0.000, 0.000, 16:58:05.591
187, -44384.33, 101023.27, 92739.87, 126524.95, 143710.64, 115432.07, 122108.91, 162949.64, -11004.93, -63664.11, -70911.63, 10339.29, -70915.11, -81961.50, -58210.98, -102389.16, 0.000, 0.000, 0.000, 16:58:05.591
188, -44384.33, 101023.27, 92739.87, 126524.95, 143710.64, 115432.07, 122108.91, 162949.64, -10798.40, -63682.46, -70912.36, 10340.77, -70923.78, -81979.53, -58208.21, -102389.11, 0.000, 0.000, 0.000, 16:58:05.592
189, -44112.71, 101030.40, 92755.38, 126542.14, 143704.61, 115447.94, 122107.28, 162991.98, -10798.40, -63682.46, -70912.36, 10340.77, -70923.78, -81979.53, -58208.21, -102389.11, 0.000, 0.000, 0.000, 16:58:05.592
190, -44112.71, 101030.40, 92755.38, 126542.14, 143704.61, 115447.94, 122107.28, 162991.98, -10662.63, -63663.44, -70892.29, 10366.96, -70900.94, -81934.52, -58192.03, -102368.04, 0.000, 0.000, 0.000, 16:58:05.592
191, -43940.53, 101042.17, 92779.92, 126558.84, 143730.03, 115465.62, 122110.82, 162961.47, -10662.63, -63663.44, -70892.29, 10366.96, -70900.94, -81934.52, -58192.03, -102368.04, 0.000, 0.000, 0.000, 16:58:05.592
192, -43940.53, 101042.17, 92779.92, 126558.84, 143730.03, 115465.62, 122110.82, 162961.47, -10607.13, -63663.78, -70890.37, 10371.12, -70898.95, -81933.11, -58188.79, -102370.02, 0.000, 0.000, 0.000, 16:58:05.592
193, -43776.76, 101036.23, 92777.38, 126547.62, 143719.25, 115461.28, 122096.66, 162882.14, -10607.13, -63663.78, -70890.37, 10371.12, -70898.95, -81933.11, -58188.79, -102370.02, 0.000, 0.000, 0.000, 16:58:05.592
194, -43776.76, 101036.23, 92777.38, 126547.62, 143719.25, 115461.28, 122096.66, 162882.14, -10565.65, -63660.96, -70890.43, 10371.92, -70901.38, -81941.76, -58185.52, -102372.17, -0.050, 0.912, 0.040, 16:58:05.593
195, -43648.89, 101046.45, 92789.38, 126542.99, 143726.31, 115457.62, 122100.22, 162877.77, -10565.65, -63660.96, -70890.43, 10371.92, -70901.38, -81941.76, -58185.52, -102372.17, 0.000, 0.000, 0.000, 16:58:05.593
196, -43648.89, 101046.45, 92789.38, 126542.99, 143726.31, 115457.62, 122100.22, 162877.77, -10520.52, -63658.84, -70894.52, 10366.43, -70907.33, -81956.47, -58196.16, -102388.09, 0.000, 0.000, 0.000, 16:58:05.593
197, -43527.41, 101043.67, 92780.77, 126524.73, 143712.48, 115449.73, 122084.55, 162891.91, -10520.52, -63658.84, -70894.52, 10366.43, -70907.33, -81956.47, -58196.16, -102388.09, 0.000, 0.000, 0.000, 16:58:05.593
198, -43527.41, 101043.67, 92780.77, 126524.73, 143712.48, 115449.73, 122084.55, 162891.91, -10482.74, -63668.50, -70912.20, 10351.61, -70919.31, -81968.27, -58205.15, -102398.55, 0.000, 0.000, 0.000, 16:58:05.593
199, -43371.95, 101038.06, 92776.37, 126511.67, 143706.47, 115452.48, 122076.57, 162880.47, -10482.74, -63668.50, -70912.20, 10351.61, -70919.31, -81968.27, -58205.15, -102398.55, 0.000, 0.000, 0.000, 16:58:05.594
200, -43371.95, 101038.06, 92776.37, 126511.67, 143706.47, 115452.48, 122076.57, 162880.47, -10449.44, -63669.63, -70918.95, 10346.58, -70924.34, -81959.58, -58208.57, -102415.80, 0.000, 0.000, 0.000, 16:58:05.594
201, -43296.82, 101039.16, 92780.12, 126510.27, 143716.38, 115451.18, 122078.88, 162855.23, -10449.44, -63669.63, -70918.95, 10346.58, -70924.34, -81959.58, -58208.57, -102415.80, 0.000, 0.000, 0.000, 16:58:05.594
202, -43296.82, 101039.16, 92780.12, 126510.27, 143716.38, 115451.18, 122078.88, 162855.23, -10436.90, -63666.62, -70919.73, 10345.55, -70919.98, -81969.37, -58208.77, -102417.73, 0.000, 0.000, 0.000, 16:58:05.594
203, -43226.60, 101031.36, 92776.84, 126508.16, 143716.86, 115479.44, 122070.80, 162819.22, -10436.90, -63666.62, -70919.73, 10345.55, -70919.98, -81969.37, -58208.77, -102417.73, 0.000, 0.000, 0.000, 16:58:05.594
204, -43226.60, 101031.36, 92776.84, 126508.16, 143716.86, 115479.44, 122070.80, 162819.22, -10469.51, -63664.43, -70923.45, 10343.56, -70918.06, -81963.30, -58208.61, -102428.12, -0.044, 0.908, 0.026, 16:58:05.594
205, -43214.35, 101031.02, 92779.49, 126509.46, 143719.67, 115492.20, 122065.38, 162799.14, -10469.51, -63664.43, -70923.45, 10343.56, -70918.06, -81963.30, -58208.61, -102428.12, 0.000, 0.000, 0.000, 16:58:05.595
206, -43214.35, 101031.02, 92779.49, 126509.46, 143719.67, 115492.20, 122065.38, 162799.14, -10418.08, -63665.50, -70924.01, 10346.02, -70923.31, -81979.98, -58212.19, -102438.24, 0.000, 0.000, 0.000, 16:58:05.595
207, -43138.80, 101028.77, 92775.83, 126506.48, 143708.59, 115485.09, 122045.35, 162795.53, -10418.08, -63665.50, -70924.01, 10346.02, -70923.31, -81979.98, -58212.19, -102438.24, 0.000, 0.000, 0.000, 16:58:05.595
208, -43138.80, 101028.77, 92775.83, 126506.48, 143708.59, 115485.09, 122045.35, 162795.53, -10441.97, -63661.72, -70917.50, 10351.81, -70920.85, -81974.98, -58219.68, -102440.21, 0.000, 0.000, 0.000, 16:58:05.595
209, -43197.63, 101039.65, 92781.57, 126517.42, 143699.34, 115503.48, 122021.05, 162782.56, -10441.97, -63661.72, -70917.50, 10351.81, -70920.85, -81974.98, -58219.68, -102440.21, 0.000, 0.000, 0.000, 16:58:05.596
210, -43197.63, 101039.65, 92781.57, 126517.42, 143699.34, 115503.48, 122021.05, 162782.56, -10525.24, -63650.90, -70907.13, 10361.53, -70914.82, -81968.91, -58222.43, -102439.63, 0.000, 0.000, 0.000, 16:58:05.596
211, -43304.89, 101056.57, 92796.30, 126532.57, 143697.38, 115524.54, 122008.91, 162765.52, -10525.24, -63650.90, -70907.13, 10361.53, -70914.82, -81968.91, -58222.43, -102439.63, 0.000, 0.000, 0.000, 16:58:05.596
212, -43304.89, 101056.57, 92796.30, 126532.57, 143697.38, 115524.54, 122008.91, 162765.52, -10537.62, -63642.57, -70901.48, 10369.73, -70913.09, -81953.36, -58218.87, -102436.59, 0.000, 0.000, 0.000, 16:58:05.596
213, -43384.94, 101073.22, 92787.09, 126525.87, 143679.33, 115525.52, 121987.32, 162736.94, -10537.62, -63642.57, -70901.48, 10369.73, -70913.09, -81953.36, -58218.87, -102436.59, 0.000, 0.000, 0.000, 16:58:05.596
214, -43384.94, 101073.22, 92787.09, 126525.87, 143679.33, 115525.52, 121987.32, 162736.94, -10574.70, -63647.62, -70907.82, 10361.89, -70918.44, -81972.92, -58228.01, -102447.74, -0.026, 0.916, -0.010, 16:58:05.596
215, -43430.33, 101100.70, 92778.24, 126518.27, 143667.91, 115522.28, 121967.72, 162661.53, -10574.70, -63647.62, -70907.82, 10361.89, -70918.44, -81972.92, -58228.01, -102447.74, 0.000, 0.000, 0.000, 16:58:05.597
216, -43430.33, 101100.70, 92778.24, 126518.27, 143667.91, 115522.28, 121967.72, 162661.53, -10462.14, -63643.02, -70908.85, 10360.70, -70923.76, -81973.81, -58240.82, -102458.25, 0.000, 0.000, 0.000, 16:58:05.597
217, -43399.91, 101142.53, 92784.62, 126526.78, 143669.00, 115555.01, 121963.83, 162621.72, -10462.14, -63643.02, -70908.85, 10360.70, -70923.76, -81973.81, -58240.82, -102458.25, 0.000, 0.000, 0.000, 16:58:05.597
218, -43399.91, 101142.53, 92784.62, 126526.78, 143669.00, 115555.01, 121963.83, 162621.72, -10489.16, -63639.48, -70907.69, 10363.27, -70927.98, -81973.45, -58241.67, -102464.51, 0.000, 0.000, 0.000, 16:58:05.597
219, -43428.12, 101184.78, 92785.22, 126527.34, 143656.27, 115569.69, 121954.47, 162654.69, -10489.16, -63639.48, -70907.69, 10363.27, -70927.98, -81973.45, -58241.67, -102464.51, 0.000, 0.000, 0.000, 16:58:05.597
220, -43428.12, 101184.78, 92785.22, 126527.34, 143656.27, 115569.69, 121954.47, 162654.69, -10514.30, -63630.03, -70889.13, 10374.54, -70913.66, -81972.16, -58232.89, -102456.64, 0.000, 0.000, 0.000, 16:58:05.597
221, -43409.10, 101242.38, 92798.09, 126537.34, 143663.75, 115592.38, 121957.73, 162668.38, -10514.30, -63630.03, -70889.13, 10374.54, -70913.66, -81972.16, -58232.89, -102456.64, 0.000, 0.000, 0.000, 16:58:05.598
222, -43409.10, 101242.38, 92798.09, 126537.34, 143663.75, 115592.38, 121957.73, 162668.38, -10481.18, -63641.74, -70898.59, 10365.04, -70927.42, -81972.47, -58238.61, -102470.49, 0.000, 0.000, 0.000, 16:58:05.598
223, -43400.71, 101248.41, 92792.13, 126532.84, 143656.22, 115608.29, 121950.09, 162667.08, -10481.18, -63641.74, -70898.59, 10365.04, -70927.42, -81972.47, -58238.61, -102470.49, -0.016, 0.972, -0.036, 16:58:05.598
224, -43400.71, 101248.41, 92792.13, 126532.84, 143656.22, 115608.29, 121950.09, 162667.08, -10592.92, -63644.24, -70904.58, 10361.44, -70933.91, -81984.92, -58245.87, -102480.11, 0.000, 0.000, 0.000, 16:58:05.598
225, -43465.43, 101216.67, 92786.13, 126524.08, 143651.73, 115615.73, 121950.60, 162632.61, -10592.92, -63644.24, -70904.58, 10361.44, -70933.91, -81984.92, -58245.87, -102480.11, 0.000, 0.000, 0.000, 16:58:05.598
226, -43465.43, 101216.67, 92786.13, 126524.08, 143651.73, 115615.73, 121950.60, 162632.61, -10583.71, -63660.18, -70916.72, 10343.14, -70938.06, -82006.07, -58253.81, -102502.73, 0.000, 0.000, 0.000, 16:58:05.599
227, -43474.77, 101182.39, 92777.53, 126510.06, 143649.25, 115622.13, 121949.48, 162628.47, -10583.71, -63660.18, -70916.72, 10343.14, -70938.06, -82006.07, -58253.81, -102502.73, 0.000, 0.000, 0.000, 16:58:05.599
228, -43474.77, 101182.39, 92777.53, 126510.06, 143649.25, 115622.13, 121949.48, 162628.47, -10657.65, -63666.57, -70933.08, 10328.54, -70948.75, -82007.56, -58265.21, -102521.28, 0.000, 0.000, 0.000, 16:58:05.599
229, -43595.64, 101156.39, 92758.77, 126497.81, 143643.81, 115625.37, 121937.68, 162618.05, -10657.65, -63666.57, -70933.08, 10328.54, -70948.75, -82007.56, -58265.21, -102521.28, 0.000, 0.000, 0.000, 16:58:05.599
230, -43595.64, 101156.39, 92758.77, 126497.81, 143643.81, 115625.37, 121937.68, 162618.05, -10756.89, -63673.57, -70946.71, 10316.47, -70959.43, -82018.49, -58282.55, -102532.12, 0.000, 0.000, 0.000, 16:58:05.599
231, -43710.69, 101157.27, 92767.60, 126508.74, 143648.36, 115640.14, 121939.78, 162620.16, -10756.89, -63673.57, -70946.71, 10316.47, -70959.43, -82018.49, -58282.55, -102532.12, 0.000, 0.000, 0.000, 16:58:05.600
232, -43710.69, 101157.27, 92767.60, 126508.74, 143648.36, 115640.14, 121939.78, 162620.16, -10800.61, -63668.81, -70934.73, 10321.59, -70947.07, -82015.32, -58284.81, -102535.85, 0.000, 0.000, 0.000, 16:58:05.600
233, -43877.34, 101147.77, 92771.27, 126509.17, 143634.25, 115654.74, 121916.09, 162602.30, -10800.61, -63668.81, -70934.73, 10321.59, -70947.07, -82015.32, -58284.81, -102535.85, -0.008, 1.004, -0.060, 16:58:05.600
234, -43877.34, 101147.77, 92771.27, 126509.17, 143634.25, 115654.74, 121916.09, 162602.30, -10974.84, -63653.88, -70923.83, 10331.71, -70943.72, -82008.86, -58292.70, -102531.63, 0.000, 0.000, 0.000, 16:58:05.600
235, -44119.30, 101133.95, 92772.79, 126513.04, 143632.84, 115668.89, 121905.23, 162593.94, -10974.84, -63653.88, -70923.83, 10331.71, -70943.72, -82008.86, -58292.70, -102531.63, 0.000, 0.000, 0.000, 16:58:05.600
236, -44119.30, 101133.95, 92772.79, 126513.04, 143632.84, 115668.89, 121905.23, 162593.94, -11138.86, -63653.09, -70917.99, 10332.79, -70949.02, -82014.02, -58320.50, -102537.51, 0.000, 0.000, 0.000, 16:58:05.600
237, -44767.57, 101121.81, 92773.88, 126514.02, 143642.59, 115652.03, 121892.62, 162560.98, -11138.86, -63653.09, -70917.99, 10332.79, -70949.02, -82014.02, -58320.50, -102537.51, 0.000, 0.000, 0.000, 16:58:05.601
238, -44767.57, 101121.81, 92773.88, 126514.02, 143642.59, 115652.03, 121892.62, 162560.98, -11747.25, -63647.73, -70912.05, 10335.11, -70935.02, -82001.77, -58346.70, -102549.64, 0.000, 0.000, 0.000, 16:58:05.601
239, -45565.95, 101109.61, 92776.52, 126514.80, 143642.70, 115667.48, 121886.59, 162575.47, -11747.25, -63647.73, -70912.05, 10335.11, -70935.02, -82001.77, -58346.70, -102549.64, 0.000, 0.000, 0.000, 16:58:05.601
240, -45565.95, 101109.61, 92776.52, 126514.80, 143642.70, 115667.48, 121886.59, 162575.47, -11706.48, -63655.31, -70918.44, 10327.42, -70937.33, -82015.63, -58322.96, -102538.60, 0.000, 0.000, 0.000, 16:58:05.601
241, -45910.50, 101085.16, 92762.82, 126497.57, 143624.77, 115687.15, 121858.73, 162581.89, -11706.48, -63655.31, -70918.44, 10327.42, -70937.33, -82015.63, -58322.96, -102538.60, 0.000, 0.000, 0.000, 16:58:06.059
242, -45910.50, 101085.16, 92762.82, 126497.57, 143624.77, 115687.15, 121858.73, 162581.89, -11700.02, -63661.66, -70928.84, 10316.89, -70943.95, -82024.77, -58341.76, -102543.01, 0.000, 0.000, 0.000, 16:58:06.059
243, -46409.51, 101059.12, 92765.23, 126498.35, 143634.34, 115694.95, 121863.80, 162578.22, -11700.02, -63661.66, -70928.84, 10316.89, -70943.95, -82024.77, -58341.76, -102543.01, -0.006, 1.006, -0.070, 16:58:06.059
244, -46409.51, 101059.12, 92765.23, 126498.35, 143634.34, 115694.95, 121863.80, 162578.22, -11901.07, -63660.16, -70931.16, 10313.47, -70946.20, -82017.27, -58342.95, -102537.98, 0.000, 0.000, 0.000, 16:58:06.060
245, -46854.08, 101039.56, 92756.80, 126489.48, 143642.67, 115710.84, 121864.41, 162612.36, -11901.07, -63660.16, -70931.16, 10313.47, -70946.20, -82017.27, -58342.95, -102537.98, 0.000, 0.000, 0.000, 16:58:06.060
246, -46854.08, 101039.56, 92756.80, 126489.48, 143642.67, 115710.84, 121864.41, 162612.36, -11260.81, -63681.88, -70935.27, 10299.19, -70917.21, -82011.90, -58233.33, -102495.73, 0.000, 0.000, 0.000, 16:58:06.060
247, -44394.21, 100989.83, 92725.60, 126477.23, 143575.69, 115983.65, 121875.77, 163115.63, -11260.81, -63681.88, -70935.27, 10299.19, -70917.21, -82011.90, -58233.33, -102495.73, 0.000, 0.000, 0.000, 16:58:06.060
248, -44394.21, 100989.83, 92725.60, 126477.23, 143575.69, 115983.65, 121875.77, 163115.63, -6604.60, -63756.00, -70991.46, 10236.23, -70937.44, -82029.91, -57984.98, -102419.89, 0.000, 0.000, 0.000, 16:58:06.060
249, -40606.08, 100986.41, 92715.63, 126476.27, 143602.89, 115919.18, 121861.75, 163030.64, -6604.60, -63756.00, -70991.46, 10236.23, -70937.44, -82029.91, -57984.98, -102419.89, 0.000, 0.000, 0.000, 16:58:06.061
250, -40606.08, 100986.41, 92715.63, 126476.27, 143602.89, 115919.18, 121861.75, 163030.64, -7772.15, -63714.34, -70971.08, 10266.96, -70952.46, -82036.40, -58223.61, -102528.50, 0.000, 0.000, 0.000, 16:58:06.061
251, -40735.09, 100989.45, 92728.55, 126486.53, 143636.66, 115863.98, 121879.45, 162737.97, -7772.15, -63714.34, -70971.08, 10266.96, -70952.46, -82036.40, -58223.61, -102528.50, 0.000, 0.000, 0.000, 16:58:06.061
252, -40735.09, 100989.45, 92728.55, 126486.53, 143636.66, 115863.98, 121879.45, 162737.97, -9222.29, -63713.62, -70974.81, 10262.96, -70957.47, -82028.73, -58254.97, -102551.30, 0.000, 0.000, 0.000, 16:58:06.061
253, -40913.84, 100979.79, 92714.45, 126474.62, 143623.25, 115879.69, 121863.30, 162741.66, -9222.29, -63713.62, -70974.81, 10262.96, -70957.47, -82028.73, -58254.97, -102551.30, 0.010, 0.996, -0.072, 16:58:06.061
254, -40913.84, 100979.79, 92714.45, 126474.62, 143623.25, 115879.69, 121863.30, 162741.66, -9725.65, -63723.21, -70986.92, 10247.13, -70966.02, -82029.89, -58249.79, -102549.87, 0.000, 0.000, 0.000, 16:58:06.062
255, -41002.78, 100991.59, 92723.13, 126476.41, 143633.48, 115887.40, 121871.07, 162749.17, -9725.65, -63723.21, -70986.92, 10247.13, -70966.02, -82029.89, -58249.79, -102549.87, 0.000, 0.000, 0.000, 16:58:06.062
0, -41002.78, 100991.59, 92723.13, 126476.41, 143633.48, 115887.40, 121871.07, 162749.17, -10117.09, -63710.76, -70975.50, 10253.57, -70955.27, -82035.15, -58257.16, -102553.63, 0.000, 0.000, 0.000, 16:58:06.062
1, -41200.66, 101010.99, 92732.13, 126477.66, 143626.53, 115901.68, 121857.23, 162728.52, -10117.09, -63710.76, -70975.50, 10253.57, -70955.27, -82035.15, -58257.16, -102553.63, 0.000, 0.000, 0.000, 16:58:06.062
2, -41200.66, 101010.99, 92732.13, 126477.66, 143626.53, 115901.68, 121857.23, 162728.52, -10298.34, -63718.79, -70985.05, 10240.54, -70963.99, -82065.37, -58259.82, -102548.77, 0.000, 0.000, 0.000, 16:58:06.062
3, -41266.64, 100993.09, 92711.91, 126453.49, 143605.84, 115904.48, 121832.42, 162735.45, -10298.34, -63718.79, -70985.05, 10240.54, -70963.99, -82065.37, -58259.82, -102548.77, 0.000, 0.000, 0.000, 16:58:06.063
4, -41266.64, 100993.09, 92711.91, 126453.49, 143605.84, 115904.48, 121832.42, 162735.45, -10339.40, -63720.42, -70998.66, 10225.54, -70975.98, -82043.91, -58283.42, -102571.66, 0.000, 0.000, 0.000, 16:58:06.063
5, -41353.56, 101009.63, 92713.09, 126446.72, 143591.38, 115918.11, 121812.20, 162728.27, -10339.40, -63720.42, -70998.66, 10225.54, -70975.98, -82043.91, -58283.42, -102571.66, 0.000, 0.000, 0.000, 16:58:06.063
6, -41353.56, 101009.63, 92713.09, 126446.72, 143591.38, 115918.11, 121812.20, 162728.27, -10368.13, -63710.09, -70995.71, 10227.67, -70963.68, -82050.73, -58288.56, -102572.78, 0.000, 0.000, 0.000, 16:58:06.063
7, -41387.72, 101005.18, 92714.45, 126436.57, 143585.66, 115966.61, 121814.99, 162768.97, -10368.13, -63710.09, -70995.71, 10227.67, -70963.68, -82050.73, -58288.56, -102572.78, 0.008, 0.970, -0.082, 16:58:06.063
8, -41387.72, 101005.18, 92714.45, 126436.57, 143585.66, 115966.61, 121814.99, 162768.97, -10320.94, -63724.44, -71015.91, 10206.28, -70975.37, -82093.62, -58292.18, -102573.18, 0.000, 0.000, 0.000, 16:58:06.064
9, -41382.24, 101011.98, 92718.45, 126426.73, 143584.19, 115983.51, 121810.32, 162800.95, -10320.94, -63724.44, -71015.91, 10206.28, -70975.37, -82093.62, -58292.18, -102573.18, 0.000, 0.000, 0.000, 16:58:06.064
10, -41382.24, 101011.98, 92718.45, 126426.73, 143584.19, 115983.51, 121810.32, 162800.95, -10463.43, -63703.12, -71003.89, 10218.66, -70961.49, -82077.73, -58314.89, -102571.13, 0.000, 0.000, 0.000, 16:58:06.064
11, -41715.62, 101024.20, 92728.76, 126439.05, 143593.19, 116039.73, 121811.39, 162777.06, -10463.43, -63703.12, -71003.89, 10218.66, -70961.49, -82077.73, -58314.89, -102571.13, 0.000, 0.000, 0.000, 16:58:06.064
12, -41715.62, 101024.20, 92728.76, 126439.05, 143593.19, 116039.73, 121811.39, 162777.06, -10591.28, -63716.77, -71028.12, 10199.75, -70979.39, -82075.34, -58323.14, -102569.98, 0.000, 0.000, 0.000, 16:58:06.064
13, -41775.48, 101021.79, 92711.75, 126415.52, 143571.78, 116094.63, 121791.21, 162864.61, -10591.28, -63716.77, -71028.12, 10199.75, -70979.39, -82075.34, -58323.14, -102569.98, 0.000, 0.000, 0.000, 16:58:06.065
14, -41775.48, 101021.79, 92711.75, 126415.52, 143571.78, 116094.63, 121791.21, 162864.61, -10454.00, -63710.54, -71031.65, 10198.94, -70980.40, -82092.34, -58323.77, -102577.00, 0.000, 0.000, 0.000, 16:58:06.065
15, -41774.52, 101035.05, 92726.68, 126419.20, 143577.55, 116160.05, 121798.18, 162917.61, -10454.00, -63710.54, -71031.65, 10198.94, -70980.40, -82092.34, -58323.77, -102577.00, 0.000, 0.000, 0.000, 16:58:06.065
16, -41774.52, 101035.05, 92726.68, 126419.20, 143577.55, 116160.05, 121798.18, 162917.61, -10244.85, -63711.01, -71025.55, 10203.59, -70967.99, -82106.54, -58301.26, -102560.35, 0.002, 0.954, -0.080, 16:58:06.065
17, -41497.20, 101048.48, 92729.77, 126424.30, 143585.50, 116250.46, 121817.02, 163011.77, -10244.85, -63711.01, -71025.55, 10203.59, -70967.99, -82106.54, -58301.26, -102560.35, 0.000, 0.000, 0.000, 16:58:06.065
18, -41497.20, 101048.48, 92729.77, 126424.30, 143585.50, 116250.46, 121817.02, 163011.77, -9861.63, -63732.62, -71046.98, 10185.09, -70974.03, -82113.87, -58276.32, -102555.48, 0.000, 0.000, 0.000, 16:58:06.066
19, -40839.07, 101042.80, 92706.00, 126401.55, 143570.69, 116315.93, 121809.74, 163096.30, -9861.63, -63732.62, -71046.98, 10185.09, -70974.03, -82113.87, -58276.32, -102555.48, 0.000, 0.000, 0.000, 16:58:06.066
20, -40839.07, 101042.80, 92706.00, 126401.55, 143570.69, 116315.93, 121809.74, 163096.30, -9289.59, -63747.26, -71066.05, 10170.56, -70979.95, -82148.34, -58265.18, -102566.38, 0.000, 0.000, 0.000, 16:58:06.066
21, -39712.66, 101075.34, 92693.35, 126397.03, 143559.66, 116423.62, 121800.44, 163169.20, -9289.59, -63747.26, -71066.05, 10170.56, -70979.95, -82148.34, -58265.18, -102566.38, 0.000, 0.000, 0.000, 16:58:06.066
22, -39712.66, 101075.34, 92693.35, 126397.03, 143559.66, 116423.62, 121800.44, 163169.20, -8605.11, -63746.86, -71070.25, 10175.68, -70982.43, -82109.48, -58237.07, -102553.33, 0.000, 0.000, 0.000, 16:58:06.067
23, -38580.68, 101130.33, 92707.26, 126410.42, 143569.23, 116535.84, 121814.97, 163263.23, -8605.11, -63746.86, -71070.25, 10175.68, -70982.43, -82109.48, -58237.07, -102553.33, 0.000, 0.000, 0.000, 16:58:06.067
24, -38580.68, 101130.33, 92707.26, 126410.42, 143569.23, 116535.84, 121814.97, 163263.23, -8349.07, -63737.56, -71053.98, 10193.42, -70980.96, -82117.67, -58238.16, -102551.88, 0.000, 0.000, 0.000, 16:58:06.067
25, -37835.96, 101190.50, 92728.63, 126418.29, 143569.11, 116581.06, 121806.77, 163298.05, -8349.07, -63737.56, -71053.98, 10193.42, -70980.96, -82117.67, -58238.16, -102551.88, 0.000, 0.000, 0.000, 16:58:06.067
26, -37835.96, 101190.50, 92728.63, 126418.29, 143569.11, 116581.06, 121806.77, 163298.05, -8495.61, -63727.05, -71026.47, 10218.37, -70973.89, -82129.63, -58245.16, -102552.35, 0.000, 0.968, -0.094, 16:58:06.068
27, -37271.69, 101252.46, 92752.52, 126427.05, 143568.89, 116628.80, 121800.80, 163340.17, -8495.61, -63727.05, -71026.47, 10218.37, -70973.89, -82129.63, -58245.16, -102552.35, 0.000, 0.000, 0.000, 16:58:06.068
28, -37271.69, 101252.46, 92752.52, 126427.05, 143568.89, 116628.80, 121800.80, 163340.17, -8763.13, -63731.50, -71014.41, 10234.98, -70976.29, -82143.77, -58265.77, -102557.29, 0.000, 0.000, 0.000, 16:58:06.068
29, -36943.27, 101301.05, 92751.11, 126423.41, 143551.80, 116664.14, 121772.95, 163313.94, -8763.13, -63731.50, -71014.41, 10234.98, -70976.29, -82143.77, -58265.77, -102557.29, 0.000, 0.000, 0.000, 16:58:06.068
30, -36943.27, 101301.05, 92751.11, 126423.41, 143551.80, 116664.14, 121772.95, 163313.94, -8989.87, -63754.44, -71040.79, 10220.11, -70990.21, -82147.82, -58293.44, -102579.17, 0.000, 0.000, 0.000, 16:58:06.069
31, -36702.12, 101353.69, 92722.01, 126411.34, 143541.48, 116697.70, 121757.63, 163293.34, -8989.87, -63754.44, -71040.79, 10220.11, -70990.21, -82147.82, -58293.44, -102579.17, 0.000, 0.000, 0.000, 16:58:06.069
32, -36702.12, 101353.69, 92722.01, 126411.34, 143541.48, 116697.70, 121757.63, 163293.34, -9286.30, -63750.70, -71046.05, 10216.00, -70982.99, -82152.47, -58307.00, -102584.04, 0.000, 0.000, 0.000, 16:58:06.069
33, -36687.55, 101444.59, 92705.29, 126416.01, 143549.48, 116733.99, 121756.36, 163305.81, -9286.30, -63750.70, -71046.05, 10216.00, -70982.99, -82152.47, -58307.00, -102584.04, 0.000, 0.000, 0.000, 16:58:06.069
34, -36687.55, 101444.59, 92705.29, 126416.01, 143549.48, 116733.99, 121756.36, 163305.81, -9546.74, -63754.39, -71053.94, 10209.23, -70983.37, -82134.14, -58324.13, -102598.77, 0.000, 0.000, 0.000, 16:58:06.070
35, -36672.53, 101563.62, 92705.80, 126408.84, 143549.30, 116775.45, 121748.45, 163338.31, -9546.74, -63754.39, -71053.94, 10209.23, -70983.37, -82134.14, -58324.13, -102598.77, 0.000, 0.000, 0.000, 16:58:06.070
36, -36672.53, 101563.62, 92705.80, 126408.84, 143549.30, 116775.45, 121748.45, 163338.31, -9572.29, -63759.51, -71042.96, 10217.27, -70980.33, -82141.48, -58310.27, -102592.98, 0.018, 0.944, -0.106, 16:58:06.070
37, -36546.80, 101655.98, 92717.63, 126412.56, 143566.36, 116840.88, 121760.66, 163416.91, -9572.29, -63759.51, -71042.96, 10217.27, -70980.33, -82141.48, -58310.27, -102592.98, 0.000, 0.000, 0.000, 16:58:06.071
38, -36546.80, 101655.98, 92717.63, 126412.56, 143566.36, 116840.88, 121760.66, 163416.91, -9633.60, -63776.59, -71033.62, 10220.63, -70985.18, -82159.42, -58304.55, -102589.85, 0.000, 0.000, 0.000, 16:58:06.071
39, -36396.73, 101699.92, 92714.67, 126407.31, 143567.69, 116875.37, 121752.59, 163473.03, -9633.60, -63776.59, -71033.62, 10220.63, -70985.18, -82159.42, -58304.55, -102589.85, 0.000, 0.000, 0.000, 16:58:06.071
40, -36396.73, 101699.92, 92714.67, 126407.31, 143567.69, 116875.37, 121752.59, 163473.03, -9673.99, -63794.71, -71045.48, 10204.22, -70996.23, -82155.48, -58314.07, -102610.93, 0.000, 0.000, 0.000, 16:58:06.071
41, -36275.29, 101810.54, 92698.20, 126400.95, 143568.67, 116877.71, 121747.80, 163512.58, -9673.99, -63794.71, -71045.48, 10204.22, -70996.23, -82155.48, -58314.07, -102610.93, 0.000, 0.000, 0.000, 16:58:06.071
42, -36275.29, 101810.54, 92698.20, 126400.95, 143568.67, 116877.71, 121747.80, 163512.58, -9939.98, -63800.71, -71048.02, 10202.97, -70995.13, -82152.11, -58317.55, -102620.19, 0.000, 0.000, 0.000, 16:58:06.072
43, -36336.07, 101957.21, 92696.99, 126405.03, 143573.45, 116863.52, 121745.08, 163581.97, -9939.98, -63800.71, -71048.02, 10202.97, -70995.13, -82152.11, -58317.55, -102620.19, 0.000, 0.000, 0.000, 16:58:06.072
44, -36336.07, 101957.21, 92696.99, 126405.03, 143573.45, 116863.52, 121745.08, 163581.97, -10216.40, -63799.77, -71041.33, 10207.06, -70991.93, -82161.84, -58319.63, -102619.78, 0.000, 0.000, 0.000, 16:58:06.072
45, -36440.20, 102156.90, 92684.79, 126393.10, 143565.30, 116869.47, 121739.13, 163643.31, -10216.40, -63799.77, -71041.33, 10207.06, -70991.93, -82161.84, -58319.63, -102619.78, 0.000, 0.000, 0.000, 16:58:06.072
46, -36440.20, 102156.90, 92684.79, 126393.10, 143565.30, 116869.47, 121739.13, 163643.31, -10377.18, -63831.77, -71071.05, 10177.40, -71020.79, -82184.97, -58337.76, -102631.20, 0.048, 0.954, -0.116, 16:58:06.072
47, -36544.72, 102315.30, 92674.27, 126393.74, 143565.36, 116882.92, 121740.59, 163695.56, -10377.18, -63831.77, -71071.05, 10177.40, -71020.79, -82184.97, -58337.76, -102631.20, 0.000, 0.000, 0.000, 16:58:06.072
48, -36544.72, 102315.30, 92674.27, 126393.74, 143565.36, 116882.92, 121740.59, 163695.56, -10826.38, -63830.93, -71070.63, 10182.96, -71017.05, -82169.30, -58338.79, -102625.53, 0.000, 0.000, 0.000, 16:58:06.073
49, -36685.87, 102427.07, 92666.66, 126401.34, 143563.08, 116922.80, 121739.17, 163790.61, -10826.38, -63830.93, -71070.63, 10182.96, -71017.05, -82169.30, -58338.79, -102625.53, 0.000, 0.000, 0.000, 16:58:06.073
50, -36685.87, 102427.07, 92666.66, 126401.34, 143563.08, 116922.80, 121739.17, 163790.61, -11072.41, -63819.39, -71067.41, 10192.80, -71011.67, -82165.70, -58333.94, -102623.12, 0.000, 0.000, 0.000, 16:58:06.073
51, -36807.55, 102500.29, 92660.30, 126408.79, 143567.27, 116952.08, 121730.28, 163808.36, -11072.41, -63819.39, -71067.41, 10192.80, -71011.67, -82165.70, -58333.94, -102623.12, 0.000, 0.000, 0.000, 16:58:06.073
52, -36807.55, 102500.29, 92660.30, 126408.79, 143567.27, 116952.08, 121730.28, 163808.36, -11404.08, -63817.25, -71071.80, 10190.94, -71016.45, -82156.07, -58349.74, -102635.18, 0.000, 0.000, 0.000, 16:58:06.073
53, -36938.27, 102535.36, 92656.94, 126400.34, 143558.50, 117003.69, 121705.27, 163907.59, -11404.08, -63817.25, -71071.80, 10190.94, -71016.45, -82156.07, -58349.74, -102635.18, 0.000, 0.000, 0.000, 16:58:06.073
54, -36938.27, 102535.36, 92656.94, 126400.34, 143558.50, 117003.69, 121705.27, 163907.59, -11676.89, -63825.45, -71079.02, 10184.80, -71019.20, -82173.59, -58363.09, -102650.77, 0.000, 0.000, 0.000, 16:58:06.074
55, -36991.06, 102533.33, 92652.38, 126390.17, 143548.36, 117061.78, 121685.15, 164100.00, -11676.89, -63825.45, -71079.02, 10184.80, -71019.20, -82173.59, -58363.09, -102650.77, 0.000, 0.000, 0.000, 16:58:06.074
56, -36991.06, 102533.33, 92652.38, 126390.17, 143548.36, 117061.78, 121685.15, 164100.00, -11781.49, -63819.05, -71074.92, 10188.19, -71016.07, -82169.91, -58366.64, -102646.60, 0.068, 0.956, -0.114, 16:58:06.074
57, -37044.46, 102545.30, 92668.54, 126400.83, 143561.19, 117106.89, 121697.33, 164260.11, -11781.49, -63819.05, -71074.92, 10188.19, -71016.07, -82169.91, -58366.64, -102646.60, 0.000, 0.000, 0.000, 16:58:06.074
58, -37044.46, 102545.30, 92668.54, 126400.83, 143561.19, 117106.89, 121697.33, 164260.11, -11990.50, -63816.53, -71070.79, 10189.38, -71014.44, -82175.80, -58361.77, -102641.76, 0.000, 0.000, 0.000, 16:58:06.074
59, -37170.44, 102511.00, 92658.33, 126384.98, 143555.03, 117116.48, 121686.24, 164615.97, -11990.50, -63816.53, -71070.79, 10189.38, -71014.44, -82175.80, -58361.77, -102641.76, 0.000, 0.000, 0.000, 16:58:06.074
60, -37170.44, 102511.00, 92658.33, 126384.98, 143555.03, 117116.48, 121686.24, 164615.97, -12070.70, -63836.76, -71093.54, 10161.17, -71029.23, -82194.40, -58375.98, -102665.23, 0.000, 0.000, 0.000, 16:58:06.075
61, -37262.21, 102476.28, 92640.34, 126360.06, 143537.78, 117122.38, 121659.58, 165024.58, -12070.70, -63836.76, -71093.54, 10161.17, -71029.23, -82194.40, -58375.98, -102665.23, 0.000, 0.000, 0.000, 16:58:06.075
62, -37262.21, 102476.28, 92640.34, 126360.06, 143537.78, 117122.38, 121659.58, 165024.58, -12211.12, -63829.63, -71092.98, 10161.95, -71037.89, -82199.01, -58387.05, -102668.58, 0.000, 0.000, 0.000, 16:58:06.075
63, -37402.96, 102478.85, 92664.90, 126376.53, 143561.58, 117164.51, 121681.57, 165427.13, -12211.12, -63829.63, -71092.98, 10161.95, -71037.89, -82199.01, -58387.05, -102668.58, 0.000, 0.000, 0.000, 16:58:06.075
64, -37402.96, 102478.85, 92664.90, 126376.53, 143561.58, 117164.51, 121681.57, 165427.13, -12331.93, -63806.85, -71076.47, 10181.51, -71018.09, -82173.91, -58363.98, -102650.78, 0.000, 0.000, 0.000, 16:58:06.075
65, -37516.11, 102448.97, 92669.08, 126367.55, 143560.41, 117209.75, 121684.39, 165829.42, -12331.93, -63806.85, -71076.47, 10181.51, -71018.09, -82173.91, -58363.98, -102650.78, 0.000, 0.000, 0.000, 16:58:06.076
66, -37516.11, 102448.97, 92669.08, 126367.55, 143560.41, 117209.75, 121684.39, 165829.42, -12360.11, -63827.53, -71093.97, 10160.37, -71041.24, -82208.02, -58380.79, -102674.23, 0.078, 0.970, -0.108, 16:58:06.076
67, -37642.39, 102399.91, 92653.79, 126348.75, 143548.13, 117240.33, 121674.33, 166194.83, -12360.11, -63827.53, -71093.97, 10160.37, -71041.24, -82208.02, -58380.79, -102674.23, 0.000, 0.000, 0.000, 16:58:06.076
68, -37642.39, 102399.91, 92653.79, 126348.75, 143548.13, 117240.33, 121674.33, 166194.83, -12511.75, -63821.98, -71091.84, 10163.45, -71037.95, -82201.51, -58392.41, -102675.87, 0.000, 0.000, 0.000, 16:58:06.076
69, -37808.33, 102368.86, 92657.52, 126351.99, 143552.91, 117279.69, 121683.23, 166458.47, -12511.75, -63821.98, -71091.84, 10163.45, -71037.95, -82201.51, -58392.41, -102675.87, 0.000, 0.000, 0.000, 16:58:06.076
70, -37808.33, 102368.86, 92657.52, 126351.99, 143552.91, 117279.69, 121683.23, 166458.47, -12503.34, -63830.88, -71093.41, 10159.47, -71037.80, -82217.13, -58387.29, -102676.96, 0.000, 0.000, 0.000, 16:58:06.076
71, -37909.32, 102333.99, 92654.82, 126348.10, 143548.02, 117294.30, 121678.13, 166619.13, -12503.34, -63830.88, -71093.41, 10159.47, -71037.80, -82217.13, -58387.29, -102676.96, 0.000, 0.000, 0.000, 16:58:06.077
72, -37909.32, 102333.99, 92654.82, 126348.10, 143548.02, 117294.30, 121678.13, 166619.13, -12610.88, -63842.10, -71099.29, 10158.33, -71054.47, -82220.84, -58400.17, -102685.54, 0.000, 0.000, 0.000, 16:58:06.077
73, -38043.38, 102298.12, 92661.59, 126354.81, 143543.45, 117310.11, 121676.79, 166864.89, -12610.88, -63842.10, -71099.29, 10158.33, -71054.47, -82220.84, -58400.17, -102685.54, 0.000, 0.000, 0.000, 16:58:06.077
74, -38043.38, 102298.12, 92661.59, 126354.81, 143543.45, 117310.11, 121676.79, 166864.89, -12696.01, -63837.23, -71093.86, 10171.03, -71046.80, -82199.34, -58387.96, -102674.26, 0.000, 0.000, 0.000, 16:58:06.077
75, -38176.89, 102290.84, 92677.10, 126370.30, 143547.33, 117336.59, 121682.22, 167074.95, -12696.01, -63837.23, -71093.86, 10171.03, -71046.80, -82199.34, -58387.96, -102674.26, 0.100, 0.980, -0.114, 16:58:06.077
76, -38176.89, 102290.84, 92677.10, 126370.30, 143547.33, 117336.59, 121682.22, 167074.95, -12657.70, -63833.23, -71092.07, 10174.85, -71040.73, -82204.04, -58375.56, -102667.15, 0.000, 0.000, 0.000, 16:58:06.078
77, -38264.96, 102251.23, 92679.59, 126372.73, 143548.23, 117371.35, 121682.47, 167263.86, -12657.70, -63833.23, -71092.07, 10174.85, -71040.73, -82204.04, -58375.56, -102667.15, 0.000, 0.000, 0.000, 16:58:06.078
78, -38264.96, 102251.23, 92679.59, 126372.73, 143548.23, 117371.35, 121682.47, 167263.86, -12768.17, -63844.83, -71097.86, 10165.93, -71049.51, -82218.84, -58387.00, -102680.94, 0.000, 0.000, 0.000, 16:58:06.078
79, -38371.64, 102222.19, 92675.52, 126373.07, 143532.44, 117419.14, 121657.55, 167328.73, -12768.17, -63844.83, -71097.86, 10165.93, -71049.51, -82218.84, -58387.00, -102680.94, 0.000, 0.000, 0.000, 16:58:06.079
80, -38371.64, 102222.19, 92675.52, 126373.07, 143532.44, 117419.14, 121657.55, 167328.73, -12715.15, -63831.57, -71086.68, 10174.83, -71041.91, -82204.05, -58385.39, -102656.89, 0.000, 0.000, 0.000, 16:58:06.079
81, -38410.73, 102203.95, 92687.34, 126385.01, 143535.61, 117474.39, 121655.47, 167525.38, -12715.15, -63831.57, -71086.68, 10174.83, -71041.91, -82204.05, -58385.39, -102656.89, 0.000, 0.000, 0.000, 16:58:06.079
82, -38410.73, 102203.95, 92687.34, 126385.01, 143535.61, 117474.39, 121655.47, 167525.38, -12725.81, -63831.13, -71087.73, 10173.42, -71042.76, -82209.71, -58395.43, -102665.58, 0.000, 0.000, 0.000, 16:58:06.079
83, -38467.84, 102170.31, 92679.12, 126371.23, 143530.63, 117514.29, 121643.82, 167762.91, -12725.81, -63831.13, -71087.73, 10173.42, -71042.76, -82209.71, -58395.43, -102665.58, 0.000, 0.000, 0.000, 16:58:06.080
