%OpenBCI Raw EEG Data
%
%Sample Rate = 250.0 Hz
%First Column = SampleIndex
%Last Column = Timestamp 
%Other Columns = EEG data in microvolts followed by Accel Data (in G) interleaved with Aux Data
1, -11.49, -18.04, -10.15, -9.50, -14.46, -7.85, -10.93, -14.80, 0.00, 0.00, 0.00, 0.00, 0.00, 0.00, 0.00, 0.00, 0.000, 0.000, 0.000, 16:43:55.486
3, -22.80, -36.01, -20.36, -19.00, -28.81, -15.51, -22.13, -29.66, 0.00, 0.00, 0.00, 0.00, 0.00, 0.00, 0.00, 0.00, 0.000, 0.000, 0.000, 16:43:55.966
4, -22.80, -36.01, -20.36, -19.00, -28.81, -15.51, -22.13, -29.66, -20.43, -30.20, -18.89, -27.43, -25.70, -21.10, -25.50, -27.34, 0.000, 0.000, 0.000, 16:43:55.966
5, -22.93, -36.17, -20.52, -18.91, -29.10, -15.58, -21.93, -29.68, -20.43, -30.20, -18.89, -27.43, -25.70, -21.10, -25.50, -27.34, 0.000, 0.000, 0.000, 16:43:55.967
6, -22.93, -36.17, -20.52, -18.91, -29.10, -15.58, -21.93, -29.68, -20.45, -30.33, -19.13, -27.51, -25.77, -21.48, -25.55, -27.18, 0.000, 0.000, 0.000, 16:43:55.967
7, -22.82, -36.25, -20.25, -18.80, -28.92, -15.49, -21.90, -29.59, -20.45, -30.33, -19.13, -27.51, -25.77, -21.48, -25.55, -27.18, -0.024, 0.944, -0.084, 16:43:55.968
8, -22.82, -36.25, -20.25, -18.80, -28.92, -15.49, -21.90, -29.59, -20.56, -30.47, -19.00, -27.43, -25.64, -20.97, -25.17, -27.18, 0.000, 0.000, 0.000, 16:43:55.968
9, -22.82, -36.12, -20.30, -18.95, -28.92, -15.40, -21.84, -29.75, -20.56, -30.47, -19.00, -27.43, -25.64, -20.97, -25.17, -27.18, 0.000, 0.000, 0.000, 16:43:55.969
10, -22.82, -36.12, -20.30, -18.95, -28.92, -15.40, -21.84, -29.75, -20.88, -30.33, -19.16, -27.34, -25.86, -21.08, -25.32, -27.25, 0.000, 0.000, 0.000, 16:43:55.969
11, -22.64, -36.03, -20.52, -18.93, -29.19, -15.49, -21.99, -29.71, -20.88, -30.33, -19.16, -27.34, -25.86, -21.08, -25.32, -27.25, 0.000, 0.000, 0.000, 16:43:55.969
12, -22.64, -36.03, -20.52, -18.93, -29.19, -15.49, -21.99, -29.71, -20.54, -30.31, -18.84, -27.38, -25.84, -21.39, -25.26, -27.07, 0.000, 0.000, 0.000, 16:43:55.970
13, -22.89, -36.21, -20.34, -18.84, -29.10, -15.45, -21.97, -29.44, -20.54, -30.31, -18.84, -27.38, -25.84, -21.39, -25.26, -27.07, 0.000, 0.000, 0.000, 16:43:55.970
14, -22.89, -36.21, -20.34, -18.84, -29.10, -15.45, -21.97, -29.44, -20.65, -30.17, -19.02, -27.11, -25.68, -21.06, -25.46, -27.11, 0.000, 0.000, 0.000, 16:43:55.970
15, -22.71, -36.14, -20.45, -19.04, -28.90, -15.74, -21.90, -29.33, -20.65, -30.17, -19.02, -27.11, -25.68, -21.06, -25.46, -27.11, 0.000, 0.000, 0.000, 16:43:55.971
16, -22.71, -36.14, -20.45, -19.04, -28.90, -15.74, -21.90, -29.33, -20.59, -30.29, -19.13, -27.36, -25.64, -20.92, -25.30, -27.11, 0.000, 0.000, 0.000, 16:43:55.971
17, -22.44, -36.10, -20.54, -18.95, -28.92, -15.47, -21.95, -29.59, -20.59, -30.29, -19.13, -27.36, -25.64, -20.92, -25.30, -27.11, -0.022, 0.942, -0.088, 16:43:55.971
18, -22.44, -36.10, -20.54, -18.95, -28.92, -15.47, -21.95, -29.59, -20.59, -30.02, -19.02, -27.31, -25.79, -21.01, -25.37, -27.14, 0.000, 0.000, 0.000, 16:43:55.972
19, -22.82, -35.99, -20.43, -19.13, -29.08, -15.53, -22.11, -29.55, -20.59, -30.02, -19.02, -27.31, -25.79, -21.01, -25.37, -27.14, 0.000, 0.000, 0.000, 16:43:55.972
20, -22.82, -35.99, -20.43, -19.13, -29.08, -15.53, -22.11, -29.55, -20.52, -30.31, -19.18, -27.22, -25.79, -20.99, -25.55, -27.07, 0.000, 0.000, 0.000, 16:43:55.972
21, -22.84, -36.21, -20.47, -19.04, -28.83, -15.58, -21.90, -29.46, -20.52, -30.31, -19.18, -27.22, -25.79, -20.99, -25.55, -27.07, 0.000, 0.000, 0.000, 16:43:55.973
22, -22.84, -36.21, -20.47, -19.04, -28.83, -15.58, -21.90, -29.46, -20.54, -30.42, -18.91, -27.45, -25.66, -21.21, -25.35, -27.31, 0.000, 0.000, 0.000, 16:43:55.973
23, -22.71, -36.28, -20.72, -18.69, -29.03, -15.62, -22.13, -29.71, -20.54, -30.42, -18.91, -27.45, -25.66, -21.21, -25.35, -27.31, 0.000, 0.000, 0.000, 16:43:55.973
24, -22.71, -36.28, -20.72, -18.69, -29.03, -15.62, -22.13, -29.71, -20.47, -30.17, -19.13, -27.34, -25.66, -21.12, -25.37, -27.18, 0.000, 0.000, 0.000, 16:43:55.973
25, -22.66, -36.19, -20.47, -18.86, -28.77, -15.42, -22.02, -29.48, -20.47, -30.17, -19.13, -27.34, -25.66, -21.12, -25.37, -27.18, 0.000, 0.000, 0.000, 16:43:55.974
26, -22.66, -36.19, -20.47, -18.86, -28.77, -15.42, -22.02, -29.48, -20.43, -30.40, -18.98, -27.36, -25.70, -21.01, -25.39, -27.43, 0.000, 0.000, 0.000, 16:43:55.974
27, -22.62, -36.10, -20.27, -18.93, -28.74, -15.36, -22.04, -29.64, -20.43, -30.40, -18.98, -27.36, -25.70, -21.01, -25.39, -27.43, -0.024, 0.950, -0.088, 16:43:55.974
28, -22.62, -36.10, -20.27, -18.93, -28.74, -15.36, -22.04, -29.64, -20.76, -30.24, -19.22, -27.22, -25.57, -20.88, -25.39, -27.27, 0.000, 0.000, 0.000, 16:43:55.974
29, -22.87, -35.96, -20.47, -18.98, -28.97, -15.38, -21.93, -29.44, -20.76, -30.24, -19.22, -27.22, -25.57, -20.88, -25.39, -27.27, 0.000, 0.000, 0.000, 16:43:55.975
30, -22.87, -35.96, -20.47, -18.98, -28.97, -15.38, -21.93, -29.44, -20.52, -30.40, -18.80, -27.45, -25.73, -21.01, -25.48, -27.11, 0.000, 0.000, 0.000, 16:43:55.975
31, -22.66, -35.99, -20.50, -19.11, -28.81, -15.47, -21.86, -29.62, -20.52, -30.40, -18.80, -27.45, -25.73, -21.01, -25.48, -27.11, 0.000, 0.000, 0.000, 16:43:55.975
32, -22.66, -35.99, -20.50, -19.11, -28.81, -15.47, -21.86, -29.62, -20.43, -30.29, -19.16, -27.25, -25.68, -21.12, -25.35, -27.27, 0.000, 0.000, 0.000, 16:43:55.975
33, -22.73, -36.14, -20.45, -18.98, -28.97, -15.36, -22.02, -29.35, -20.43, -30.29, -19.16, -27.25, -25.68, -21.12, -25.35, -27.27, 0.000, 0.000, 0.000, 16:43:55.975
34, -22.73, -36.14, -20.45, -18.98, -28.97, -15.36, -22.02, -29.35, -20.52, -30.20, -19.13, -27.29, -25.59, -21.01, -25.21, -27.00, 0.000, 0.000, 0.000, 16:43:55.976
35, -22.78, -36.14, -20.50, -18.71, -29.10, -15.65, -22.24, -29.57, -20.52, -30.20, -19.13, -27.29, -25.59, -21.01, -25.21, -27.00, 0.000, 0.000, 0.000, 16:43:55.976
36, -22.78, -36.14, -20.50, -18.71, -29.10, -15.65, -22.24, -29.57, -20.32, -30.22, -19.00, -27.40, -25.57, -21.06, -25.21, -27.18, 0.000, 0.000, 0.000, 16:43:55.977
37, -22.73, -36.43, -20.43, -18.93, -28.99, -15.60, -22.04, -29.62, -20.32, -30.22, -19.00, -27.40, -25.57, -21.06, -25.21, -27.18, -0.026, 0.944, -0.082, 16:43:55.977
38, -22.73, -36.43, -20.43, -18.93, -28.99, -15.60, -22.04, -29.62, -20.56, -30.26, -19.29, -27.60, -25.82, -21.26, -25.21, -27.45, 0.000, 0.000, 0.000, 16:43:55.977
39, -22.87, -36.05, -20.43, -19.11, -29.01, -15.62, -21.90, -29.41, -20.56, -30.26, -19.29, -27.60, -25.82, -21.26, -25.21, -27.45, 0.000, 0.000, 0.000, 16:43:55.977
40, -22.87, -36.05, -20.43, -19.11, -29.01, -15.62, -21.90, -29.41, -20.68, -30.33, -19.18, -27.36, -25.77, -21.12, -25.30, -27.09, 0.000, 0.000, 0.000, 16:43:55.977
41, -22.73, -36.37, -20.36, -18.82, -29.08, -15.56, -21.99, -29.46, -20.68, -30.33, -19.18, -27.36, -25.77, -21.12, -25.30, -27.09, 0.000, 0.000, 0.000, 16:43:55.978
42, -22.73, -36.37, -20.36, -18.82, -29.08, -15.56, -21.99, -29.46, -20.38, -30.11, -19.07, -27.43, -25.57, -21.06, -25.35, -26.82, 0.000, 0.000, 0.000, 16:43:55.978
43, -22.80, -36.05, -20.43, -18.95, -28.88, -15.58, -21.95, -29.62, -20.38, -30.11, -19.07, -27.43, -25.57, -21.06, -25.35, -26.82, 0.000, 0.000, 0.000, 16:43:55.978
44, -22.80, -36.05, -20.43, -18.95, -28.88, -15.58, -21.95, -29.62, -20.38, -30.13, -18.98, -27.40, -25.70, -21.17, -25.57, -27.38, 0.000, 0.000, 0.000, 16:43:55.978
45, -22.69, -36.08, -20.41, -18.93, -29.15, -15.42, -22.15, -29.73, -20.38, -30.13, -18.98, -27.40, -25.70, -21.17, -25.57, -27.38, 0.000, 0.000, 0.000, 16:43:55.978
46, -22.69, -36.08, -20.41, -18.93, -29.15, -15.42, -22.15, -29.73, -20.52, -30.29, -19.24, -27.40, -25.79, -21.23, -25.48, -27.05, 0.000, 0.000, 0.000, 16:43:55.978
47, -22.78, -36.17, -20.45, -18.89, -28.88, -15.53, -22.17, -29.71, -20.52, -30.29, -19.24, -27.40, -25.79, -21.23, -25.48, -27.05, -0.026, 0.944, -0.076, 16:43:55.979
48, -22.78, -36.17, -20.45, -18.89, -28.88, -15.53, -22.17, -29.71, -20.52, -30.31, -19.04, -27.49, -25.64, -21.21, -25.35, -27.14, 0.000, 0.000, 0.000, 16:43:55.979
49, -22.69, -36.19, -20.38, -18.91, -28.90, -15.42, -21.99, -29.41, -20.52, -30.31, -19.04, -27.49, -25.64, -21.21, -25.35, -27.14, 0.000, 0.000, 0.000, 16:43:55.979
50, -22.69, -36.19, -20.38, -18.91, -28.90, -15.42, -21.99, -29.41, -20.61, -30.24, -19.24, -27.45, -25.66, -20.97, -25.32, -27.20, 0.000, 0.000, 0.000, 16:43:55.979
51, -22.49, -36.10, -20.43, -18.84, -29.01, -15.49, -22.15, -29.50, -20.61, -30.24, -19.24, -27.45, -25.66, -20.97, -25.32, -27.20, 0.000, 0.000, 0.000, 16:43:55.980
52, -22.49, -36.10, -20.43, -18.84, -29.01, -15.49, -22.15, -29.50, -20.50, -30.17, -19.24, -27.49, -25.77, -21.06, -25.30, -26.91, 0.000, 0.000, 0.000, 16:43:55.980
53, -22.58, -36.23, -20.45, -19.04, -28.99, -15.56, -22.06, -29.71, -20.50, -30.17, -19.24, -27.49, -25.77, -21.06, -25.30, -26.91, 0.000, 0.000, 0.000, 16:43:55.980
54, -22.58, -36.23, -20.45, -19.04, -28.99, -15.56, -22.06, -29.71, -20.63, -30.22, -19.16, -27.40, -25.57, -21.08, -25.26, -27.05, 0.000, 0.000, 0.000, 16:43:55.980
55, -22.82, -36.14, -20.63, -18.86, -28.99, -15.67, -21.97, -29.55, -20.63, -30.22, -19.16, -27.40, -25.57, -21.08, -25.26, -27.05, 0.000, 0.000, 0.000, 16:43:55.981
56, -22.82, -36.14, -20.63, -18.86, -28.99, -15.67, -21.97, -29.55, -20.43, -30.31, -18.86, -27.38, -25.57, -21.03, -25.37, -27.34, 0.000, 0.000, 0.000, 16:43:55.981
57, -22.82, -36.08, -20.52, -18.86, -29.08, -15.58, -21.95, -29.71, -20.43, -30.31, -18.86, -27.38, -25.57, -21.03, -25.37, -27.34, -0.022, 0.936, -0.082, 16:43:55.981
58, -22.82, -36.08, -20.52, -18.86, -29.08, -15.58, -21.95, -29.71, -20.54, -30.15, -19.18, -27.40, -25.68, -21.19, -25.28, -27.29, 0.000, 0.000, 0.000, 16:43:55.981
59, -22.78, -36.14, -20.56, -19.13, -29.08, -15.62, -21.93, -29.64, -20.54, -30.15, -19.18, -27.40, -25.68, -21.19, -25.28, -27.29, 0.000, 0.000, 0.000, 16:43:55.982
60, -22.78, -36.14, -20.56, -19.13, -29.08, -15.62, -21.93, -29.64, -20.59, -30.13, -18.95, -27.25, -25.44, -21.01, -25.48, -27.05, 0.000, 0.000, 0.000, 16:43:55.982
61, -22.69, -36.23, -20.59, -18.98, -29.01, -15.40, -22.20, -29.64, -20.59, -30.13, -18.95, -27.25, -25.44, -21.01, -25.48, -27.05, 0.000, 0.000, 0.000, 16:43:55.982
62, -22.69, -36.23, -20.59, -18.98, -29.01, -15.40, -22.20, -29.64, -20.45, -30.22, -18.95, -27.20, -25.55, -21.10, -25.59, -27.20, 0.000, 0.000, 0.000, 16:43:55.982
63, -22.58, -36.25, -20.61, -18.91, -28.88, -15.40, -21.99, -29.64, -20.45, -30.22, -18.95, -27.20, -25.55, -21.10, -25.59, -27.20, 0.000, 0.000, 0.000, 16:43:55.983
64, -22.58, -36.25, -20.61, -18.91, -28.88, -15.40, -21.99, -29.64, -20.52, -30.33, -19.11, -27.45, -25.68, -21.06, -25.32, -27.22, 0.000, 0.000, 0.000, 16:43:55.983
65, -22.69, -36.30, -20.36, -19.00, -28.88, -15.49, -22.08, -29.55, -20.52, -30.33, -19.11, -27.45, -25.68, -21.06, -25.32, -27.22, 0.000, 0.000, 0.000, 16:43:55.983
66, -22.69, -36.30, -20.36, -19.00, -28.88, -15.49, -22.08, -29.55, -20.63, -30.17, -19.22, -27.16, -25.64, -21.08, -25.55, -27.38, 0.000, 0.000, 0.000, 16:43:55.983
67, -22.87, -36.05, -20.41, -18.91, -28.97, -15.51, -22.04, -29.62, -20.63, -30.17, -19.22, -27.16, -25.64, -21.08, -25.55, -27.38, -0.022, 0.944, -0.078, 16:43:55.983
68, -22.87, -36.05, -20.41, -18.91, -28.97, -15.51, -22.04, -29.62, -20.63, -30.15, -19.09, -27.51, -25.55, -21.26, -25.55, -27.36, 0.000, 0.000, 0.000, 16:43:55.984
69, -22.84, -36.12, -20.52, -18.86, -28.92, -15.60, -21.86, -29.77, -20.63, -30.15, -19.09, -27.51, -25.55, -21.26, -25.55, -27.36, 0.000, 0.000, 0.000, 16:43:55.984
70, -22.84, -36.12, -20.52, -18.86, -28.92, -15.60, -21.86, -29.77, -20.52, -30.17, -19.07, -27.40, -25.64, -21.10, -25.50, -27.40, 0.000, 0.000, 0.000, 16:43:55.985
71, -22.93, -36.21, -20.68, -18.93, -28.72, -15.51, -22.02, -29.79, -20.52, -30.17, -19.07, -27.40, -25.64, -21.10, -25.50, -27.40, 0.000, 0.000, 0.000, 16:43:55.985
72, -22.93, -36.21, -20.68, -18.93, -28.72, -15.51, -22.02, -29.79, -20.74, -30.09, -18.95, -27.63, -25.88, -21.14, -25.30, -27.05, 0.000, 0.000, 0.000, 16:43:55.986
73, -22.78, -36.10, -20.52, -19.13, -28.83, -15.60, -21.95, -29.84, -20.74, -30.09, -18.95, -27.63, -25.88, -21.14, -25.30, -27.05, 0.000, 0.000, 0.000, 16:43:55.986
74, -22.78, -36.10, -20.52, -19.13, -28.83, -15.60, -21.95, -29.84, -20.50, -30.13, -19.02, -27.49, -25.79, -21.23, -25.37, -26.84, 0.000, 0.000, 0.000, 16:43:55.986
75, -22.62, -36.12, -20.41, -18.86, -28.88, -15.40, -21.93, -29.44, -20.50, -30.13, -19.02, -27.49, -25.79, -21.23, -25.37, -26.84, 0.000, 0.000, 0.000, 16:43:55.986
76, -22.62, -36.12, -20.41, -18.86, -28.88, -15.40, -21.93, -29.44, -20.61, -30.29, -19.18, -27.40, -25.55, -21.01, -25.35, -27.09, 0.000, 0.000, 0.000, 16:43:55.987
77, -22.75, -36.17, -20.54, -19.02, -28.99, -15.24, -21.99, -29.75, -20.61, -30.29, -19.18, -27.40, -25.55, -21.01, -25.35, -27.09, -0.020, 0.942, -0.074, 16:43:55.987
78, -22.75, -36.17, -20.54, -19.02, -28.99, -15.24, -21.99, -29.75, -20.63, -30.09, -19.07, -27.18, -25.62, -21.26, -25.26, -27.20, 0.000, 0.000, 0.000, 16:43:55.987
79, -22.62, -36.17, -20.52, -19.00, -28.90, -15.40, -21.79, -29.59, -20.63, -30.09, -19.07, -27.18, -25.62, -21.26, -25.26, -27.20, 0.000, 0.000, 0.000, 16:43:55.987
80, -22.62, -36.17, -20.52, -19.00, -28.90, -15.40, -21.79, -29.59, -20.56, -30.35, -19.18, -27.31, -25.59, -21.03, -25.26, -27.36, 0.000, 0.000, 0.000, 16:43:55.987
81, -22.73, -36.12, -20.47, -19.11, -28.90, -15.45, -22.08, -29.53, -20.56, -30.35, -19.18, -27.31, -25.59, -21.03, -25.26, -27.36, 0.000, 0.000, 0.000, 16:43:55.988
82, -22.73, -36.12, -20.47, -19.11, -28.90, -15.45, -22.08, -29.53, -20.45, -30.31, -18.91, -27.29, -25.79, -21.06, -25.39, -27.20, 0.000, 0.000, 0.000, 16:43:55.988
83, -22.78, -36.25, -20.47, -19.11, -28.97, -15.36, -21.97, -29.62, -20.45, -30.31, -18.91, -27.29, -25.79, -21.06, -25.39, -27.20, 0.000, 0.000, 0.000, 16:43:55.988
84, -22.78, -36.25, -20.47, -19.11, -28.97, -15.36, -21.97, -29.62, -20.70, -30.31, -18.98, -27.31, -25.66, -20.97, -25.37, -27.14, 0.000, 0.000, 0.000, 16:43:55.988
85, -22.80, -36.30, -20.47, -19.07, -28.97, -15.53, -21.95, -29.44, -20.70, -30.31, -18.98, -27.31, -25.66, -20.97, -25.37, -27.14, 0.000, 0.000, 0.000, 16:43:55.988
86, -22.80, -36.30, -20.47, -19.07, -28.97, -15.53, -21.95, -29.44, -20.36, -30.24, -18.93, -27.51, -25.62, -21.06, -25.64, -27.07, 0.000, 0.000, 0.000, 16:43:55.989
87, -22.71, -36.23, -20.38, -19.00, -28.95, -15.33, -21.97, -29.46, -20.36, -30.24, -18.93, -27.51, -25.62, -21.06, -25.64, -27.07, -0.018, 0.944, -0.078, 16:43:55.989
88, -22.71, -36.23, -20.38, -19.00, -28.95, -15.33, -21.97, -29.46, -20.68, -30.24, -18.98, -27.47, -25.46, -21.06, -25.44, -27.25, 0.000, 0.000, 0.000, 16:43:55.989
89, -22.87, -36.34, -20.59, -19.16, -29.08, -15.53, -21.99, -29.57, -20.68, -30.24, -18.98, -27.47, -25.46, -21.06, -25.44, -27.25, 0.000, 0.000, 0.000, 16:43:55.989
90, -22.87, -36.34, -20.59, -19.16, -29.08, -15.53, -21.99, -29.57, -20.41, -30.33, -19.13, -27.29, -25.62, -21.30, -25.39, -27.22, 0.000, 0.000, 0.000, 16:43:55.990
91, -22.82, -36.01, -20.32, -19.04, -29.12, -15.51, -22.02, -29.64, -20.41, -30.33, -19.13, -27.29, -25.62, -21.30, -25.39, -27.22, 0.000, 0.000, 0.000, 16:43:55.990
92, -22.82, -36.01, -20.32, -19.04, -29.12, -15.51, -22.02, -29.64, -20.70, -30.33, -18.98, -27.34, -25.77, -21.39, -25.26, -27.34, 0.000, 0.000, 0.000, 16:43:55.990
93, -22.66, -36.23, -20.34, -19.04, -28.72, -15.62, -22.02, -29.53, -20.70, -30.33, -18.98, -27.34, -25.77, -21.39, -25.26, -27.34, 0.000, 0.000, 0.000, 16:43:55.991
94, -22.66, -36.23, -20.34, -19.04, -28.72, -15.62, -22.02, -29.53, -20.50, -30.38, -18.98, -27.34, -25.53, -21.17, -25.37, -27.20, 0.000, 0.000, 0.000, 16:43:55.991
95, -22.84, -36.12, -20.12, -19.00, -28.86, -15.40, -21.88, -29.53, -20.50, -30.38, -18.98, -27.34, -25.53, -21.17, -25.37, -27.20, 0.000, 0.000, 0.000, 16:43:55.991
96, -22.84, -36.12, -20.12, -19.00, -28.86, -15.40, -21.88, -29.53, -20.54, -30.26, -18.93, -27.58, -25.77, -21.03, -25.55, -27.34, 0.000, 0.000, 0.000, 16:43:55.991
97, -22.87, -36.12, -20.52, -19.02, -29.01, -15.42, -21.95, -29.82, -20.54, -30.26, -18.93, -27.58, -25.77, -21.03, -25.55, -27.34, -0.016, 0.940, -0.072, 16:43:55.992
98, -22.87, -36.12, -20.52, -19.02, -29.01, -15.42, -21.95, -29.82, -20.59, -30.17, -19.00, -27.49, -25.57, -21.26, -25.46, -27.14, 0.000, 0.000, 0.000, 16:43:55.992
99, -22.55, -36.05, -20.65, -18.86, -28.79, -15.49, -22.26, -29.53, -20.59, -30.17, -19.00, -27.49, -25.57, -21.26, -25.46, -27.14, 0.000, 0.000, 0.000, 16:43:55.992
100, -22.55, -36.05, -20.65, -18.86, -28.79, -15.49, -22.26, -29.53, -20.54, -30.13, -19.07, -27.34, -25.73, -21.26, -25.46, -27.07, 0.000, 0.000, 0.000, 16:43:55.993
101, -22.60, -36.10, -20.38, -18.93, -28.92, -15.53, -22.13, -29.68, -20.54, -30.13, -19.07, -27.34, -25.73, -21.26, -25.46, -27.07, 0.000, 0.000, 0.000, 16:43:55.993
102, -22.60, -36.10, -20.38, -18.93, -28.92, -15.53, -22.13, -29.68, -20.47, -30.13, -19.02, -27.40, -25.66, -21.10, -25.53, -27.34, 0.000, 0.000, 0.000, 16:43:55.993
103, -22.64, -36.05, -20.61, -18.82, -28.70, -15.36, -22.17, -29.55, -20.47, -30.13, -19.02, -27.40, -25.66, -21.10, -25.53, -27.34, 0.000, 0.000, 0.000, 16:43:55.994
104, -22.64, -36.05, -20.61, -18.82, -28.70, -15.36, -22.17, -29.55, -20.59, -30.29, -18.86, -27.38, -25.50, -21.21, -25.53, -27.38, 0.000, 0.000, 0.000, 16:43:55.994
105, -22.66, -36.30, -20.61, -18.93, -28.68, -15.71, -21.95, -29.68, -20.59, -30.29, -18.86, -27.38, -25.50, -21.21, -25.53, -27.38, 0.000, 0.000, 0.000, 16:43:55.994
106, -22.66, -36.30, -20.61, -18.93, -28.68, -15.71, -21.95, -29.68, -20.45, -30.24, -18.89, -27.38, -25.77, -21.14, -25.44, -27.31, -0.020, 0.942, -0.078, 16:43:55.994
107, -22.89, -36.23, -20.63, -19.07, -28.83, -15.38, -21.97, -29.50, -20.45, -30.24, -18.89, -27.38, -25.77, -21.14, -25.44, -27.31, 0.000, 0.000, 0.000, 16:43:55.994
108, -22.89, -36.23, -20.63, -19.07, -28.83, -15.38, -21.97, -29.50, -20.63, -30.11, -19.27, -27.47, -25.82, -20.97, -25.35, -27.22, 0.000, 0.000, 0.000, 16:43:55.994
109, -22.71, -36.10, -20.38, -19.02, -29.01, -15.45, -22.04, -29.46, -20.63, -30.11, -19.27, -27.47, -25.82, -20.97, -25.35, -27.22, 0.000, 0.000, 0.000, 16:43:55.995
110, -22.71, -36.10, -20.38, -19.02, -29.01, -15.45, -22.04, -29.46, -20.61, -30.26, -19.11, -27.38, -25.59, -20.99, -25.66, -27.02, 0.000, 0.000, 0.000, 16:43:55.995
111, -22.78, -36.21, -20.34, -18.89, -28.81, -15.38, -22.11, -29.62, -20.61, -30.26, -19.11, -27.38, -25.59, -20.99, -25.66, -27.02, 0.000, 0.000, 0.000, 16:43:55.995
112, -22.78, -36.21, -20.34, -18.89, -28.81, -15.38, -22.11, -29.62, -20.68, -30.20, -19.20, -27.27, -25.75, -21.03, -25.53, -27.16, 0.000, 0.000, 0.000, 16:43:55.995
113, -22.80, -36.32, -20.45, -18.73, -29.03, -15.36, -22.17, -29.59, -20.68, -30.20, -19.20, -27.27, -25.75, -21.03, -25.53, -27.16, 0.000, 0.000, 0.000, 16:43:55.995
114, -22.80, -36.32, -20.45, -18.73, -29.03, -15.36, -22.17, -29.59, -20.65, -30.22, -19.24, -27.38, -25.73, -20.85, -25.55, -27.18, 0.000, 0.000, 0.000, 16:43:55.995
115, -22.53, -36.17, -20.52, -18.84, -28.92, -15.40, -22.20, -29.59, -20.65, -30.22, -19.24, -27.38, -25.73, -20.85, -25.55, -27.18, 0.000, 0.000, 0.000, 16:43:55.996
116, -22.53, -36.17, -20.52, -18.84, -28.92, -15.40, -22.20, -29.59, -20.79, -30.24, -19.09, -27.43, -25.73, -21.12, -25.32, -27.07, -0.020, 0.940, -0.080, 16:43:55.996
117, -22.62, -36.14, -20.27, -19.00, -28.81, -15.56, -21.88, -29.44, -20.79, -30.24, -19.09, -27.43, -25.73, -21.12, -25.32, -27.07, 0.000, 0.000, 0.000, 16:43:55.996
118, -22.62, -36.14, -20.27, -19.00, -28.81, -15.56, -21.88, -29.44, -20.27, -30.06, -19.18, -27.31, -25.70, -21.17, -25.59, -26.91, 0.000, 0.000, 0.000, 16:43:55.996
119, -22.69, -36.21, -20.56, -18.78, -29.03, -15.33, -21.77, -29.68, -20.27, -30.06, -19.18, -27.31, -25.70, -21.17, -25.59, -26.91, 0.000, 0.000, 0.000, 16:43:55.996
120, -22.69, -36.21, -20.56, -18.78, -29.03, -15.33, -21.77, -29.68, -20.59, -30.06, -19.24, -27.45, -25.68, -21.10, -25.53, -27.20, 0.000, 0.000, 0.000, 16:43:55.996
121, -22.78, -36.08, -20.43, -19.16, -29.01, -15.38, -22.26, -29.55, -20.59, -30.06, -19.24, -27.45, -25.68, -21.10, -25.53, -27.20, 0.000, 0.000, 0.000, 16:43:55.997
122, -22.78, -36.08, -20.43, -19.16, -29.01, -15.38, -22.26, -29.55, -20.59, -30.20, -18.82, -27.29, -25.73, -21.14, -25.35, -27.07, 0.000, 0.000, 0.000, 16:43:55.997
123, -23.00, -36.12, -20.61, -18.98, -28.97, -15.42, -22.20, -29.48, -20.59, -30.20, -18.82, -27.29, -25.73, -21.14, -25.35, -27.07, 0.000, 0.000, 0.000, 16:43:56.447
124, -23.00, -36.12, -20.61, -18.98, -28.97, -15.42, -22.20, -29.48, -20.65, -30.29, -18.91, -27.49, -25.68, -21.08, -25.24, -27.25, 0.000, 0.000, 0.000, 16:43:56.447
125, -22.75, -36.12, -20.41, -18.71, -28.92, -15.47, -22.17, -29.39, -20.65, -30.29, -18.91, -27.49, -25.68, -21.08, -25.24, -27.25, 0.000, 0.000, 0.000, 16:43:56.447
126, -22.75, -36.12, -20.41, -18.71, -28.92, -15.47, -22.17, -29.39, -20.47, -30.22, -18.80, -27.36, -25.79, -21.08, -25.35, -27.11, -0.016, 0.940, -0.084, 16:43:56.448
127, -22.64, -36.28, -20.63, -18.71, -28.88, -15.51, -22.04, -29.75, -20.47, -30.22, -18.80, -27.36, -25.79, -21.08, -25.35, -27.11, 0.000, 0.000, 0.000, 16:43:56.448
128, -22.64, -36.28, -20.63, -18.71, -28.88, -15.51, -22.04, -29.75, -20.45, -30.38, -19.11, -27.25, -25.55, -21.17, -25.41, -27.00, 0.000, 0.000, 0.000, 16:43:56.448
129, -22.75, -36.23, -20.47, -18.93, -29.03, -15.56, -22.02, -29.71, -20.45, -30.38, -19.11, -27.25, -25.55, -21.17, -25.41, -27.00, 0.000, 0.000, 0.000, 16:43:56.448
130, -22.75, -36.23, -20.47, -18.93, -29.03, -15.56, -22.02, -29.71, -20.43, -30.06, -19.13, -27.38, -25.57, -21.03, -25.46, -27.00, 0.000, 0.000, 0.000, 16:43:56.448
131, -22.53, -36.12, -20.61, -18.80, -28.86, -15.40, -21.86, -29.39, -20.43, -30.06, -19.13, -27.38, -25.57, -21.03, -25.46, -27.00, 0.000, 0.000, 0.000, 16:43:56.449
132, -22.53, -36.12, -20.61, -18.80, -28.86, -15.40, -21.86, -29.39, -20.59, -30.26, -19.00, -27.36, -25.64, -21.08, -25.57, -27.29, 0.000, 0.000, 0.000, 16:43:56.449
133, -22.62, -36.12, -20.63, -19.07, -28.99, -15.47, -21.97, -29.37, -20.59, -30.26, -19.00, -27.36, -25.64, -21.08, -25.57, -27.29, 0.000, 0.000, 0.000, 16:43:56.449
134, -22.62, -36.12, -20.63, -19.07, -28.99, -15.47, -21.97, -29.37, -20.63, -30.11, -19.11, -27.18, -25.66, -20.97, -25.44, -27.16, 0.000, 0.000, 0.000, 16:43:56.449
135, -22.73, -36.14, -20.43, -18.93, -28.83, -15.60, -22.15, -29.64, -20.63, -30.11, -19.11, -27.18, -25.66, -20.97, -25.44, -27.16, 0.000, 0.000, 0.000, 16:43:56.449
136, -22.73, -36.14, -20.43, -18.93, -28.83, -15.60, -22.15, -29.64, -20.36, -30.26, -19.11, -27.36, -25.77, -20.79, -25.35, -27.02, -0.012, 0.936, -0.076, 16:43:56.449
137, -22.60, -36.14, -20.50, -18.86, -28.97, -15.51, -22.13, -29.62, -20.36, -30.26, -19.11, -27.36, -25.77, -20.79, -25.35, -27.02, 0.000, 0.000, 0.000, 16:43:56.450
138, -22.60, -36.14, -20.50, -18.86, -28.97, -15.51, -22.13, -29.62, -20.61, -30.26, -19.00, -27.14, -25.57, -20.97, -25.28, -27.09, 0.000, 0.000, 0.000, 16:43:56.450
139, -22.75, -36.30, -20.50, -18.91, -28.92, -15.85, -21.88, -29.55, -20.61, -30.26, -19.00, -27.14, -25.57, -20.97, -25.28, -27.09, 0.000, 0.000, 0.000, 16:43:56.450
140, -22.75, -36.30, -20.50, -18.91, -28.92, -15.85, -21.88, -29.55, -20.61, -30.17, -19.16, -27.29, -25.95, -21.03, -25.50, -26.91, 0.000, 0.000, 0.000, 16:43:56.450
141, -22.71, -36.12, -20.25, -18.84, -28.95, -15.51, -22.02, -29.88, -20.61, -30.17, -19.16, -27.29, -25.95, -21.03, -25.50, -26.91, 0.000, 0.000, 0.000, 16:43:56.450
142, -22.71, -36.12, -20.25, -18.84, -28.95, -15.51, -22.02, -29.88, -20.54, -30.17, -19.11, -27.18, -25.62, -21.14, -25.41, -27.00, 0.000, 0.000, 0.000, 16:43:56.451
143, -22.66, -35.99, -20.43, -19.02, -28.88, -15.49, -22.06, -29.79, -20.54, -30.17, -19.11, -27.18, -25.62, -21.14, -25.41, -27.00, 0.000, 0.000, 0.000, 16:43:56.451
144, -22.66, -35.99, -20.43, -19.02, -28.88, -15.49, -22.06, -29.79, -20.45, -30.15, -19.04, -27.40, -25.66, -21.28, -25.50, -27.05, 0.000, 0.000, 0.000, 16:43:56.451
145, -22.71, -36.05, -20.54, -18.75, -29.01, -15.53, -21.86, -29.57, -20.45, -30.15, -19.04, -27.40, -25.66, -21.28, -25.50, -27.05, 0.000, 0.000, 0.000, 16:43:56.452
146, -22.71, -36.05, -20.54, -18.75, -29.01, -15.53, -21.86, -29.57, -20.56, -30.11, -19.09, -27.38, -25.73, -21.14, -25.50, -27.29, -0.018, 0.942, -0.076, 16:43:56.452
147, -22.78, -36.14, -20.50, -18.82, -28.83, -15.42, -21.90, -29.55, -20.56, -30.11, -19.09, -27.38, -25.73, -21.14, -25.50, -27.29, 0.000, 0.000, 0.000, 16:43:56.452
148, -22.78, -36.14, -20.50, -18.82, -28.83, -15.42, -21.90, -29.55, -20.43, -30.26, -19.18, -27.38, -25.66, -21.17, -25.37, -27.20, 0.000, 0.000, 0.000, 16:43:56.453
149, -22.84, -36.32, -20.65, -18.86, -28.90, -15.47, -22.35, -29.77, -20.43, -30.26, -19.18, -27.38, -25.66, -21.17, -25.37, -27.20, 0.000, 0.000, 0.000, 16:43:56.453
150, -22.84, -36.32, -20.65, -18.86, -28.90, -15.47, -22.35, -29.77, -20.43, -30.11, -19.16, -27.31, -25.84, -20.90, -25.32, -26.89, 0.000, 0.000, 0.000, 16:43:56.454
151, -22.89, -36.17, -20.54, -18.95, -28.95, -15.27, -21.99, -29.66, -20.43, -30.11, -19.16, -27.31, -25.84, -20.90, -25.32, -26.89, 0.000, 0.000, 0.000, 16:43:56.454
152, -22.89, -36.17, -20.54, -18.95, -28.95, -15.27, -21.99, -29.66, -20.54, -30.11, -19.29, -27.45, -25.77, -21.06, -25.32, -27.11, 0.000, 0.000, 0.000, 16:43:56.454
153, -22.69, -35.92, -20.50, -18.86, -28.88, -15.45, -21.93, -29.79, -20.54, -30.11, -19.29, -27.45, -25.77, -21.06, -25.32, -27.11, 0.000, 0.000, 0.000, 16:43:56.454
154, -22.69, -35.92, -20.50, -18.86, -28.88, -15.45, -21.93, -29.79, -20.52, -30.04, -19.02, -27.54, -25.77, -21.03, -25.30, -27.34, 0.000, 0.000, 0.000, 16:43:56.455
155, -22.78, -36.05, -20.56, -18.98, -29.24, -15.36, -21.88, -29.59, -20.52, -30.04, -19.02, -27.54, -25.77, -21.03, -25.30, -27.34, 0.000, 0.000, 0.000, 16:43:56.455
156, -22.78, -36.05, -20.56, -18.98, -29.24, -15.36, -21.88, -29.59, -20.54, -30.15, -19.11, -27.07, -25.59, -20.99, -25.35, -27.20, -0.020, 0.940, -0.078, 16:43:56.455
157, -22.93, -36.08, -20.54, -18.89, -28.97, -15.58, -22.15, -29.37, -20.54, -30.15, -19.11, -27.07, -25.59, -20.99, -25.35, -27.20, 0.000, 0.000, 0.000, 16:43:56.456
158, -22.93, -36.08, -20.54, -18.89, -28.97, -15.58, -22.15, -29.37, -20.56, -30.26, -18.93, -27.22, -25.68, -20.85, -25.35, -27.00, 0.000, 0.000, 0.000, 16:43:56.456
159, -22.66, -36.23, -20.59, -19.11, -29.17, -15.42, -21.86, -29.68, -20.56, -30.26, -18.93, -27.22, -25.68, -20.85, -25.35, -27.00, 0.000, 0.000, 0.000, 16:43:56.456
160, -22.66, -36.23, -20.59, -19.11, -29.17, -15.42, -21.86, -29.68, -20.72, -30.38, -18.91, -27.45, -25.75, -21.14, -25.24, -27.20, 0.000, 0.000, 0.000, 16:43:56.456
161, -22.80, -36.12, -20.41, -18.89, -28.99, -15.62, -21.84, -29.39, -20.72, -30.38, -18.91, -27.45, -25.75, -21.14, -25.24, -27.20, 0.000, 0.000, 0.000, 16:43:56.457
162, -22.80, -36.12, -20.41, -18.89, -28.99, -15.62, -21.84, -29.39, -20.38, -30.29, -18.93, -27.45, -25.79, -21.06, -25.50, -27.11, 0.000, 0.000, 0.000, 16:43:56.457
163, -22.73, -36.23, -20.41, -19.04, -28.81, -15.69, -21.95, -29.59, -20.38, -30.29, -18.93, -27.45, -25.79, -21.06, -25.50, -27.11, 0.000, 0.000, 0.000, 16:43:56.457
164, -22.73, -36.23, -20.41, -19.04, -28.81, -15.69, -21.95, -29.59, -20.43, -30.15, -19.36, -27.36, -25.73, -21.17, -25.32, -26.98, 0.000, 0.000, 0.000, 16:43:56.458
165, -22.53, -36.32, -20.36, -18.86, -28.97, -15.18, -21.97, -29.73, -20.43, -30.15, -19.36, -27.36, -25.73, -21.17, -25.32, -26.98, 0.000, 0.000, 0.000, 16:43:56.458
166, -22.53, -36.32, -20.36, -18.86, -28.97, -15.18, -21.97, -29.73, -20.65, -30.22, -19.18, -27.09, -25.68, -21.03, -25.28, -27.16, -0.016, 0.942, -0.084, 16:43:56.458
167, -22.89, -36.28, -20.59, -19.09, -29.03, -15.18, -21.99, -29.62, -20.65, -30.22, -19.18, -27.09, -25.68, -21.03, -25.28, -27.16, 0.000, 0.000, 0.000, 16:43:56.459
168, -22.89, -36.28, -20.59, -19.09, -29.03, -15.18, -21.99, -29.62, -20.65, -30.13, -19.20, -27.25, -25.46, -21.10, -25.30, -27.18, 0.000, 0.000, 0.000, 16:43:56.459
169, -22.87, -36.30, -20.52, -18.84, -29.01, -15.38, -22.20, -29.59, -20.65, -30.13, -19.20, -27.25, -25.46, -21.10, -25.30, -27.18, 0.000, 0.000, 0.000, 16:43:56.459
170, -22.87, -36.30, -20.52, -18.84, -29.01, -15.38, -22.20, -29.59, -20.50, -30.31, -19.22, -27.25, -25.95, -20.92, -25.21, -27.22, 0.000, 0.000, 0.000, 16:43:56.459
171, -22.64, -36.19, -20.61, -18.89, -29.06, -15.53, -22.24, -29.62, -20.50, -30.31, -19.22, -27.25, -25.95, -20.92, -25.21, -27.22, 0.000, 0.000, 0.000, 16:43:56.460
172, -22.64, -36.19, -20.61, -18.89, -29.06, -15.53, -22.24, -29.62, -20.61, -30.40, -19.04, -27.18, -25.70, -21.14, -25.70, -26.93, 0.000, 0.000, 0.000, 16:43:56.460
173, -22.75, -36.12, -20.63, -18.73, -28.88, -15.60, -22.02, -29.64, -20.61, -30.40, -19.04, -27.18, -25.70, -21.14, -25.70, -26.93, 0.000, 0.000, 0.000, 16:43:56.460
174, -22.75, -36.12, -20.63, -18.73, -28.88, -15.60, -22.02, -29.64, -20.70, -30.38, -19.09, -27.25, -25.55, -21.03, -25.41, -27.27, 0.000, 0.000, 0.000, 16:43:56.461
175, -22.82, -35.99, -20.65, -18.75, -28.86, -15.58, -22.02, -29.62, -20.70, -30.38, -19.09, -27.25, -25.55, -21.03, -25.41, -27.27, 0.000, 0.000, 0.000, 16:43:56.461
176, -22.82, -35.99, -20.65, -18.75, -28.86, -15.58, -22.02, -29.62, -20.61, -30.29, -18.91, -27.27, -25.64, -21.26, -25.26, -27.25, -0.020, 0.942, -0.078, 16:43:56.461
177, -22.87, -35.94, -20.59, -18.71, -28.92, -15.53, -21.95, -29.62, -20.61, -30.29, -18.91, -27.27, -25.64, -21.26, -25.26, -27.25, 0.000, 0.000, 0.000, 16:43:56.462
178, -22.87, -35.94, -20.59, -18.71, -28.92, -15.53, -21.95, -29.62, -20.38, -30.26, -18.98, -27.63, -25.59, -20.99, -25.35, -27.16, 0.000, 0.000, 0.000, 16:43:56.462
179, -22.80, -36.08, -20.52, -18.89, -28.99, -15.42, -21.99, -29.71, -20.38, -30.26, -18.98, -27.63, -25.59, -20.99, -25.35, -27.16, 0.000, 0.000, 0.000, 16:43:56.462
180, -22.80, -36.08, -20.52, -18.89, -28.99, -15.42, -21.99, -29.71, -20.72, -30.26, -18.95, -27.45, -25.68, -21.14, -25.44, -27.25, 0.000, 0.000, 0.000, 16:43:56.462
181, -22.98, -36.25, -20.72, -19.02, -28.99, -15.56, -22.02, -29.62, -20.72, -30.26, -18.95, -27.45, -25.68, -21.14, -25.44, -27.25, 0.000, 0.000, 0.000, 16:43:56.463
182, -22.98, -36.25, -20.72, -19.02, -28.99, -15.56, -22.02, -29.62, -20.45, -30.20, -18.91, -27.45, -25.86, -21.06, -25.28, -27.00, 0.000, 0.000, 0.000, 16:43:56.463
183, -22.93, -36.37, -20.32, -19.04, -29.03, -15.20, -21.90, -29.64, -20.45, -30.20, -18.91, -27.45, -25.86, -21.06, -25.28, -27.00, 0.000, 0.000, 0.000, 16:43:56.463
184, -22.93, -36.37, -20.32, -19.04, -29.03, -15.20, -21.90, -29.64, -20.72, -30.35, -18.93, -27.29, -25.82, -20.94, -25.53, -27.20, 0.000, 0.000, 0.000, 16:43:56.464
185, -22.78, -36.30, -20.50, -19.02, -29.03, -15.69, -21.88, -29.62, -20.72, -30.35, -18.93, -27.29, -25.82, -20.94, -25.53, -27.20, 0.000, 0.000, 0.000, 16:43:56.464
186, -22.78, -36.30, -20.50, -19.02, -29.03, -15.69, -21.88, -29.62, -20.74, -30.11, -19.09, -27.31, -25.82, -21.23, -25.50, -27.29, -0.024, 0.942, -0.074, 16:43:56.464
187, -22.96, -36.08, -20.27, -18.80, -28.77, -15.60, -22.24, -29.53, -20.74, -30.11, -19.09, -27.31, -25.82, -21.23, -25.50, -27.29, 0.000, 0.000, 0.000, 16:43:56.465
188, -22.96, -36.08, -20.27, -18.80, -28.77, -15.60, -22.24, -29.53, -20.65, -30.22, -18.86, -27.38, -25.62, -21.21, -25.35, -27.14, 0.000, 0.000, 0.000, 16:43:56.465
189, -22.78, -36.14, -20.54, -18.98, -29.06, -15.29, -22.02, -29.57, -20.65, -30.22, -18.86, -27.38, -25.62, -21.21, -25.35, -27.14, 0.000, 0.000, 0.000, 16:43:56.465
190, -22.78, -36.14, -20.54, -18.98, -29.06, -15.29, -22.02, -29.57, -20.45, -30.31, -19.07, -27.49, -25.68, -21.01, -25.28, -26.96, 0.000, 0.000, 0.000, 16:43:56.466
191, -22.96, -36.10, -20.68, -19.16, -28.97, -15.47, -21.97, -29.57, -20.45, -30.31, -19.07, -27.49, -25.68, -21.01, -25.28, -26.96, 0.000, 0.000, 0.000, 16:43:56.466
192, -22.96, -36.10, -20.68, -19.16, -28.97, -15.47, -21.97, -29.57, -20.70, -30.38, -19.11, -27.29, -25.75, -20.94, -25.57, -27.38, 0.000, 0.000, 0.000, 16:43:56.466
193, -22.75, -36.14, -20.47, -18.95, -29.08, -15.42, -21.93, -29.66, -20.70, -30.38, -19.11, -27.29, -25.75, -20.94, -25.57, -27.38, 0.000, 0.000, 0.000, 16:43:56.466
194, -22.75, -36.14, -20.47, -18.95, -29.08, -15.42, -21.93, -29.66, -20.52, -30.06, -19.02, -27.49, -25.73, -21.10, -25.55, -27.05, 0.000, 0.000, 0.000, 16:43:56.467
195, -22.80, -36.17, -20.70, -18.89, -29.10, -15.40, -21.88, -29.71, -20.52, -30.06, -19.02, -27.49, -25.73, -21.10, -25.55, -27.05, 0.000, 0.000, 0.000, 16:43:56.467
196, -22.80, -36.17, -20.70, -18.89, -29.10, -15.40, -21.88, -29.71, -20.34, -30.29, -19.13, -27.27, -25.62, -21.19, -25.28, -27.11, -0.020, 0.942, -0.066, 16:43:56.467
197, -22.73, -36.01, -20.36, -18.82, -28.79, -15.42, -21.86, -29.41, -20.34, -30.29, -19.13, -27.27, -25.62, -21.19, -25.28, -27.11, 0.000, 0.000, 0.000, 16:43:56.468
198, -22.73, -36.01, -20.36, -18.82, -28.79, -15.42, -21.86, -29.41, -20.61, -30.31, -19.09, -27.38, -25.66, -20.99, -25.55, -27.20, 0.000, 0.000, 0.000, 16:43:56.469
199, -22.80, -36.39, -20.63, -19.00, -28.99, -15.51, -22.06, -29.59, -20.61, -30.31, -19.09, -27.38, -25.66, -20.99, -25.55, -27.20, 0.000, 0.000, 0.000, 16:43:56.469
200, -22.80, -36.39, -20.63, -19.00, -28.99, -15.51, -22.06, -29.59, -20.68, -30.15, -19.02, -27.29, -25.66, -21.06, -25.44, -27.02, 0.000, 0.000, 0.000, 16:43:56.469
201, -22.96, -36.19, -20.43, -18.89, -28.90, -15.20, -22.08, -29.33, -20.68, -30.15, -19.02, -27.29, -25.66, -21.06, -25.44, -27.02, 0.000, 0.000, 0.000, 16:43:56.470
202, -22.96, -36.19, -20.43, -18.89, -28.90, -15.20, -22.08, -29.33, -20.74, -30.29, -18.89, -27.40, -25.77, -20.90, -25.19, -27.07, 0.000, 0.000, 0.000, 16:43:56.470
203, -22.49, -36.14, -20.50, -19.02, -28.92, -15.51, -21.86, -29.57, -20.74, -30.29, -18.89, -27.40, -25.77, -20.90, -25.19, -27.07, 0.000, 0.000, 0.000, 16:43:56.471
204, -22.49, -36.14, -20.50, -19.02, -28.92, -15.51, -21.86, -29.57, -20.68, -30.06, -19.04, -27.51, -25.59, -21.14, -25.37, -27.31, 0.000, 0.000, 0.000, 16:43:56.471
205, -22.71, -36.41, -20.61, -18.98, -28.95, -15.27, -21.82, -29.59, -20.68, -30.06, -19.04, -27.51, -25.59, -21.14, -25.37, -27.31, -0.022, 0.944, -0.064, 16:43:56.471
206, -22.71, -36.41, -20.61, -18.98, -28.95, -15.27, -21.82, -29.59, -20.43, -30.22, -19.09, -27.36, -25.53, -21.08, -25.46, -27.31, 0.000, 0.000, 0.000, 16:43:56.472
207, -22.84, -36.32, -20.14, -18.89, -28.72, -15.51, -22.04, -29.55, -20.43, -30.22, -19.09, -27.36, -25.53, -21.08, -25.46, -27.31, 0.000, 0.000, 0.000, 16:43:56.472
208, -22.84, -36.32, -20.14, -18.89, -28.72, -15.51, -22.04, -29.55, -20.41, -30.33, -19.18, -27.40, -25.53, -20.92, -25.37, -27.11, 0.000, 0.000, 0.000, 16:43:56.472
209, -22.91, -36.19, -20.12, -18.86, -28.97, -15.60, -22.02, -29.59, -20.41, -30.33, -19.18, -27.40, -25.53, -20.92, -25.37, -27.11, 0.000, 0.000, 0.000, 16:43:56.473
210, -22.91, -36.19, -20.12, -18.86, -28.97, -15.60, -22.02, -29.59, -20.65, -30.20, -19.04, -27.49, -25.93, -21.26, -25.30, -27.25, 0.000, 0.000, 0.000, 16:43:56.473
211, -22.82, -36.21, -20.52, -18.91, -28.99, -15.42, -22.11, -29.59, -20.65, -30.20, -19.04, -27.49, -25.93, -21.26, -25.30, -27.25, 0.000, 0.000, 0.000, 16:43:56.473
212, -22.82, -36.21, -20.52, -18.91, -28.99, -15.42, -22.11, -29.59, -20.47, -30.24, -19.22, -27.29, -25.84, -21.23, -25.24, -27.02, 0.000, 0.000, 0.000, 16:43:56.473
213, -22.82, -36.32, -20.34, -18.91, -28.97, -15.53, -21.88, -29.62, -20.47, -30.24, -19.22, -27.29, -25.84, -21.23, -25.24, -27.02, 0.000, 0.000, 0.000, 16:43:56.474
214, -22.82, -36.32, -20.34, -18.91, -28.97, -15.53, -21.88, -29.62, -20.56, -30.17, -19.02, -27.29, -25.73, -21.17, -25.32, -27.00, 0.000, 0.000, 0.000, 16:43:56.474
215, -22.71, -36.28, -20.50, -18.82, -29.06, -15.38, -22.08, -29.77, -20.56, -30.17, -19.02, -27.29, -25.73, -21.17, -25.32, -27.00, -0.028, 0.944, -0.072, 16:43:56.474
216, -22.71, -36.28, -20.50, -18.82, -29.06, -15.38, -22.08, -29.77, -20.38, -30.13, -19.00, -27.31, -25.70, -21.12, -25.44, -27.29, 0.000, 0.000, 0.000, 16:43:56.474
217, -22.96, -36.19, -20.50, -18.89, -28.92, -15.29, -21.97, -29.62, -20.38, -30.13, -19.00, -27.31, -25.70, -21.12, -25.44, -27.29, 0.000, 0.000, 0.000, 16:43:56.475
218, -22.96, -36.19, -20.50, -18.89, -28.92, -15.29, -21.97, -29.62, -20.45, -30.17, -18.91, -27.27, -25.77, -21.17, -25.41, -27.25, 0.000, 0.000, 0.000, 16:43:56.475
219, -22.89, -36.05, -20.54, -18.98, -28.99, -15.56, -22.04, -29.64, -20.45, -30.17, -18.91, -27.27, -25.77, -21.17, -25.41, -27.25, 0.000, 0.000, 0.000, 16:43:56.475
220, -22.89, -36.05, -20.54, -18.98, -28.99, -15.56, -22.04, -29.64, -20.54, -30.17, -18.93, -27.20, -25.91, -21.10, -25.48, -27.18, 0.000, 0.000, 0.000, 16:43:56.476
221, -22.87, -36.30, -20.30, -18.86, -28.88, -15.40, -21.95, -29.62, -20.54, -30.17, -18.93, -27.20, -25.91, -21.10, -25.48, -27.18, 0.000, 0.000, 0.000, 16:43:56.477
222, -22.87, -36.30, -20.30, -18.86, -28.88, -15.40, -21.95, -29.62, -20.52, -30.33, -19.18, -27.29, -25.55, -20.88, -25.26, -27.25, 0.000, 0.000, 0.000, 16:43:56.477
223, -22.75, -36.25, -20.56, -18.91, -28.90, -15.47, -21.86, -29.66, -20.52, -30.33, -19.18, -27.29, -25.55, -20.88, -25.26, -27.25, 0.000, 0.000, 0.000, 16:43:56.478
224, -22.75, -36.25, -20.56, -18.91, -28.90, -15.47, -21.86, -29.66, -20.68, -30.29, -19.31, -27.25, -25.84, -21.01, -25.35, -27.22, 0.000, 0.000, 0.000, 16:43:56.478
225, -22.66, -36.43, -20.52, -18.78, -28.97, -15.51, -22.15, -29.33, -20.68, -30.29, -19.31, -27.25, -25.84, -21.01, -25.35, -27.22, -0.024, 0.944, -0.072, 16:43:56.478
226, -22.66, -36.43, -20.52, -18.78, -28.97, -15.51, -22.15, -29.33, -20.68, -30.13, -19.13, -27.22, -25.79, -21.14, -25.48, -27.02, 0.000, 0.000, 0.000, 16:43:56.479
227, -22.69, -36.12, -20.43, -18.86, -28.92, -15.49, -22.02, -29.68, -20.68, -30.13, -19.13, -27.22, -25.79, -21.14, -25.48, -27.02, 0.000, 0.000, 0.000, 16:43:56.479
228, -22.69, -36.12, -20.43, -18.86, -28.92, -15.49, -22.02, -29.68, -20.47, -30.13, -19.13, -27.51, -25.75, -20.94, -25.32, -27.16, 0.000, 0.000, 0.000, 16:43:56.479
229, -22.73, -35.99, -20.56, -18.95, -28.97, -15.51, -22.04, -29.62, -20.47, -30.13, -19.13, -27.51, -25.75, -20.94, -25.32, -27.16, 0.000, 0.000, 0.000, 16:43:56.480
230, -22.73, -35.99, -20.56, -18.95, -28.97, -15.51, -22.04, -29.62, -20.36, -30.26, -18.91, -27.34, -25.86, -21.03, -25.46, -27.14, 0.000, 0.000, 0.000, 16:43:56.480
231, -22.87, -36.10, -20.56, -19.18, -29.06, -15.62, -22.13, -29.46, -20.36, -30.26, -18.91, -27.34, -25.86, -21.03, -25.46, -27.14, 0.000, 0.000, 0.000, 16:43:56.480
232, -22.87, -36.10, -20.56, -19.18, -29.06, -15.62, -22.13, -29.46, -20.70, -30.17, -19.11, -27.34, -25.73, -20.94, -25.21, -27.22, 0.000, 0.000, 0.000, 16:43:56.481
233, -23.00, -36.12, -20.41, -18.91, -28.81, -15.38, -22.13, -29.55, -20.70, -30.17, -19.11, -27.34, -25.73, -20.94, -25.21, -27.22, 0.000, 0.000, 0.000, 16:43:56.481
234, -23.00, -36.12, -20.41, -18.91, -28.81, -15.38, -22.13, -29.55, -20.65, -30.15, -19.31, -27.38, -25.57, -21.06, -25.41, -27.45, 0.000, 0.000, 0.000, 16:43:56.481
235, -22.69, -36.30, -20.36, -18.91, -28.86, -15.60, -22.04, -29.41, -20.65, -30.15, -19.31, -27.38, -25.57, -21.06, -25.41, -27.45, -0.026, 0.950, -0.068, 16:43:56.482
236, -22.69, -36.30, -20.36, -18.91, -28.86, -15.60, -22.04, -29.41, -20.52, -30.26, -19.13, -27.45, -25.62, -21.03, -25.21, -27.22, 0.000, 0.000, 0.000, 16:43:56.482
237, -22.71, -36.23, -20.72, -18.98, -28.90, -15.51, -21.99, -29.46, -20.52, -30.26, -19.13, -27.45, -25.62, -21.03, -25.21, -27.22, 0.000, 0.000, 0.000, 16:43:56.482
238, -22.71, -36.23, -20.72, -18.98, -28.90, -15.51, -21.99, -29.46, -20.65, -30.20, -19.00, -27.25, -25.59, -20.94, -25.50, -27.31, 0.000, 0.000, 0.000, 16:43:56.482
239, -22.87, -36.21, -20.47, -18.89, -28.90, -15.27, -21.95, -29.62, -20.65, -30.20, -19.00, -27.25, -25.59, -20.94, -25.50, -27.31, 0.000, 0.000, 0.000, 16:43:56.483
240, -22.87, -36.21, -20.47, -18.89, -28.90, -15.27, -21.95, -29.62, -20.56, -30.35, -19.02, -27.36, -25.73, -21.14, -25.30, -27.09, 0.000, 0.000, 0.000, 16:43:56.484
241, -22.84, -36.19, -20.54, -18.98, -28.99, -15.40, -22.02, -29.50, -20.56, -30.35, -19.02, -27.36, -25.73, -21.14, -25.30, -27.09, 0.000, 0.000, 0.000, 16:43:56.485
242, -22.84, -36.19, -20.54, -18.98, -28.99, -15.40, -22.02, -29.50, -20.76, -30.20, -19.07, -27.38, -25.68, -21.01, -25.37, -27.38, 0.000, 0.000, 0.000, 16:43:56.485
243, -22.64, -36.23, -20.59, -18.89, -28.83, -15.49, -22.11, -29.55, -20.76, -30.20, -19.07, -27.38, -25.68, -21.01, -25.37, -27.38, 0.000, 0.000, 0.000, 16:43:56.928
244, -22.64, -36.23, -20.59, -18.89, -28.83, -15.49, -22.11, -29.55, -20.76, -30.24, -19.13, -27.29, -25.64, -20.88, -25.17, -27.25, 0.000, 0.000, 0.000, 16:43:56.929
245, -22.75, -36.10, -20.50, -19.13, -28.86, -15.38, -21.93, -29.50, -20.76, -30.24, -19.13, -27.29, -25.64, -20.88, -25.17, -27.25, -0.024, 0.946, -0.068, 16:43:56.929
246, -22.75, -36.10, -20.50, -19.13, -28.86, -15.38, -21.93, -29.50, -20.74, -30.22, -19.16, -27.25, -25.66, -21.03, -25.37, -27.16, 0.000, 0.000, 0.000, 16:43:56.929
247, -22.75, -36.17, -20.47, -19.07, -28.97, -15.38, -21.77, -29.33, -20.74, -30.22, -19.16, -27.25, -25.66, -21.03, -25.37, -27.16, 0.000, 0.000, 0.000, 16:43:56.929
248, -22.75, -36.17, -20.47, -19.07, -28.97, -15.38, -21.77, -29.33, -20.68, -30.26, -19.18, -27.29, -25.68, -21.10, -25.35, -27.38, 0.000, 0.000, 0.000, 16:43:56.929
249, -22.80, -36.10, -20.59, -19.04, -28.70, -15.49, -21.93, -29.55, -20.68, -30.26, -19.18, -27.29, -25.68, -21.10, -25.35, -27.38, 0.000, 0.000, 0.000, 16:43:56.930
250, -22.80, -36.10, -20.59, -19.04, -28.70, -15.49, -21.93, -29.55, -20.68, -30.40, -19.11, -27.31, -25.86, -20.94, -25.24, -27.31, 0.000, 0.000, 0.000, 16:43:56.930
251, -22.78, -36.30, -20.50, -18.95, -28.97, -15.38, -22.11, -29.41, -20.68, -30.40, -19.11, -27.31, -25.86, -20.94, -25.24, -27.31, 0.000, 0.000, 0.000, 16:43:56.930
252, -22.78, -36.30, -20.50, -18.95, -28.97, -15.38, -22.11, -29.41, -20.59, -30.29, -19.13, -27.56, -25.66, -21.12, -25.37, -27.16, 0.000, 0.000, 0.000, 16:43:56.930
253, -22.73, -36.23, -20.32, -18.84, -28.97, -15.29, -21.99, -29.50, -20.59, -30.29, -19.13, -27.56, -25.66, -21.12, -25.37, -27.16, 0.000, 0.000, 0.000, 16:43:56.930
254, -22.73, -36.23, -20.32, -18.84, -28.97, -15.29, -21.99, -29.50, -20.61, -30.26, -18.93, -27.36, -25.64, -21.10, -25.26, -27.20, 0.000, 0.000, 0.000, 16:43:56.930
255, -22.58, -36.28, -20.45, -19.07, -28.74, -15.53, -22.06, -29.55, -20.61, -30.26, -18.93, -27.36, -25.64, -21.10, -25.26, -27.20, -0.030, 0.948, -0.066, 16:43:56.931
0, -22.58, -36.28, -20.45, -19.07, -28.74, -15.53, -22.06, -29.55, -20.63, -30.09, -19.07, -27.22, -25.68, -20.83, -25.35, -27.14, 0.000, 0.000, 0.000, 16:43:56.931
1, -22.66, -36.03, -20.30, -18.82, -28.86, -15.51, -22.04, -29.62, -20.63, -30.09, -19.07, -27.22, -25.68, -20.83, -25.35, -27.14, 0.000, 0.000, 0.000, 16:43:56.931
2, -22.66, -36.03, -20.30, -18.82, -28.86, -15.51, -22.04, -29.62, -20.25, -30.15, -19.13, -27.43, -25.68, -21.08, -25.35, -27.16, 0.000, 0.000, 0.000, 16:43:56.931
3, -22.66, -36.17, -20.50, -18.93, -28.88, -15.56, -21.90, -29.73, -20.25, -30.15, -19.13, -27.43, -25.68, -21.08, -25.35, -27.16, 0.000, 0.000, 0.000, 16:43:56.931
4, -22.66, -36.17, -20.50, -18.93, -28.88, -15.56, -21.90, -29.73, -20.47, -30.33, -19.24, -27.47, -25.82, -21.26, -25.37, -27.18, 0.000, 0.000, 0.000, 16:43:56.932
5, -22.73, -36.19, -20.47, -19.11, -28.79, -15.60, -22.02, -29.48, -20.47, -30.33, -19.24, -27.47, -25.82, -21.26, -25.37, -27.18, 0.000, 0.000, 0.000, 16:43:56.932
6, -22.73, -36.19, -20.47, -19.11, -28.79, -15.60, -22.02, -29.48, -20.56, -30.20, -19.22, -27.40, -25.70, -20.94, -25.35, -27.20, 0.000, 0.000, 0.000, 16:43:56.932
7, -22.55, -36.10, -20.47, -18.80, -28.90, -15.51, -22.11, -29.41, -20.56, -30.20, -19.22, -27.40, -25.70, -20.94, -25.35, -27.20, 0.000, 0.000, 0.000, 16:43:56.932
8, -22.55, -36.10, -20.47, -18.80, -28.90, -15.51, -22.11, -29.41, -20.61, -30.20, -19.00, -27.38, -25.48, -21.14, -25.30, -26.93, 0.000, 0.000, 0.000, 16:43:56.932
9, -22.75, -36.17, -20.43, -19.00, -29.03, -15.51, -22.06, -29.77, -20.61, -30.20, -19.00, -27.38, -25.48, -21.14, -25.30, -26.93, -0.022, 0.948, -0.068, 16:43:56.932
10, -22.75, -36.17, -20.43, -19.00, -29.03, -15.51, -22.06, -29.77, -20.59, -30.26, -19.33, -27.20, -25.75, -20.97, -25.35, -27.02, 0.000, 0.000, 0.000, 16:43:56.933
11, -22.64, -36.19, -20.72, -18.98, -28.95, -15.31, -21.90, -29.55, -20.59, -30.26, -19.33, -27.20, -25.75, -20.97, -25.35, -27.02, 0.000, 0.000, 0.000, 16:43:56.933
12, -22.64, -36.19, -20.72, -18.98, -28.95, -15.31, -21.90, -29.55, -20.56, -30.20, -19.04, -27.25, -25.77, -21.10, -25.32, -27.25, 0.000, 0.000, 0.000, 16:43:56.933
13, -22.93, -36.25, -20.56, -18.95, -28.99, -15.36, -22.22, -29.55, -20.56, -30.20, -19.04, -27.25, -25.77, -21.10, -25.32, -27.25, 0.000, 0.000, 0.000, 16:43:56.933
14, -22.93, -36.25, -20.56, -18.95, -28.99, -15.36, -22.22, -29.55, -20.43, -30.38, -19.11, -27.18, -25.84, -21.14, -25.48, -26.96, 0.000, 0.000, 0.000, 16:43:56.934
15, -22.93, -36.14, -20.47, -18.93, -28.90, -15.58, -22.11, -29.50, -20.43, -30.38, -19.11, -27.18, -25.84, -21.14, -25.48, -26.96, 0.000, 0.000, 0.000, 16:43:56.934
16, -22.93, -36.14, -20.47, -18.93, -28.90, -15.58, -22.11, -29.50, -20.41, -30.22, -18.98, -27.43, -25.79, -21.17, -25.48, -27.11, 0.000, 0.000, 0.000, 16:43:56.934
17, -22.75, -36.23, -20.43, -18.89, -29.03, -15.24, -21.84, -29.44, -20.41, -30.22, -18.98, -27.43, -25.79, -21.17, -25.48, -27.11, 0.000, 0.000, 0.000, 16:43:56.934
18, -22.75, -36.23, -20.43, -18.89, -29.03, -15.24, -21.84, -29.44, -20.56, -30.24, -19.04, -27.34, -25.82, -21.10, -25.53, -27.00, 0.000, 0.000, 0.000, 16:43:56.935
19, -22.84, -36.34, -20.45, -18.89, -28.92, -15.27, -22.33, -29.59, -20.56, -30.24, -19.04, -27.34, -25.82, -21.10, -25.53, -27.00, -0.022, 0.946, -0.066, 16:43:56.935
20, -22.84, -36.34, -20.45, -18.89, -28.92, -15.27, -22.33, -29.59, -20.72, -30.15, -19.22, -27.16, -25.68, -20.79, -25.66, -27.31, 0.000, 0.000, 0.000, 16:43:56.935
21, -22.80, -36.08, -20.61, -18.71, -28.90, -15.53, -22.26, -29.46, -20.72, -30.15, -19.22, -27.16, -25.68, -20.79, -25.66, -27.31, 0.000, 0.000, 0.000, 16:43:56.936
22, -22.80, -36.08, -20.61, -18.71, -28.90, -15.53, -22.26, -29.46, -20.47, -30.15, -19.18, -27.18, -25.75, -21.23, -25.30, -27.29, 0.000, 0.000, 0.000, 16:43:56.936
23, -22.69, -36.05, -20.43, -18.98, -28.79, -15.45, -21.97, -29.26, -20.47, -30.15, -19.18, -27.18, -25.75, -21.23, -25.30, -27.29, 0.000, 0.000, 0.000, 16:43:56.936
24, -22.69, -36.05, -20.43, -18.98, -28.79, -15.45, -21.97, -29.26, -20.63, -30.24, -18.98, -27.18, -25.73, -21.03, -25.37, -27.20, 0.000, 0.000, 0.000, 16:43:56.936
25, -22.51, -36.30, -20.34, -18.73, -28.90, -15.29, -22.11, -29.48, -20.63, -30.24, -18.98, -27.18, -25.73, -21.03, -25.37, -27.20, 0.000, 0.000, 0.000, 16:43:56.937
26, -22.51, -36.30, -20.34, -18.73, -28.90, -15.29, -22.11, -29.48, -20.59, -30.24, -19.20, -27.27, -25.68, -20.90, -25.17, -27.18, 0.000, 0.000, 0.000, 16:43:56.937
27, -22.73, -36.12, -20.41, -18.71, -28.79, -15.53, -22.06, -29.62, -20.59, -30.24, -19.20, -27.27, -25.68, -20.90, -25.17, -27.18, 0.000, 0.000, 0.000, 16:43:56.937
28, -22.73, -36.12, -20.41, -18.71, -28.79, -15.53, -22.06, -29.62, -20.52, -30.15, -19.24, -27.29, -25.75, -21.12, -25.24, -27.11, 0.000, 0.000, 0.000, 16:43:56.937
29, -22.62, -36.17, -20.41, -18.98, -28.72, -15.40, -21.86, -29.59, -20.52, -30.15, -19.24, -27.29, -25.75, -21.12, -25.24, -27.11, -0.026, 0.944, -0.064, 16:43:56.937
30, -22.62, -36.17, -20.41, -18.98, -28.72, -15.40, -21.86, -29.59, -20.47, -30.26, -19.24, -27.05, -25.55, -21.12, -25.44, -27.18, 0.000, 0.000, 0.000, 16:43:56.938
31, -22.82, -36.01, -20.45, -19.04, -28.77, -15.33, -21.90, -29.66, -20.47, -30.26, -19.24, -27.05, -25.55, -21.12, -25.44, -27.18, 0.000, 0.000, 0.000, 16:43:56.938
32, -22.82, -36.01, -20.45, -19.04, -28.77, -15.33, -21.90, -29.66, -20.63, -30.24, -19.13, -27.36, -25.82, -21.08, -25.30, -27.05, 0.000, 0.000, 0.000, 16:43:56.938
33, -22.80, -36.39, -20.52, -19.00, -28.97, -15.40, -22.08, -29.68, -20.63, -30.24, -19.13, -27.36, -25.82, -21.08, -25.30, -27.05, 0.000, 0.000, 0.000, 16:43:56.938
34, -22.80, -36.39, -20.52, -19.00, -28.97, -15.40, -22.08, -29.68, -20.47, -30.13, -19.20, -27.38, -25.91, -20.94, -25.35, -27.09, 0.000, 0.000, 0.000, 16:43:56.939
35, -22.82, -36.23, -20.45, -18.69, -28.90, -15.56, -22.17, -29.59, -20.47, -30.13, -19.20, -27.38, -25.91, -20.94, -25.35, -27.09, 0.000, 0.000, 0.000, 16:43:56.939
36, -22.82, -36.23, -20.45, -18.69, -28.90, -15.56, -22.17, -29.59, -20.56, -30.44, -19.29, -27.47, -25.73, -21.19, -25.50, -27.20, 0.000, 0.000, 0.000, 16:43:56.939
37, -22.84, -36.43, -20.36, -19.07, -28.81, -15.49, -21.82, -29.59, -20.56, -30.44, -19.29, -27.47, -25.73, -21.19, -25.50, -27.20, 0.000, 0.000, 0.000, 16:43:56.939
38, -22.84, -36.43, -20.36, -19.07, -28.81, -15.49, -21.82, -29.59, -20.43, -30.26, -18.98, -27.27, -25.64, -20.97, -25.41, -26.96, -0.024, 0.942, -0.066, 16:43:56.939
39, -22.53, -36.28, -20.50, -18.82, -29.01, -15.53, -21.90, -29.59, -20.43, -30.26, -18.98, -27.27, -25.64, -20.97, -25.41, -26.96, 0.000, 0.000, 0.000, 16:43:56.939
40, -22.53, -36.28, -20.50, -18.82, -29.01, -15.53, -21.90, -29.59, -20.63, -30.13, -19.07, -27.31, -25.73, -20.94, -25.39, -27.27, 0.000, 0.000, 0.000, 16:43:56.940
41, -22.69, -36.19, -20.45, -19.18, -29.03, -15.51, -21.95, -29.62, -20.63, -30.13, -19.07, -27.31, -25.73, -20.94, -25.39, -27.27, 0.000, 0.000, 0.000, 16:43:56.940
42, -22.69, -36.19, -20.45, -19.18, -29.03, -15.51, -21.95, -29.62, -20.63, -30.26, -18.91, -27.45, -25.75, -20.94, -25.44, -27.36, 0.000, 0.000, 0.000, 16:43:56.940
43, -22.87, -36.17, -20.32, -18.93, -28.92, -15.53, -21.93, -29.39, -20.63, -30.26, -18.91, -27.45, -25.75, -20.94, -25.44, -27.36, 0.000, 0.000, 0.000, 16:43:56.940
44, -22.87, -36.17, -20.32, -18.93, -28.92, -15.53, -21.93, -29.39, -20.43, -30.20, -19.07, -27.29, -25.37, -21.10, -25.55, -27.51, 0.000, 0.000, 0.000, 16:43:56.941
45, -22.55, -36.17, -20.45, -18.86, -28.70, -15.49, -21.93, -29.66, -20.43, -30.20, -19.07, -27.29, -25.37, -21.10, -25.55, -27.51, 0.000, 0.000, 0.000, 16:43:56.941
46, -22.55, -36.17, -20.45, -18.86, -28.70, -15.49, -21.93, -29.66, -20.61, -30.17, -19.11, -27.47, -25.91, -21.01, -25.32, -27.22, 0.000, 0.000, 0.000, 16:43:56.941
47, -22.82, -36.30, -20.38, -18.86, -29.03, -15.45, -21.99, -29.48, -20.61, -30.17, -19.11, -27.47, -25.91, -21.01, -25.32, -27.22, 0.000, 0.000, 0.000, 16:43:56.941
48, -22.82, -36.30, -20.38, -18.86, -29.03, -15.45, -21.99, -29.48, -20.61, -30.44, -19.04, -27.31, -25.59, -21.23, -25.28, -27.02, -0.022, 0.942, -0.064, 16:43:56.941
49, -22.91, -36.28, -20.41, -18.78, -29.10, -15.53, -21.95, -29.64, -20.61, -30.44, -19.04, -27.31, -25.59, -21.23, -25.28, -27.02, 0.000, 0.000, 0.000, 16:43:56.942
50, -22.91, -36.28, -20.41, -18.78, -29.10, -15.53, -21.95, -29.64, -20.45, -30.47, -19.07, -27.34, -25.55, -21.26, -25.32, -27.09, 0.000, 0.000, 0.000, 16:43:56.942
51, -22.82, -36.19, -20.23, -18.93, -28.99, -15.42, -21.97, -29.73, -20.45, -30.47, -19.07, -27.34, -25.55, -21.26, -25.32, -27.09, 0.000, 0.000, 0.000, 16:43:56.942
52, -22.82, -36.19, -20.23, -18.93, -28.99, -15.42, -21.97, -29.73, -20.47, -30.13, -19.00, -27.31, -25.50, -21.14, -25.59, -27.22, 0.000, 0.000, 0.000, 16:43:56.942
53, -22.55, -35.92, -20.34, -18.86, -29.01, -15.60, -22.04, -29.77, -20.47, -30.13, -19.00, -27.31, -25.50, -21.14, -25.59, -27.22, 0.000, 0.000, 0.000, 16:43:56.942
54, -22.55, -35.92, -20.34, -18.86, -29.01, -15.60, -22.04, -29.77, -20.85, -30.15, -19.00, -27.22, -25.55, -21.10, -25.24, -27.09, 0.000, 0.000, 0.000, 16:43:56.943
55, -22.60, -35.99, -20.52, -19.13, -28.90, -15.20, -22.17, -29.35, -20.85, -30.15, -19.00, -27.22, -25.55, -21.10, -25.24, -27.09, 0.000, 0.000, 0.000, 16:43:56.943
56, -22.60, -35.99, -20.52, -19.13, -28.90, -15.20, -22.17, -29.35, -20.41, -30.11, -18.89, -27.51, -25.73, -21.08, -25.32, -26.96, 0.000, 0.000, 0.000, 16:43:56.943
57, -22.69, -36.05, -20.54, -18.84, -28.92, -15.36, -21.79, -29.55, -20.41, -30.11, -18.89, -27.51, -25.73, -21.08, -25.32, -26.96, 0.000, 0.000, 0.000, 16:43:56.943
58, -22.69, -36.05, -20.54, -18.84, -28.92, -15.36, -21.79, -29.55, -20.52, -30.17, -19.02, -27.65, -25.82, -21.06, -25.53, -27.36, -0.018, 0.944, -0.068, 16:43:56.943
59, -22.80, -36.21, -20.56, -18.75, -28.90, -15.33, -21.95, -29.57, -20.52, -30.17, -19.02, -27.65, -25.82, -21.06, -25.53, -27.36, 0.000, 0.000, 0.000, 16:43:56.944
60, -22.80, -36.21, -20.56, -18.75, -28.90, -15.33, -21.95, -29.57, -20.56, -30.40, -19.16, -27.20, -25.64, -21.01, -25.48, -27.38, 0.000, 0.000, 0.000, 16:43:56.944
61, -22.49, -36.28, -20.61, -18.86, -28.90, -15.29, -21.93, -29.75, -20.56, -30.40, -19.16, -27.20, -25.64, -21.01, -25.48, -27.38, 0.000, 0.000, 0.000, 16:43:56.945
62, -22.49, -36.28, -20.61, -18.86, -28.90, -15.29, -21.93, -29.75, -20.63, -30.40, -18.84, -27.34, -25.77, -21.10, -25.21, -27.29, 0.000, 0.000, 0.000, 16:43:56.945
63, -22.78, -36.23, -20.47, -18.95, -28.99, -15.53, -22.02, -29.77, -20.63, -30.40, -18.84, -27.34, -25.77, -21.10, -25.21, -27.29, 0.000, 0.000, 0.000, 16:43:56.945
64, -22.78, -36.23, -20.47, -18.95, -28.99, -15.53, -22.02, -29.77, -20.68, -30.42, -19.09, -27.40, -25.64, -21.03, -25.39, -27.31, 0.000, 0.000, 0.000, 16:43:56.945
65, -22.69, -36.12, -20.54, -19.11, -28.70, -15.33, -22.04, -29.64, -20.68, -30.42, -19.09, -27.40, -25.64, -21.03, -25.39, -27.31, 0.000, 0.000, 0.000, 16:43:56.946
66, -22.69, -36.12, -20.54, -19.11, -28.70, -15.33, -22.04, -29.64, -20.54, -30.29, -19.20, -27.40, -25.57, -21.01, -25.32, -27.16, 0.000, 0.000, 0.000, 16:43:56.946
67, -22.73, -36.30, -20.43, -19.11, -29.06, -15.62, -21.99, -29.59, -20.54, -30.29, -19.20, -27.40, -25.57, -21.01, -25.32, -27.16, 0.000, 0.000, 0.000, 16:43:56.947
68, -22.73, -36.30, -20.43, -19.11, -29.06, -15.62, -21.99, -29.59, -20.52, -30.17, -19.09, -27.20, -25.73, -21.06, -25.46, -26.87, -0.020, 0.946, -0.064, 16:43:56.948
69, -22.69, -36.17, -20.52, -18.86, -29.08, -15.58, -22.04, -29.55, -20.52, -30.17, -19.09, -27.20, -25.73, -21.06, -25.46, -26.87, 0.000, 0.000, 0.000, 16:43:56.948
70, -22.69, -36.17, -20.52, -18.86, -29.08, -15.58, -22.04, -29.55, -20.52, -30.33, -18.86, -27.18, -25.53, -21.17, -25.68, -27.16, 0.000, 0.000, 0.000, 16:43:56.949
71, -22.96, -36.34, -20.54, -19.09, -28.97, -15.24, -22.20, -29.53, -20.52, -30.33, -18.86, -27.18, -25.53, -21.17, -25.68, -27.16, 0.000, 0.000, 0.000, 16:43:56.949
72, -22.96, -36.34, -20.54, -19.09, -28.97, -15.24, -22.20, -29.53, -20.45, -30.31, -19.04, -27.31, -25.70, -21.14, -25.50, -27.22, 0.000, 0.000, 0.000, 16:43:56.950
73, -22.78, -36.32, -20.45, -18.84, -28.92, -15.47, -21.90, -29.50, -20.45, -30.31, -19.04, -27.31, -25.70, -21.14, -25.50, -27.22, 0.000, 0.000, 0.000, 16:43:56.951
74, -22.78, -36.32, -20.45, -18.84, -28.92, -15.47, -21.90, -29.50, -20.36, -30.35, -19.07, -27.29, -25.75, -21.28, -25.48, -26.98, 0.000, 0.000, 0.000, 16:43:56.952
75, -22.69, -36.17, -20.52, -19.04, -29.15, -15.60, -21.86, -29.46, -20.36, -30.35, -19.07, -27.29, -25.75, -21.28, -25.48, -26.98, 0.000, 0.000, 0.000, 16:43:56.952
76, -22.69, -36.17, -20.52, -19.04, -29.15, -15.60, -21.86, -29.46, -20.32, -30.24, -19.13, -27.45, -25.66, -21.21, -25.24, -27.20, 0.000, 0.000, 0.000, 16:43:56.953
77, -22.80, -36.05, -20.56, -18.71, -29.01, -15.47, -21.99, -29.48, -20.32, -30.24, -19.13, -27.45, -25.66, -21.21, -25.24, -27.20, 0.000, 0.000, 0.000, 16:43:56.953
78, -22.80, -36.05, -20.56, -18.71, -29.01, -15.47, -21.99, -29.48, -20.56, -30.24, -19.00, -27.47, -25.93, -21.19, -25.53, -27.18, -0.020, 0.944, -0.064, 16:43:56.954
79, -22.71, -36.21, -20.63, -19.13, -28.95, -15.40, -21.77, -29.62, -20.56, -30.24, -19.00, -27.47, -25.93, -21.19, -25.53, -27.18, 0.000, 0.000, 0.000, 16:43:56.954
80, -22.71, -36.21, -20.63, -19.13, -28.95, -15.40, -21.77, -29.62, -20.70, -30.13, -19.09, -27.29, -25.75, -20.92, -25.37, -27.18, 0.000, 0.000, 0.000, 16:43:56.954
81, -22.60, -36.37, -20.52, -18.98, -28.74, -15.65, -21.84, -29.75, -20.70, -30.13, -19.09, -27.29, -25.75, -20.92, -25.37, -27.18, 0.000, 0.000, 0.000, 16:43:56.954
82, -22.60, -36.37, -20.52, -18.98, -28.74, -15.65, -21.84, -29.75, -20.47, -30.20, -19.13, -27.25, -25.84, -21.08, -25.41, -26.91, 0.000, 0.000, 0.000, 16:43:56.954
83, -22.73, -36.25, -20.25, -19.00, -28.74, -15.45, -22.26, -29.71, -20.47, -30.20, -19.13, -27.25, -25.84, -21.08, -25.41, -26.91, 0.000, 0.000, 0.000, 16:43:56.954
84, -22.73, -36.25, -20.25, -19.00, -28.74, -15.45, -22.26, -29.71, -20.45, -30.29, -19.04, -27.31, -25.79, -20.97, -25.46, -27.18, 0.000, 0.000, 0.000, 16:43:56.955
85, -22.91, -36.32, -20.45, -19.11, -28.81, -15.49, -22.11, -29.68, -20.45, -30.29, -19.04, -27.31, -25.79, -20.97, -25.46, -27.18, 0.000, 0.000, 0.000, 16:43:56.955
86, -22.91, -36.32, -20.45, -19.11, -28.81, -15.49, -22.11, -29.68, -20.56, -30.24, -19.18, -27.31, -25.59, -20.92, -25.17, -27.16, 0.000, 0.000, 0.000, 16:43:56.955
87, -22.91, -36.08, -20.54, -18.91, -28.86, -15.71, -22.17, -29.62, -20.56, -30.24, -19.18, -27.31, -25.59, -20.92, -25.17, -27.16, 0.000, 0.000, 0.000, 16:43:56.955
88, -22.91, -36.08, -20.54, -18.91, -28.86, -15.71, -22.17, -29.62, -20.76, -30.35, -18.98, -27.40, -25.82, -20.85, -25.32, -27.31, -0.024, 0.938, -0.064, 16:43:56.955
89, -22.80, -35.99, -20.50, -18.95, -28.92, -15.31, -21.90, -29.66, -20.76, -30.35, -18.98, -27.40, -25.82, -20.85, -25.32, -27.31, 0.000, 0.000, 0.000, 16:43:56.955
90, -22.80, -35.99, -20.50, -18.95, -28.92, -15.31, -21.90, -29.66, -20.56, -30.29, -19.00, -27.16, -25.53, -21.14, -25.46, -27.14, 0.000, 0.000, 0.000, 16:43:56.956
91, -22.78, -36.23, -20.50, -18.84, -28.95, -15.42, -22.04, -29.59, -20.56, -30.29, -19.00, -27.16, -25.53, -21.14, -25.46, -27.14, 0.000, 0.000, 0.000, 16:43:56.956
92, -22.78, -36.23, -20.50, -18.84, -28.95, -15.42, -22.04, -29.59, -20.56, -30.17, -19.13, -27.34, -25.59, -21.03, -25.57, -27.14, 0.000, 0.000, 0.000, 16:43:56.956
93, -22.62, -36.23, -20.52, -18.91, -28.83, -15.40, -22.15, -29.57, -20.56, -30.17, -19.13, -27.34, -25.59, -21.03, -25.57, -27.14, 0.000, 0.000, 0.000, 16:43:56.956
94, -22.62, -36.23, -20.52, -18.91, -28.83, -15.40, -22.15, -29.57, -20.56, -30.49, -19.00, -27.34, -25.59, -20.99, -25.37, -27.16, 0.000, 0.000, 0.000, 16:43:56.957
95, -22.69, -36.17, -20.23, -18.75, -28.79, -15.40, -21.86, -29.82, -20.56, -30.49, -19.00, -27.34, -25.59, -20.99, -25.37, -27.16, 0.000, 0.000, 0.000, 16:43:56.957
96, -22.69, -36.17, -20.23, -18.75, -28.79, -15.40, -21.86, -29.82, -20.41, -30.13, -19.09, -27.25, -25.57, -20.92, -25.35, -27.14, 0.000, 0.000, 0.000, 16:43:56.957
97, -22.91, -36.34, -20.32, -19.07, -28.95, -15.15, -21.95, -29.62, -20.41, -30.13, -19.09, -27.25, -25.57, -20.92, -25.35, -27.14, 0.000, 0.000, 0.000, 16:43:56.957
98, -22.91, -36.34, -20.32, -19.07, -28.95, -15.15, -21.95, -29.62, -20.50, -30.29, -19.00, -27.22, -25.79, -20.92, -25.37, -27.16, -0.030, 0.942, -0.066, 16:43:56.957
99, -22.93, -36.17, -20.56, -18.86, -29.10, -15.09, -21.79, -29.64, -20.50, -30.29, -19.00, -27.22, -25.79, -20.92, -25.37, -27.16, 0.000, 0.000, 0.000, 16:43:56.957
100, -22.93, -36.17, -20.56, -18.86, -29.10, -15.09, -21.79, -29.64, -20.41, -30.29, -19.20, -27.36, -25.79, -21.14, -25.64, -27.31, 0.000, 0.000, 0.000, 16:43:56.958
101, -22.73, -36.05, -20.47, -18.93, -28.99, -15.38, -22.20, -29.53, -20.41, -30.29, -19.20, -27.36, -25.79, -21.14, -25.64, -27.31, 0.000, 0.000, 0.000, 16:43:56.958
102, -22.73, -36.05, -20.47, -18.93, -28.99, -15.38, -22.20, -29.53, -20.68, -30.47, -19.00, -27.36, -25.82, -21.03, -25.37, -27.20, 0.000, 0.000, 0.000, 16:43:56.958
103, -22.71, -36.08, -20.63, -19.00, -28.97, -15.42, -22.11, -29.79, -20.68, -30.47, -19.00, -27.36, -25.82, -21.03, -25.37, -27.20, 0.000, 0.000, 0.000, 16:43:56.958
104, -22.71, -36.08, -20.63, -19.00, -28.97, -15.42, -22.11, -29.79, -20.36, -30.26, -19.02, -27.25, -25.75, -21.01, -25.50, -27.20, 0.000, 0.000, 0.000, 16:43:56.958
105, -22.69, -36.14, -20.47, -18.95, -28.97, -15.38, -22.02, -29.77, -20.36, -30.26, -19.02, -27.25, -25.75, -21.01, -25.50, -27.20, 0.000, 0.000, 0.000, 16:43:56.959
106, -22.69, -36.14, -20.47, -18.95, -28.97, -15.38, -22.02, -29.77, -20.59, -30.29, -19.09, -27.29, -25.79, -21.10, -25.41, -27.29, 0.000, 0.000, 0.000, 16:43:56.959
107, -22.75, -36.21, -20.47, -19.02, -29.08, -15.47, -21.97, -29.66, -20.59, -30.29, -19.09, -27.29, -25.79, -21.10, -25.41, -27.29, 0.000, 0.000, 0.000, 16:43:57.409
108, -22.75, -36.21, -20.47, -19.02, -29.08, -15.47, -21.97, -29.66, -20.74, -30.06, -18.98, -27.43, -25.93, -21.03, -25.37, -27.31, -0.030, 0.950, -0.068, 16:43:57.409
109, -22.84, -36.10, -20.63, -18.91, -28.97, -15.58, -22.15, -29.62, -20.74, -30.06, -18.98, -27.43, -25.93, -21.03, -25.37, -27.31, 0.000, 0.000, 0.000, 16:43:57.410
110, -22.84, -36.10, -20.63, -18.91, -28.97, -15.58, -22.15, -29.62, -20.41, -30.35, -19.02, -27.45, -25.48, -21.03, -25.55, -27.22, 0.000, 0.000, 0.000, 16:43:57.410
111, -23.04, -36.10, -20.43, -18.73, -28.97, -15.47, -21.97, -29.57, -20.41, -30.35, -19.02, -27.45, -25.48, -21.03, -25.55, -27.22, 0.000, 0.000, 0.000, 16:43:57.410
112, -23.04, -36.10, -20.43, -18.73, -28.97, -15.47, -21.97, -29.57, -20.43, -30.35, -19.11, -27.49, -25.70, -21.06, -25.39, -27.25, 0.000, 0.000, 0.000, 16:43:57.410
113, -22.66, -36.19, -20.43, -19.04, -28.86, -15.45, -22.08, -29.82, -20.43, -30.35, -19.11, -27.49, -25.70, -21.06, -25.39, -27.25, 0.000, 0.000, 0.000, 16:43:57.410
114, -22.66, -36.19, -20.43, -19.04, -28.86, -15.45, -22.08, -29.82, -20.41, -30.17, -19.02, -27.43, -25.88, -21.32, -25.44, -27.22, 0.000, 0.000, 0.000, 16:43:57.411
115, -22.62, -36.28, -20.47, -19.09, -28.95, -15.40, -22.26, -29.62, -20.41, -30.17, -19.02, -27.43, -25.88, -21.32, -25.44, -27.22, 0.000, 0.000, 0.000, 16:43:57.411
116, -22.62, -36.28, -20.47, -19.09, -28.95, -15.40, -22.26, -29.62, -20.59, -30.26, -19.20, -27.31, -25.77, -21.12, -25.19, -27.22, 0.000, 0.000, 0.000, 16:43:57.411
117, -22.84, -36.32, -20.45, -18.93, -29.01, -15.40, -22.04, -29.77, -20.59, -30.26, -19.20, -27.31, -25.77, -21.12, -25.19, -27.22, 0.000, 0.000, 0.000, 16:43:57.411
118, -22.84, -36.32, -20.45, -18.93, -29.01, -15.40, -22.04, -29.77, -20.56, -30.26, -19.18, -27.36, -25.82, -20.88, -25.32, -27.22, -0.032, 0.946, -0.064, 16:43:57.411
119, -22.71, -36.08, -20.63, -18.86, -29.06, -15.36, -22.06, -29.79, -20.56, -30.26, -19.18, -27.36, -25.82, -20.88, -25.32, -27.22, 0.000, 0.000, 0.000, 16:43:57.412
120, -22.71, -36.08, -20.63, -18.86, -29.06, -15.36, -22.06, -29.79, -20.54, -30.26, -18.95, -27.00, -25.57, -21.03, -25.46, -27.20, 0.000, 0.000, 0.000, 16:43:57.412
121, -22.71, -36.10, -20.18, -18.84, -29.03, -15.47, -22.17, -29.75, -20.54, -30.26, -18.95, -27.00, -25.57, -21.03, -25.46, -27.20, 0.000, 0.000, 0.000, 16:43:57.412
122, -22.71, -36.10, -20.18, -18.84, -29.03, -15.47, -22.17, -29.75, -20.43, -30.35, -18.93, -27.22, -25.70, -21.08, -25.35, -27.25, 0.000, 0.000, 0.000, 16:43:57.412
123, -22.91, -36.14, -20.32, -18.80, -29.12, -15.40, -21.90, -29.53, -20.43, -30.35, -18.93, -27.22, -25.70, -21.08, -25.35, -27.25, 0.000, 0.000, 0.000, 16:43:57.412
124, -22.91, -36.14, -20.32, -18.80, -29.12, -15.40, -21.90, -29.53, -20.56, -30.44, -19.20, -27.29, -25.84, -21.06, -25.50, -27.09, 0.000, 0.000, 0.000, 16:43:57.412
125, -22.73, -36.12, -20.59, -19.00, -28.90, -15.42, -21.99, -29.28, -20.56, -30.44, -19.20, -27.29, -25.84, -21.06, -25.50, -27.09, 0.000, 0.000, 0.000, 16:43:57.413
126, -22.73, -36.12, -20.59, -19.00, -28.90, -15.42, -21.99, -29.28, -20.54, -30.15, -18.78, -27.22, -25.91, -21.14, -25.37, -27.16, 0.000, 0.000, 0.000, 16:43:57.413
127, -22.82, -36.17, -20.59, -18.93, -28.97, -15.60, -21.88, -29.48, -20.54, -30.15, -18.78, -27.22, -25.91, -21.14, -25.37, -27.16, 0.000, 0.000, 0.000, 16:43:57.413
128, -22.82, -36.17, -20.59, -18.93, -28.97, -15.60, -21.88, -29.48, -20.63, -30.04, -19.18, -27.47, -25.79, -21.08, -25.44, -27.14, -0.030, 0.942, -0.058, 16:43:57.413
129, -22.66, -36.23, -20.50, -18.93, -28.95, -15.53, -22.08, -29.41, -20.63, -30.04, -19.18, -27.47, -25.79, -21.08, -25.44, -27.14, 0.000, 0.000, 0.000, 16:43:57.413
130, -22.66, -36.23, -20.50, -18.93, -28.95, -15.53, -22.08, -29.41, -20.52, -30.00, -19.02, -27.43, -25.97, -21.10, -25.21, -27.34, 0.000, 0.000, 0.000, 16:43:57.413
131, -22.89, -36.17, -20.45, -18.95, -28.86, -15.31, -22.26, -29.73, -20.52, -30.00, -19.02, -27.43, -25.97, -21.10, -25.21, -27.34, 0.000, 0.000, 0.000, 16:43:57.414
132, -22.89, -36.17, -20.45, -18.95, -28.86, -15.31, -22.26, -29.73, -20.56, -30.29, -19.09, -27.31, -25.64, -21.19, -25.06, -27.14, 0.000, 0.000, 0.000, 16:43:57.414
133, -22.55, -36.23, -20.45, -18.89, -28.90, -15.40, -22.02, -29.66, -20.56, -30.29, -19.09, -27.31, -25.64, -21.19, -25.06, -27.14, 0.000, 0.000, 0.000, 16:43:57.414
134, -22.55, -36.23, -20.45, -18.89, -28.90, -15.40, -22.02, -29.66, -20.38, -30.44, -19.02, -27.25, -25.73, -21.12, -25.46, -27.05, 0.000, 0.000, 0.000, 16:43:57.414
135, -22.51, -36.17, -20.47, -18.71, -28.92, -15.42, -21.95, -29.71, -20.38, -30.44, -19.02, -27.25, -25.73, -21.12, -25.46, -27.05, 0.000, 0.000, 0.000, 16:43:57.415
136, -22.51, -36.17, -20.47, -18.71, -28.92, -15.42, -21.95, -29.71, -20.36, -30.38, -19.16, -27.38, -25.91, -21.10, -25.30, -27.02, 0.000, 0.000, 0.000, 16:43:57.415
137, -22.80, -36.37, -20.36, -18.98, -28.86, -15.58, -22.08, -29.75, -20.36, -30.38, -19.16, -27.38, -25.91, -21.10, -25.30, -27.02, -0.032, 0.936, -0.056, 16:43:57.415
138, -22.80, -36.37, -20.36, -18.98, -28.86, -15.58, -22.08, -29.75, -20.41, -30.17, -19.11, -27.20, -25.82, -21.08, -25.41, -27.09, 0.000, 0.000, 0.000, 16:43:57.415
139, -22.82, -36.37, -20.59, -18.95, -29.10, -15.24, -22.11, -29.64, -20.41, -30.17, -19.11, -27.20, -25.82, -21.08, -25.41, -27.09, 0.000, 0.000, 0.000, 16:43:57.415
140, -22.82, -36.37, -20.59, -18.95, -29.10, -15.24, -22.11, -29.64, -20.52, -30.13, -19.18, -27.25, -25.79, -20.97, -25.32, -27.14, 0.000, 0.000, 0.000, 16:43:57.416
141, -22.80, -36.14, -20.50, -19.04, -29.12, -15.56, -22.22, -29.68, -20.52, -30.13, -19.18, -27.25, -25.79, -20.97, -25.32, -27.14, 0.000, 0.000, 0.000, 16:43:57.416
142, -22.80, -36.14, -20.50, -19.04, -29.12, -15.56, -22.22, -29.68, -20.52, -30.24, -19.02, -27.14, -25.88, -21.30, -25.46, -27.34, 0.000, 0.000, 0.000, 16:43:57.416
143, -22.51, -36.23, -20.47, -18.89, -29.06, -15.33, -22.22, -29.71, -20.52, -30.24, -19.02, -27.14, -25.88, -21.30, -25.46, -27.34, 0.000, 0.000, 0.000, 16:43:57.416
144, -22.51, -36.23, -20.47, -18.89, -29.06, -15.33, -22.22, -29.71, -20.47, -30.38, -18.93, -27.43, -25.79, -21.12, -25.48, -27.02, 0.000, 0.000, 0.000, 16:43:57.416
145, -22.78, -36.37, -20.59, -19.02, -28.81, -15.45, -21.79, -29.75, -20.47, -30.38, -18.93, -27.43, -25.79, -21.12, -25.48, -27.02, 0.000, 0.000, 0.000, 16:43:57.417
146, -22.78, -36.37, -20.59, -19.02, -28.81, -15.45, -21.79, -29.75, -20.56, -30.09, -19.02, -27.34, -25.84, -21.21, -25.53, -27.29, 0.000, 0.000, 0.000, 16:43:57.417
147, -22.93, -36.34, -20.30, -19.02, -28.88, -15.53, -21.99, -29.33, -20.56, -30.09, -19.02, -27.34, -25.84, -21.21, -25.53, -27.29, -0.030, 0.938, -0.056, 16:43:57.417
148, -22.93, -36.34, -20.30, -19.02, -28.88, -15.53, -21.99, -29.33, -20.65, -30.22, -18.98, -27.02, -25.75, -21.03, -25.48, -27.25, 0.000, 0.000, 0.000, 16:43:57.417
149, -22.73, -36.21, -20.50, -18.93, -29.08, -15.42, -22.17, -29.62, -20.65, -30.22, -18.98, -27.02, -25.75, -21.03, -25.48, -27.25, 0.000, 0.000, 0.000, 16:43:57.418
150, -22.73, -36.21, -20.50, -18.93, -29.08, -15.42, -22.17, -29.62, -20.61, -30.13, -18.95, -27.29, -25.95, -21.06, -25.24, -27.05, 0.000, 0.000, 0.000, 16:43:57.418
151, -22.73, -36.46, -20.54, -19.02, -28.81, -15.42, -22.20, -29.82, -20.61, -30.13, -18.95, -27.29, -25.95, -21.06, -25.24, -27.05, 0.000, 0.000, 0.000, 16:43:57.419
152, -22.73, -36.46, -20.54, -19.02, -28.81, -15.42, -22.20, -29.82, -20.52, -30.20, -18.95, -27.54, -25.70, -21.08, -25.32, -27.25, 0.000, 0.000, 0.000, 16:43:57.419
153, -22.69, -36.32, -20.30, -19.11, -28.88, -15.47, -22.08, -29.59, -20.52, -30.20, -18.95, -27.54, -25.70, -21.08, -25.32, -27.25, 0.000, 0.000, 0.000, 16:43:57.419
154, -22.69, -36.32, -20.30, -19.11, -28.88, -15.47, -22.08, -29.59, -20.56, -30.33, -19.04, -27.43, -25.73, -20.92, -25.28, -27.34, 0.000, 0.000, 0.000, 16:43:57.419
155, -22.80, -36.21, -20.43, -18.80, -28.83, -15.53, -22.02, -29.62, -20.56, -30.33, -19.04, -27.43, -25.73, -20.92, -25.28, -27.34, 0.000, 0.000, 0.000, 16:43:57.419
156, -22.80, -36.21, -20.43, -18.80, -28.83, -15.53, -22.02, -29.62, -20.47, -30.11, -19.16, -27.40, -25.59, -21.21, -25.37, -27.18, 0.000, 0.000, 0.000, 16:43:57.420
157, -22.78, -36.34, -20.54, -19.00, -29.03, -15.62, -22.11, -29.57, -20.47, -30.11, -19.16, -27.40, -25.59, -21.21, -25.37, -27.18, -0.030, 0.940, -0.050, 16:43:57.420
158, -22.78, -36.34, -20.54, -19.00, -29.03, -15.62, -22.11, -29.57, -20.25, -30.09, -19.09, -27.29, -25.50, -21.01, -25.53, -27.38, 0.000, 0.000, 0.000, 16:43:57.420
159, -22.66, -36.10, -20.52, -18.93, -29.06, -15.56, -22.06, -29.46, -20.25, -30.09, -19.09, -27.29, -25.50, -21.01, -25.53, -27.38, 0.000, 0.000, 0.000, 16:43:57.420
160, -22.66, -36.10, -20.52, -18.93, -29.06, -15.56, -22.06, -29.46, -20.54, -30.35, -19.11, -27.29, -25.75, -21.19, -25.37, -27.27, 0.000, 0.000, 0.000, 16:43:57.420
161, -22.66, -36.25, -20.50, -18.89, -28.92, -15.53, -21.90, -29.44, -20.54, -30.35, -19.11, -27.29, -25.75, -21.19, -25.37, -27.27, 0.000, 0.000, 0.000, 16:43:57.421
162, -22.66, -36.25, -20.50, -18.89, -28.92, -15.53, -21.90, -29.44, -20.47, -30.06, -19.16, -27.51, -25.44, -21.06, -25.32, -27.16, 0.000, 0.000, 0.000, 16:43:57.421
163, -22.66, -36.03, -20.34, -18.80, -29.03, -15.47, -22.08, -29.48, -20.47, -30.06, -19.16, -27.51, -25.44, -21.06, -25.32, -27.16, 0.000, 0.000, 0.000, 16:43:57.421
164, -22.66, -36.03, -20.34, -18.80, -29.03, -15.47, -22.08, -29.48, -20.34, -30.38, -19.11, -27.47, -25.44, -21.03, -25.44, -27.11, 0.000, 0.000, 0.000, 16:43:57.421
165, -22.73, -36.25, -20.47, -18.60, -28.97, -15.67, -22.04, -29.62, -20.34, -30.38, -19.11, -27.47, -25.44, -21.03, -25.44, -27.11, 0.000, 0.000, 0.000, 16:43:57.421
166, -22.73, -36.25, -20.47, -18.60, -28.97, -15.67, -22.04, -29.62, -20.56, -30.22, -19.16, -27.27, -25.57, -21.12, -25.46, -27.34, 0.000, 0.000, 0.000, 16:43:57.421
167, -22.75, -36.21, -20.50, -18.80, -28.95, -15.11, -21.95, -29.44, -20.56, -30.22, -19.16, -27.27, -25.57, -21.12, -25.46, -27.34, -0.024, 0.936, -0.062, 16:43:57.422
168, -22.75, -36.21, -20.50, -18.80, -28.95, -15.11, -21.95, -29.44, -20.63, -30.29, -19.20, -27.29, -25.66, -21.03, -25.35, -27.25, 0.000, 0.000, 0.000, 16:43:57.422
169, -22.87, -36.12, -20.45, -19.07, -28.83, -15.36, -21.97, -29.62, -20.63, -30.29, -19.20, -27.29, -25.66, -21.03, -25.35, -27.25, 0.000, 0.000, 0.000, 16:43:57.422
170, -22.87, -36.12, -20.45, -19.07, -28.83, -15.36, -21.97, -29.62, -20.61, -30.15, -19.29, -27.29, -25.64, -20.88, -25.32, -27.07, 0.000, 0.000, 0.000, 16:43:57.422
171, -23.02, -36.10, -20.56, -19.18, -28.72, -15.31, -22.28, -29.64, -20.61, -30.15, -19.29, -27.29, -25.64, -20.88, -25.32, -27.07, 0.000, 0.000, 0.000, 16:43:57.422
172, -23.02, -36.10, -20.56, -19.18, -28.72, -15.31, -22.28, -29.64, -20.70, -30.26, -19.09, -27.29, -25.82, -21.06, -25.50, -27.16, 0.000, 0.000, 0.000, 16:43:57.422
173, -22.87, -36.19, -20.59, -18.91, -28.95, -15.24, -21.99, -29.50, -20.70, -30.26, -19.09, -27.29, -25.82, -21.06, -25.50, -27.16, 0.000, 0.000, 0.000, 16:43:57.423
174, -22.87, -36.19, -20.59, -18.91, -28.95, -15.24, -21.99, -29.50, -20.45, -30.29, -19.13, -27.38, -25.64, -20.97, -25.37, -27.36, 0.000, 0.000, 0.000, 16:43:57.423
175, -22.71, -36.14, -20.65, -18.86, -28.90, -15.40, -21.93, -29.75, -20.45, -30.29, -19.13, -27.38, -25.64, -20.97, -25.37, -27.36, 0.000, 0.000, 0.000, 16:43:57.423
176, -22.71, -36.14, -20.65, -18.86, -28.90, -15.40, -21.93, -29.75, -20.52, -30.15, -19.24, -27.36, -25.86, -21.17, -25.30, -27.16, 0.000, 0.000, 0.000, 16:43:57.423
177, -22.82, -36.23, -20.63, -18.91, -28.90, -15.58, -22.17, -29.48, -20.52, -30.15, -19.24, -27.36, -25.86, -21.17, -25.30, -27.16, -0.032, 0.940, -0.064, 16:43:57.423
178, -22.82, -36.23, -20.63, -18.91, -28.90, -15.58, -22.17, -29.48, -20.56, -30.15, -19.07, -27.49, -25.66, -21.21, -25.59, -27.31, 0.000, 0.000, 0.000, 16:43:57.423
179, -22.75, -36.21, -20.41, -19.11, -28.81, -15.42, -21.99, -29.68, -20.56, -30.15, -19.07, -27.49, -25.66, -21.21, -25.59, -27.31, 0.000, 0.000, 0.000, 16:43:57.424
180, -22.75, -36.21, -20.41, -19.11, -28.81, -15.42, -21.99, -29.68, -20.79, -30.29, -19.07, -27.29, -25.68, -21.06, -25.35, -27.11, 0.000, 0.000, 0.000, 16:43:57.424
181, -22.62, -36.01, -20.54, -19.07, -28.83, -15.04, -21.97, -29.75, -20.79, -30.29, -19.07, -27.29, -25.68, -21.06, -25.35, -27.11, 0.000, 0.000, 0.000, 16:43:57.424
182, -22.62, -36.01, -20.54, -19.07, -28.83, -15.04, -21.97, -29.75, -20.63, -30.29, -19.00, -27.18, -25.95, -21.21, -25.19, -27.18, 0.000, 0.000, 0.000, 16:43:57.424
183, -22.73, -35.94, -20.59, -18.93, -29.01, -15.36, -22.02, -29.55, -20.63, -30.29, -19.00, -27.18, -25.95, -21.21, -25.19, -27.18, 0.000, 0.000, 0.000, 16:43:57.424
184, -22.73, -35.94, -20.59, -18.93, -29.01, -15.36, -22.02, -29.55, -20.47, -30.20, -18.91, -27.45, -25.79, -21.01, -25.28, -27.14, 0.000, 0.000, 0.000, 16:43:57.425
185, -22.91, -36.10, -20.47, -18.89, -29.10, -15.49, -22.24, -29.68, -20.47, -30.20, -18.91, -27.45, -25.79, -21.01, -25.28, -27.14, 0.000, 0.000, 0.000, 16:43:57.425
186, -22.91, -36.10, -20.47, -18.89, -29.10, -15.49, -22.24, -29.68, -20.65, -30.38, -18.95, -27.40, -25.73, -20.90, -25.46, -27.20, 0.000, 0.000, 0.000, 16:43:57.425
187, -22.84, -36.28, -20.52, -18.98, -29.06, -15.33, -21.99, -29.62, -20.65, -30.38, -18.95, -27.40, -25.73, -20.90, -25.46, -27.20, -0.030, 0.938, -0.064, 16:43:57.425
188, -22.84, -36.28, -20.52, -18.98, -29.06, -15.33, -21.99, -29.62, -20.56, -30.20, -19.00, -27.40, -25.62, -20.92, -25.35, -27.07, 0.000, 0.000, 0.000, 16:43:57.426
189, -22.82, -36.05, -20.38, -19.13, -28.92, -15.60, -22.33, -29.66, -20.56, -30.20, -19.00, -27.40, -25.62, -20.92, -25.35, -27.07, 0.000, 0.000, 0.000, 16:43:57.426
190, -22.82, -36.05, -20.38, -19.13, -28.92, -15.60, -22.33, -29.66, -20.45, -30.33, -19.13, -27.07, -25.50, -21.01, -25.50, -27.05, 0.000, 0.000, 0.000, 16:43:57.426
191, -22.75, -36.28, -20.43, -19.04, -28.90, -15.53, -22.20, -29.79, -20.45, -30.33, -19.13, -27.07, -25.50, -21.01, -25.50, -27.05, 0.000, 0.000, 0.000, 16:43:57.426
192, -22.75, -36.28, -20.43, -19.04, -28.90, -15.53, -22.20, -29.79, -20.65, -30.33, -19.11, -27.22, -25.62, -21.19, -25.35, -27.22, 0.000, 0.000, 0.000, 16:43:57.426
193, -22.60, -36.30, -20.34, -19.09, -29.15, -15.45, -22.11, -29.59, -20.65, -30.33, -19.11, -27.22, -25.62, -21.19, -25.35, -27.22, 0.000, 0.000, 0.000, 16:43:57.426
194, -22.60, -36.30, -20.34, -19.09, -29.15, -15.45, -22.11, -29.59, -20.50, -30.11, -18.95, -27.36, -25.57, -20.99, -25.50, -26.96, 0.000, 0.000, 0.000, 16:43:57.427
195, -22.49, -36.23, -20.50, -18.95, -28.86, -15.40, -21.95, -29.62, -20.50, -30.11, -18.95, -27.36, -25.57, -20.99, -25.50, -26.96, 0.000, 0.000, 0.000, 16:43:57.427
196, -22.49, -36.23, -20.50, -18.95, -28.86, -15.40, -21.95, -29.62, -20.56, -30.09, -19.47, -27.51, -25.62, -21.21, -25.32, -27.20, 0.000, 0.000, 0.000, 16:43:57.427
197, -22.78, -36.25, -20.45, -18.86, -28.95, -15.42, -22.13, -29.53, -20.56, -30.09, -19.47, -27.51, -25.62, -21.21, -25.32, -27.20, -0.030, 0.948, -0.060, 16:43:57.427
198, -22.78, -36.25, -20.45, -18.86, -28.95, -15.42, -22.13, -29.53, -20.59, -30.22, -19.27, -27.31, -25.50, -20.94, -25.24, -27.25, 0.000, 0.000, 0.000, 16:43:57.428
199, -22.87, -36.01, -20.76, -19.04, -29.06, -15.42, -22.15, -29.55, -20.59, -30.22, -19.27, -27.31, -25.50, -20.94, -25.24, -27.25, 0.000, 0.000, 0.000, 16:43:57.428
200, -22.87, -36.01, -20.76, -19.04, -29.06, -15.42, -22.15, -29.55, -20.61, -30.09, -19.16, -27.34, -25.79, -20.94, -25.30, -27.02, 0.000, 0.000, 0.000, 16:43:57.428
201, -22.75, -36.19, -20.63, -18.91, -28.88, -15.38, -21.99, -29.86, -20.61, -30.09, -19.16, -27.34, -25.79, -20.94, -25.30, -27.02, 0.000, 0.000, 0.000, 16:43:57.428
202, -22.75, -36.19, -20.63, -18.91, -28.88, -15.38, -21.99, -29.86, -20.50, -30.31, -19.09, -27.22, -25.62, -20.85, -25.41, -26.96, 0.000, 0.000, 0.000, 16:43:57.428
203, -22.58, -36.12, -20.76, -18.80, -28.86, -15.67, -21.88, -29.50, -20.50, -30.31, -19.09, -27.22, -25.62, -20.85, -25.41, -26.96, 0.000, 0.000, 0.000, 16:43:57.429
204, -22.58, -36.12, -20.76, -18.80, -28.86, -15.67, -21.88, -29.50, -20.56, -30.49, -19.24, -27.31, -25.37, -21.14, -25.46, -27.27, 0.000, 0.000, 0.000, 16:43:57.429
205, -22.84, -36.17, -20.61, -18.93, -29.03, -15.27, -21.79, -29.59, -20.56, -30.49, -19.24, -27.31, -25.37, -21.14, -25.46, -27.27, 0.000, 0.000, 0.000, 16:43:57.429
206, -22.84, -36.17, -20.61, -18.93, -29.03, -15.27, -21.79, -29.59, -20.61, -30.15, -19.02, -27.27, -25.86, -20.81, -25.53, -27.25, 0.000, 0.000, 0.000, 16:43:57.429
207, -22.75, -36.37, -20.36, -19.04, -29.10, -15.47, -22.02, -29.57, -20.61, -30.15, -19.02, -27.27, -25.86, -20.81, -25.53, -27.25, -0.032, 0.942, -0.064, 16:43:57.429
208, -22.75, -36.37, -20.36, -19.04, -29.10, -15.47, -22.02, -29.57, -20.36, -30.22, -19.16, -27.27, -25.77, -20.90, -25.44, -27.31, 0.000, 0.000, 0.000, 16:43:57.430
209, -22.62, -36.10, -20.25, -18.95, -29.01, -15.36, -22.04, -29.79, -20.36, -30.22, -19.16, -27.27, -25.77, -20.90, -25.44, -27.31, 0.000, 0.000, 0.000, 16:43:57.430
210, -22.62, -36.10, -20.25, -18.95, -29.01, -15.36, -22.04, -29.79, -20.52, -30.13, -19.02, -27.49, -25.50, -21.03, -25.32, -27.34, 0.000, 0.000, 0.000, 16:43:57.430
211, -22.66, -36.14, -20.54, -18.82, -28.90, -15.49, -22.08, -29.44, -20.52, -30.13, -19.02, -27.49, -25.50, -21.03, -25.32, -27.34, 0.000, 0.000, 0.000, 16:43:57.430
212, -22.66, -36.14, -20.54, -18.82, -28.90, -15.49, -22.08, -29.44, -20.72, -30.29, -19.09, -27.31, -25.70, -21.19, -25.30, -27.02, 0.000, 0.000, 0.000, 16:43:57.431
213, -22.62, -36.23, -20.30, -18.93, -28.99, -15.38, -21.97, -29.57, -20.72, -30.29, -19.09, -27.31, -25.70, -21.19, -25.30, -27.02, 0.000, 0.000, 0.000, 16:43:57.431
214, -22.62, -36.23, -20.30, -18.93, -28.99, -15.38, -21.97, -29.57, -20.59, -30.40, -19.00, -27.27, -25.64, -21.32, -25.24, -27.00, 0.000, 0.000, 0.000, 16:43:57.431
215, -22.75, -36.17, -20.52, -19.07, -28.79, -15.49, -22.04, -29.64, -20.59, -30.40, -19.00, -27.27, -25.64, -21.32, -25.24, -27.00, 0.000, 0.000, 0.000, 16:43:57.431
216, -22.75, -36.17, -20.52, -19.07, -28.79, -15.49, -22.04, -29.64, -20.54, -30.24, -19.02, -27.27, -25.59, -21.01, -25.55, -27.09, 0.000, 0.000, 0.000, 16:43:57.431
217, -22.64, -36.12, -20.61, -19.13, -28.72, -15.33, -22.11, -29.71, -20.54, -30.24, -19.02, -27.27, -25.59, -21.01, -25.55, -27.09, -0.028, 0.938, -0.058, 16:43:57.432
218, -22.64, -36.12, -20.61, -19.13, -28.72, -15.33, -22.11, -29.71, -20.54, -30.31, -19.07, -27.47, -25.59, -20.88, -25.32, -26.96, 0.000, 0.000, 0.000, 16:43:57.432
219, -22.78, -36.32, -20.56, -18.98, -28.97, -15.42, -21.97, -29.73, -20.54, -30.31, -19.07, -27.47, -25.59, -20.88, -25.32, -26.96, 0.000, 0.000, 0.000, 16:43:57.432
220, -22.78, -36.32, -20.56, -18.98, -28.97, -15.42, -21.97, -29.73, -20.47, -30.29, -19.18, -27.20, -25.50, -20.94, -25.53, -27.29, 0.000, 0.000, 0.000, 16:43:57.432
221, -22.78, -36.19, -20.43, -18.84, -28.97, -15.42, -22.22, -29.64, -20.47, -30.29, -19.18, -27.20, -25.50, -20.94, -25.53, -27.29, 0.000, 0.000, 0.000, 16:43:57.432
222, -22.78, -36.19, -20.43, -18.84, -28.97, -15.42, -22.22, -29.64, -20.70, -30.29, -18.91, -27.34, -25.66, -21.06, -25.39, -27.22, 0.000, 0.000, 0.000, 16:43:57.433
223, -22.91, -36.30, -20.59, -18.78, -28.97, -15.45, -22.04, -29.35, -20.70, -30.29, -18.91, -27.34, -25.66, -21.06, -25.39, -27.22, 0.000, 0.000, 0.000, 16:43:57.433
224, -22.91, -36.30, -20.59, -18.78, -28.97, -15.45, -22.04, -29.35, -20.50, -30.06, -19.02, -27.27, -25.70, -21.12, -25.30, -27.05, 0.000, 0.000, 0.000, 16:43:57.433
225, -22.82, -36.19, -20.56, -19.07, -29.01, -15.62, -22.04, -29.64, -20.50, -30.06, -19.02, -27.27, -25.70, -21.12, -25.30, -27.05, 0.000, 0.000, 0.000, 16:43:57.434
226, -22.82, -36.19, -20.56, -19.07, -29.01, -15.62, -22.04, -29.64, -20.59, -30.26, -19.04, -27.11, -25.55, -21.03, -25.44, -27.20, -0.026, 0.946, -0.060, 16:43:57.434
227, -22.53, -36.17, -20.56, -18.75, -28.81, -15.47, -21.93, -29.55, -20.59, -30.26, -19.04, -27.11, -25.55, -21.03, -25.44, -27.20, 0.000, 0.000, 0.000, 16:43:57.434
228, -22.53, -36.17, -20.56, -18.75, -28.81, -15.47, -21.93, -29.55, -20.45, -30.13, -19.16, -27.22, -25.57, -20.99, -25.35, -27.20, 0.000, 0.000, 0.000, 16:43:57.889
229, -22.75, -36.17, -20.43, -18.91, -28.68, -15.69, -21.88, -29.50, -20.45, -30.13, -19.16, -27.22, -25.57, -20.99, -25.35, -27.20, 0.000, 0.000, 0.000, 16:43:57.890
230, -22.75, -36.17, -20.43, -18.91, -28.68, -15.69, -21.88, -29.50, -20.56, -30.40, -19.07, -27.31, -25.62, -21.10, -25.59, -27.11, 0.000, 0.000, 0.000, 16:43:57.890
231, -22.78, -36.28, -20.23, -19.09, -28.97, -15.51, -21.70, -29.71, -20.56, -30.40, -19.07, -27.31, -25.62, -21.10, -25.59, -27.11, 0.000, 0.000, 0.000, 16:43:57.891
232, -22.78, -36.28, -20.23, -19.09, -28.97, -15.51, -21.70, -29.71, -20.59, -30.40, -19.04, -27.22, -25.70, -21.06, -25.50, -27.16, 0.000, 0.000, 0.000, 16:43:57.891
233, -22.96, -36.23, -20.45, -18.84, -29.03, -15.47, -22.17, -29.55, -20.59, -30.40, -19.04, -27.22, -25.70, -21.06, -25.50, -27.16, 0.000, 0.000, 0.000, 16:43:57.891
234, -22.96, -36.23, -20.45, -18.84, -29.03, -15.47, -22.17, -29.55, -20.59, -30.17, -19.13, -27.29, -25.84, -21.12, -25.24, -27.18, 0.000, 0.000, 0.000, 16:43:57.891
235, -22.75, -36.10, -20.52, -18.95, -28.95, -15.53, -21.93, -29.50, -20.59, -30.17, -19.13, -27.29, -25.84, -21.12, -25.24, -27.18, 0.000, 0.000, 0.000, 16:43:57.891
236, -22.75, -36.10, -20.52, -18.95, -28.95, -15.53, -21.93, -29.50, -20.47, -30.11, -19.07, -27.49, -25.73, -21.08, -25.30, -27.14, -0.026, 0.946, -0.058, 16:43:57.891
237, -22.80, -36.21, -20.56, -18.95, -28.88, -15.60, -21.90, -29.46, -20.47, -30.11, -19.07, -27.49, -25.73, -21.08, -25.30, -27.14, 0.000, 0.000, 0.000, 16:43:57.892
238, -22.80, -36.21, -20.56, -18.95, -28.88, -15.60, -21.90, -29.46, -20.68, -30.29, -19.18, -27.29, -25.70, -21.12, -25.32, -27.29, 0.000, 0.000, 0.000, 16:43:57.892
239, -22.66, -36.34, -20.25, -19.00, -28.88, -15.42, -22.04, -29.71, -20.68, -30.29, -19.18, -27.29, -25.70, -21.12, -25.32, -27.29, 0.000, 0.000, 0.000, 16:43:57.892
240, -22.66, -36.34, -20.25, -19.00, -28.88, -15.42, -22.04, -29.71, -20.63, -30.26, -18.98, -27.25, -25.97, -21.12, -25.57, -27.47, 0.000, 0.000, 0.000, 16:43:57.892
241, -22.73, -36.48, -20.38, -19.07, -28.90, -15.27, -22.17, -29.66, -20.63, -30.26, -18.98, -27.25, -25.97, -21.12, -25.57, -27.47, 0.000, 0.000, 0.000, 16:43:57.892
242, -22.73, -36.48, -20.38, -19.07, -28.90, -15.27, -22.17, -29.66, -20.50, -30.38, -19.07, -27.27, -25.73, -21.37, -25.50, -27.11, 0.000, 0.000, 0.000, 16:43:57.892
243, -22.71, -36.30, -20.47, -18.89, -28.97, -15.58, -21.99, -29.55, -20.50, -30.38, -19.07, -27.27, -25.73, -21.37, -25.50, -27.11, 0.000, 0.000, 0.000, 16:43:57.893
244, -22.71, -36.30, -20.47, -18.89, -28.97, -15.58, -21.99, -29.55, -20.43, -30.20, -19.07, -27.20, -25.91, -21.08, -25.68, -27.07, 0.000, 0.000, 0.000, 16:43:57.893
245, -22.75, -36.34, -20.36, -19.07, -28.97, -15.56, -21.99, -29.62, -20.43, -30.20, -19.07, -27.20, -25.91, -21.08, -25.68, -27.07, 0.000, 0.000, 0.000, 16:43:57.893
246, -22.75, -36.34, -20.36, -19.07, -28.97, -15.56, -21.99, -29.62, -20.68, -30.35, -19.11, -27.40, -25.66, -21.28, -25.46, -26.93, -0.022, 0.940, -0.058, 16:43:57.893
247, -22.89, -36.25, -20.41, -19.04, -28.90, -15.45, -21.90, -29.59, -20.68, -30.35, -19.11, -27.40, -25.66, -21.28, -25.46, -26.93, 0.000, 0.000, 0.000, 16:43:57.893
248, -22.89, -36.25, -20.41, -19.04, -28.90, -15.45, -21.90, -29.59, -20.59, -30.17, -19.00, -27.56, -25.62, -21.17, -25.35, -27.11, 0.000, 0.000, 0.000, 16:43:57.893
249, -22.73, -36.34, -20.43, -18.98, -28.86, -15.47, -21.84, -29.44, -20.59, -30.17, -19.00, -27.56, -25.62, -21.17, -25.35, -27.11, 0.000, 0.000, 0.000, 16:43:57.894
250, -22.73, -36.34, -20.43, -18.98, -28.86, -15.47, -21.84, -29.44, -20.61, -30.04, -19.04, -27.36, -25.50, -21.14, -25.32, -27.07, 0.000, 0.000, 0.000, 16:43:57.894
251, -22.66, -36.12, -20.54, -19.07, -28.81, -15.47, -22.08, -29.53, -20.61, -30.04, -19.04, -27.36, -25.50, -21.14, -25.32, -27.07, 0.000, 0.000, 0.000, 16:43:57.894
252, -22.66, -36.12, -20.54, -19.07, -28.81, -15.47, -22.08, -29.53, -20.59, -30.29, -18.93, -27.40, -25.59, -21.06, -25.28, -27.18, 0.000, 0.000, 0.000, 16:43:57.894
253, -22.64, -36.10, -20.38, -18.98, -28.92, -15.56, -22.13, -29.68, -20.59, -30.29, -18.93, -27.40, -25.59, -21.06, -25.28, -27.18, 0.000, 0.000, 0.000, 16:43:57.894
254, -22.64, -36.10, -20.38, -18.98, -28.92, -15.56, -22.13, -29.68, -20.50, -30.29, -19.42, -27.47, -25.73, -21.08, -25.24, -27.14, 0.000, 0.000, 0.000, 16:43:57.894
255, -22.78, -36.21, -20.70, -18.89, -28.90, -15.36, -22.15, -29.48, -20.50, -30.29, -19.42, -27.47, -25.73, -21.08, -25.24, -27.14, 0.000, 0.000, 0.000, 16:43:57.895
0, -22.78, -36.21, -20.70, -18.89, -28.90, -15.36, -22.15, -29.48, -20.56, -30.13, -19.11, -27.34, -25.68, -20.99, -25.28, -27.54, -0.022, 0.942, -0.060, 16:43:57.895
1, -22.78, -36.10, -20.50, -18.95, -28.81, -15.53, -22.11, -29.53, -20.56, -30.13, -19.11, -27.34, -25.68, -20.99, -25.28, -27.54, 0.000, 0.000, 0.000, 16:43:57.895
2, -22.78, -36.10, -20.50, -18.95, -28.81, -15.53, -22.11, -29.53, -20.54, -30.33, -18.98, -27.36, -25.82, -20.97, -25.37, -27.34, 0.000, 0.000, 0.000, 16:43:57.895
3, -22.87, -36.12, -20.61, -19.00, -29.01, -15.49, -22.13, -29.53, -20.54, -30.33, -18.98, -27.36, -25.82, -20.97, -25.37, -27.34, 0.000, 0.000, 0.000, 16:43:57.895
4, -22.87, -36.12, -20.61, -19.00, -29.01, -15.49, -22.13, -29.53, -20.54, -30.33, -19.18, -27.27, -25.59, -20.97, -25.24, -27.22, 0.000, 0.000, 0.000, 16:43:57.895
5, -22.87, -36.14, -20.43, -18.93, -28.92, -15.40, -22.20, -29.48, -20.54, -30.33, -19.18, -27.27, -25.59, -20.97, -25.24, -27.22, 0.000, 0.000, 0.000, 16:43:57.896
6, -22.87, -36.14, -20.43, -18.93, -28.92, -15.40, -22.20, -29.48, -20.65, -30.33, -18.93, -27.29, -25.64, -20.97, -25.41, -27.38, 0.000, 0.000, 0.000, 16:43:57.896
7, -22.84, -36.21, -20.34, -19.29, -28.97, -15.53, -22.04, -29.50, -20.65, -30.33, -18.93, -27.29, -25.64, -20.97, -25.41, -27.38, 0.000, 0.000, 0.000, 16:43:57.896
8, -22.84, -36.21, -20.34, -19.29, -28.97, -15.53, -22.04, -29.50, -20.61, -30.40, -19.20, -27.38, -25.46, -20.88, -25.35, -27.27, 0.000, 0.000, 0.000, 16:43:57.896
9, -22.87, -36.23, -20.54, -19.42, -29.12, -15.40, -21.99, -29.66, -20.61, -30.40, -19.20, -27.38, -25.46, -20.88, -25.35, -27.27, 0.000, 0.000, 0.000, 16:43:57.896
10, -22.87, -36.23, -20.54, -19.42, -29.12, -15.40, -21.99, -29.66, -20.61, -30.22, -19.13, -27.20, -25.73, -20.92, -25.35, -27.29, -0.020, 0.942, -0.060, 16:43:57.896
11, -22.69, -36.08, -20.56, -19.02, -28.92, -15.51, -22.02, -29.68, -20.61, -30.22, -19.13, -27.20, -25.73, -20.92, -25.35, -27.29, 0.000, 0.000, 0.000, 16:43:57.897
12, -22.69, -36.08, -20.56, -19.02, -28.92, -15.51, -22.02, -29.68, -20.63, -30.31, -18.93, -27.25, -25.66, -21.12, -25.48, -27.29, 0.000, 0.000, 0.000, 16:43:57.897
13, -22.78, -36.19, -20.54, -18.86, -28.86, -15.62, -22.02, -29.55, -20.63, -30.31, -18.93, -27.25, -25.66, -21.12, -25.48, -27.29, 0.000, 0.000, 0.000, 16:43:57.897
14, -22.78, -36.19, -20.54, -18.86, -28.86, -15.62, -22.02, -29.55, -20.54, -30.26, -19.07, -27.38, -25.97, -21.06, -25.57, -27.09, 0.000, 0.000, 0.000, 16:43:57.897
15, -22.75, -36.14, -20.74, -18.98, -28.70, -15.58, -22.11, -29.71, -20.54, -30.26, -19.07, -27.38, -25.97, -21.06, -25.57, -27.09, 0.000, 0.000, 0.000, 16:43:57.897
16, -22.75, -36.14, -20.74, -18.98, -28.70, -15.58, -22.11, -29.71, -20.65, -30.24, -19.09, -27.67, -25.53, -20.99, -25.39, -27.34, 0.000, 0.000, 0.000, 16:43:57.898
17, -22.71, -35.87, -20.74, -18.93, -28.90, -15.56, -21.88, -29.84, -20.65, -30.24, -19.09, -27.67, -25.53, -20.99, -25.39, -27.34, 0.000, 0.000, 0.000, 16:43:57.898
18, -22.71, -35.87, -20.74, -18.93, -28.90, -15.56, -21.88, -29.84, -20.72, -30.29, -19.00, -27.34, -25.84, -21.19, -25.48, -27.34, 0.000, 0.000, 0.000, 16:43:57.898
19, -22.80, -36.14, -20.68, -18.93, -28.63, -15.67, -21.93, -29.64, -20.72, -30.29, -19.00, -27.34, -25.84, -21.19, -25.48, -27.34, 0.000, 0.000, 0.000, 16:43:57.898
20, -22.80, -36.14, -20.68, -18.93, -28.63, -15.67, -21.93, -29.64, -20.68, -30.26, -19.13, -27.25, -25.77, -20.99, -25.44, -27.02, -0.022, 0.948, -0.062, 16:43:57.898
21, -22.71, -36.43, -20.45, -18.95, -28.81, -15.56, -22.13, -29.88, -20.68, -30.26, -19.13, -27.25, -25.77, -20.99, -25.44, -27.02, 0.000, 0.000, 0.000, 16:43:57.898
22, -22.71, -36.43, -20.45, -18.95, -28.81, -15.56, -22.13, -29.88, -20.63, -30.33, -19.24, -27.27, -25.88, -21.03, -25.30, -27.02, 0.000, 0.000, 0.000, 16:43:57.899
23, -22.89, -36.30, -20.61, -18.66, -28.86, -15.49, -21.84, -29.84, -20.63, -30.33, -19.24, -27.27, -25.88, -21.03, -25.30, -27.02, 0.000, 0.000, 0.000, 16:43:57.899
24, -22.89, -36.30, -20.61, -18.66, -28.86, -15.49, -21.84, -29.84, -20.65, -30.24, -19.22, -27.16, -25.79, -20.99, -25.17, -27.02, 0.000, 0.000, 0.000, 16:43:57.899
25, -22.78, -36.12, -20.41, -18.95, -28.92, -15.58, -21.95, -29.53, -20.65, -30.24, -19.22, -27.16, -25.79, -20.99, -25.17, -27.02, 0.000, 0.000, 0.000, 16:43:57.899
26, -22.78, -36.12, -20.41, -18.95, -28.92, -15.58, -21.95, -29.53, -20.54, -30.20, -19.02, -27.43, -25.70, -21.28, -25.32, -27.07, 0.000, 0.000, 0.000, 16:43:57.899
27, -22.82, -36.21, -20.41, -18.82, -28.90, -15.47, -22.02, -29.75, -20.54, -30.20, -19.02, -27.43, -25.70, -21.28, -25.32, -27.07, 0.000, 0.000, 0.000, 16:43:57.899
28, -22.82, -36.21, -20.41, -18.82, -28.90, -15.47, -22.02, -29.75, -20.83, -30.06, -19.02, -27.43, -25.53, -21.14, -25.24, -27.16, 0.000, 0.000, 0.000, 16:43:57.900
29, -22.75, -36.39, -20.61, -19.11, -29.01, -15.53, -22.02, -29.59, -20.83, -30.06, -19.02, -27.43, -25.53, -21.14, -25.24, -27.16, 0.000, 0.000, 0.000, 16:43:57.900
30, -22.75, -36.39, -20.61, -19.11, -29.01, -15.53, -22.02, -29.59, -20.63, -30.20, -19.18, -27.43, -25.62, -21.08, -25.26, -27.18, -0.020, 0.948, -0.056, 16:43:57.900
31, -22.84, -36.43, -20.54, -18.89, -28.74, -15.36, -21.90, -29.48, -20.63, -30.20, -19.18, -27.43, -25.62, -21.08, -25.26, -27.18, 0.000, 0.000, 0.000, 16:43:57.900
32, -22.84, -36.43, -20.54, -18.89, -28.74, -15.36, -21.90, -29.48, -20.72, -30.29, -19.09, -27.27, -25.73, -21.01, -25.44, -27.11, 0.000, 0.000, 0.000, 16:43:57.900
33, -22.80, -36.08, -20.52, -19.02, -28.81, -15.40, -21.90, -29.44, -20.72, -30.29, -19.09, -27.27, -25.73, -21.01, -25.44, -27.11, 0.000, 0.000, 0.000, 16:43:57.901
34, -22.80, -36.08, -20.52, -19.02, -28.81, -15.40, -21.90, -29.44, -20.56, -30.20, -19.20, -27.20, -25.70, -21.01, -25.44, -27.20, 0.000, 0.000, 0.000, 16:43:57.901
35, -22.71, -36.01, -20.43, -18.80, -28.83, -15.47, -21.99, -29.73, -20.56, -30.20, -19.20, -27.20, -25.70, -21.01, -25.44, -27.20, 0.000, 0.000, 0.000, 16:43:57.901
36, -22.71, -36.01, -20.43, -18.80, -28.83, -15.47, -21.99, -29.73, -20.41, -30.22, -19.18, -27.38, -25.70, -21.17, -25.50, -27.45, 0.000, 0.000, 0.000, 16:43:57.901
37, -22.73, -36.21, -20.45, -18.86, -28.77, -15.60, -22.04, -29.59, -20.41, -30.22, -19.18, -27.38, -25.70, -21.17, -25.50, -27.45, 0.000, 0.000, 0.000, 16:43:57.901
38, -22.73, -36.21, -20.45, -18.86, -28.77, -15.60, -22.04, -29.59, -20.43, -30.31, -19.04, -27.27, -25.82, -21.26, -25.35, -27.54, 0.000, 0.000, 0.000, 16:43:57.902
39, -22.80, -36.21, -20.50, -18.82, -28.74, -15.40, -22.17, -29.57, -20.43, -30.31, -19.04, -27.27, -25.82, -21.26, -25.35, -27.54, 0.000, 0.000, 0.000, 16:43:57.902
40, -22.80, -36.21, -20.50, -18.82, -28.74, -15.40, -22.17, -29.57, -20.72, -30.24, -19.00, -27.22, -25.88, -21.01, -25.41, -27.34, -0.030, 0.944, -0.054, 16:43:57.902
41, -22.87, -36.23, -20.54, -19.00, -28.99, -15.22, -21.99, -29.46, -20.72, -30.24, -19.00, -27.22, -25.88, -21.01, -25.41, -27.34, 0.000, 0.000, 0.000, 16:43:57.902
42, -22.87, -36.23, -20.54, -19.00, -28.99, -15.22, -21.99, -29.46, -20.52, -30.20, -19.09, -27.18, -25.88, -21.01, -25.26, -27.07, 0.000, 0.000, 0.000, 16:43:57.903
43, -22.78, -36.30, -20.52, -18.82, -28.90, -15.51, -22.02, -29.44, -20.52, -30.20, -19.09, -27.18, -25.88, -21.01, -25.26, -27.07, 0.000, 0.000, 0.000, 16:43:57.903
44, -22.78, -36.30, -20.52, -18.82, -28.90, -15.51, -22.02, -29.44, -20.47, -30.31, -18.98, -27.16, -25.62, -21.10, -25.28, -27.09, 0.000, 0.000, 0.000, 16:43:57.903
45, -22.69, -36.10, -20.54, -18.86, -28.90, -15.49, -21.93, -29.50, -20.47, -30.31, -18.98, -27.16, -25.62, -21.10, -25.28, -27.09, 0.000, 0.000, 0.000, 16:43:57.903
46, -22.69, -36.10, -20.54, -18.86, -28.90, -15.49, -21.93, -29.50, -20.52, -30.35, -19.02, -27.20, -25.93, -21.30, -25.32, -27.05, 0.000, 0.000, 0.000, 16:43:57.903
47, -22.71, -36.43, -20.41, -18.91, -29.06, -15.69, -21.86, -29.68, -20.52, -30.35, -19.02, -27.20, -25.93, -21.30, -25.32, -27.05, 0.000, 0.000, 0.000, 16:43:57.904
48, -22.71, -36.43, -20.41, -18.91, -29.06, -15.69, -21.86, -29.68, -20.59, -30.22, -19.24, -27.31, -25.82, -21.12, -25.26, -27.25, 0.000, 0.000, 0.000, 16:43:57.904
49, -22.96, -36.14, -20.34, -18.75, -29.12, -15.42, -22.20, -29.62, -20.59, -30.22, -19.24, -27.31, -25.82, -21.12, -25.26, -27.25, 0.000, 0.000, 0.000, 16:43:57.904
50, -22.96, -36.14, -20.34, -18.75, -29.12, -15.42, -22.20, -29.62, -20.61, -30.29, -19.33, -27.36, -25.73, -21.08, -25.55, -27.43, -0.030, 0.942, -0.054, 16:43:57.905
51, -22.87, -36.19, -20.38, -18.71, -28.95, -15.49, -22.04, -29.68, -20.61, -30.29, -19.33, -27.36, -25.73, -21.08, -25.55, -27.43, 0.000, 0.000, 0.000, 16:43:57.905
52, -22.87, -36.19, -20.38, -18.71, -28.95, -15.49, -22.04, -29.68, -20.63, -30.15, -19.13, -27.40, -25.77, -20.94, -25.50, -27.36, 0.000, 0.000, 0.000, 16:43:57.905
53, -22.82, -36.12, -20.41, -18.91, -29.06, -15.36, -22.04, -29.93, -20.63, -30.15, -19.13, -27.40, -25.77, -20.94, -25.50, -27.36, 0.000, 0.000, 0.000, 16:43:57.905
54, -22.82, -36.12, -20.41, -18.91, -29.06, -15.36, -22.04, -29.93, -20.56, -30.26, -18.91, -27.36, -25.59, -21.03, -25.35, -27.27, 0.000, 0.000, 0.000, 16:43:57.905
55, -22.75, -36.39, -20.50, -19.16, -29.26, -15.33, -22.04, -29.68, -20.56, -30.26, -18.91, -27.36, -25.59, -21.03, -25.35, -27.27, 0.000, 0.000, 0.000, 16:43:57.906
56, -22.75, -36.39, -20.50, -19.16, -29.26, -15.33, -22.04, -29.68, -20.47, -30.26, -19.07, -27.25, -25.55, -21.01, -25.32, -27.11, 0.000, 0.000, 0.000, 16:43:57.906
57, -22.55, -36.21, -20.54, -19.04, -29.17, -15.69, -21.97, -29.57, -20.47, -30.26, -19.07, -27.25, -25.55, -21.01, -25.32, -27.11, 0.000, 0.000, 0.000, 16:43:57.906
58, -22.55, -36.21, -20.54, -19.04, -29.17, -15.69, -21.97, -29.57, -20.56, -30.35, -19.09, -27.40, -25.53, -21.19, -25.37, -27.09, 0.000, 0.000, 0.000, 16:43:57.906
59, -22.69, -36.14, -20.45, -18.73, -29.06, -15.47, -22.17, -29.73, -20.56, -30.35, -19.09, -27.40, -25.53, -21.19, -25.37, -27.09, 0.000, 0.000, 0.000, 16:43:57.907
60, -22.69, -36.14, -20.45, -18.73, -29.06, -15.47, -22.17, -29.73, -20.41, -30.06, -19.16, -27.22, -25.62, -20.92, -25.28, -27.05, -0.026, 0.942, -0.054, 16:43:57.907
61, -22.73, -36.25, -20.38, -19.00, -28.68, -15.62, -22.37, -29.55, -20.41, -30.06, -19.16, -27.22, -25.62, -20.92, -25.28, -27.05, 0.000, 0.000, 0.000, 16:43:57.907
62, -22.73, -36.25, -20.38, -19.00, -28.68, -15.62, -22.37, -29.55, -20.32, -30.33, -19.07, -27.34, -25.86, -21.01, -25.44, -26.98, 0.000, 0.000, 0.000, 16:43:57.908
63, -22.80, -36.23, -20.34, -19.04, -28.99, -15.40, -22.06, -29.68, -20.32, -30.33, -19.07, -27.34, -25.86, -21.01, -25.44, -26.98, 0.000, 0.000, 0.000, 16:43:57.908
64, -22.80, -36.23, -20.34, -19.04, -28.99, -15.40, -22.06, -29.68, -20.41, -30.15, -19.11, -27.38, -25.73, -21.08, -25.44, -27.02, 0.000, 0.000, 0.000, 16:43:57.908
65, -23.00, -36.28, -20.47, -19.18, -29.03, -15.27, -22.08, -29.64, -20.41, -30.15, -19.11, -27.38, -25.73, -21.08, -25.44, -27.02, 0.000, 0.000, 0.000, 16:43:57.908
66, -23.00, -36.28, -20.47, -19.18, -29.03, -15.27, -22.08, -29.64, -20.36, -30.55, -19.04, -27.45, -25.59, -21.14, -25.46, -27.29, 0.000, 0.000, 0.000, 16:43:57.908
67, -23.00, -36.28, -20.61, -18.82, -28.92, -15.45, -21.99, -29.86, -20.36, -30.55, -19.04, -27.45, -25.59, -21.14, -25.46, -27.29, 0.000, 0.000, 0.000, 16:43:57.908
68, -23.00, -36.28, -20.61, -18.82, -28.92, -15.45, -21.99, -29.86, -20.30, -30.35, -19.13, -27.78, -25.66, -21.23, -25.41, -27.25, 0.000, 0.000, 0.000, 16:43:57.909
69, -22.62, -36.17, -20.54, -18.93, -29.03, -15.40, -22.17, -29.64, -20.30, -30.35, -19.13, -27.78, -25.66, -21.23, -25.41, -27.25, -0.030, 0.948, -0.052, 16:43:57.909
70, -22.62, -36.17, -20.54, -18.93, -29.03, -15.40, -22.17, -29.64, -20.30, -30.24, -18.89, -27.56, -25.68, -21.23, -25.46, -27.16, 0.000, 0.000, 0.000, 16:43:57.909
71, -22.64, -36.23, -20.63, -18.82, -29.08, -15.38, -22.11, -29.68, -20.30, -30.24, -18.89, -27.56, -25.68, -21.23, -25.46, -27.16, 0.000, 0.000, 0.000, 16:43:57.909
72, -22.64, -36.23, -20.63, -18.82, -29.08, -15.38, -22.11, -29.68, -20.68, -30.26, -19.20, -27.38, -25.73, -21.21, -25.35, -27.25, 0.000, 0.000, 0.000, 16:43:57.909
73, -22.55, -36.12, -20.52, -19.16, -28.90, -15.62, -21.95, -29.41, -20.68, -30.26, -19.20, -27.38, -25.73, -21.21, -25.35, -27.25, 0.000, 0.000, 0.000, 16:43:57.909
74, -22.55, -36.12, -20.52, -19.16, -28.90, -15.62, -21.95, -29.41, -20.74, -30.35, -19.04, -27.36, -25.66, -21.23, -25.44, -27.16, 0.000, 0.000, 0.000, 16:43:57.910
75, -22.78, -36.25, -20.43, -18.93, -28.95, -15.45, -21.95, -29.39, -20.74, -30.35, -19.04, -27.36, -25.66, -21.23, -25.44, -27.16, 0.000, 0.000, 0.000, 16:43:57.910
76, -22.78, -36.25, -20.43, -18.93, -28.95, -15.45, -21.95, -29.39, -20.61, -30.26, -19.04, -27.51, -25.70, -21.08, -25.30, -27.25, 0.000, 0.000, 0.000, 16:43:57.910
77, -22.75, -36.23, -20.61, -19.09, -28.72, -15.49, -22.02, -29.48, -20.61, -30.26, -19.04, -27.51, -25.70, -21.08, -25.30, -27.25, 0.000, 0.000, 0.000, 16:43:57.910
78, -22.75, -36.23, -20.61, -19.09, -28.72, -15.49, -22.02, -29.48, -20.50, -30.06, -19.22, -27.38, -25.77, -21.06, -25.32, -27.05, 0.000, 0.000, 0.000, 16:43:57.910
79, -22.75, -36.37, -20.32, -19.07, -28.90, -15.38, -21.90, -29.59, -20.50, -30.06, -19.22, -27.38, -25.77, -21.06, -25.32, -27.05, -0.020, 0.950, -0.054, 16:43:57.910
80, -22.75, -36.37, -20.32, -19.07, -28.90, -15.38, -21.90, -29.59, -20.43, -30.17, -19.22, -27.22, -25.97, -21.03, -25.26, -27.29, 0.000, 0.000, 0.000, 16:43:57.911
81, -22.91, -36.21, -20.63, -19.18, -28.95, -15.38, -21.99, -29.66, -20.43, -30.17, -19.22, -27.22, -25.97, -21.03, -25.26, -27.29, 0.000, 0.000, 0.000, 16:43:57.911
82, -22.91, -36.21, -20.63, -19.18, -28.95, -15.38, -21.99, -29.66, -20.63, -30.20, -19.20, -27.43, -25.55, -21.14, -25.39, -27.27, 0.000, 0.000, 0.000, 16:43:57.911
83, -23.00, -36.21, -20.65, -19.00, -28.63, -15.51, -21.95, -29.62, -20.63, -30.20, -19.20, -27.43, -25.55, -21.14, -25.39, -27.27, 0.000, 0.000, 0.000, 16:43:57.911
84, -23.00, -36.21, -20.65, -19.00, -28.63, -15.51, -21.95, -29.62, -20.68, -30.11, -19.20, -27.45, -25.79, -21.17, -25.24, -27.07, 0.000, 0.000, 0.000, 16:43:57.911
85, -22.71, -36.34, -20.63, -19.02, -28.61, -15.45, -22.02, -29.46, -20.68, -30.11, -19.20, -27.45, -25.79, -21.17, -25.24, -27.07, 0.000, 0.000, 0.000, 16:43:57.911
86, -22.71, -36.34, -20.63, -19.02, -28.61, -15.45, -22.02, -29.46, -20.74, -30.24, -19.04, -27.45, -25.68, -21.06, -25.19, -27.22, 0.000, 0.000, 0.000, 16:43:57.912
87, -22.82, -36.50, -20.34, -18.95, -28.88, -15.49, -22.15, -29.75, -20.74, -30.24, -19.04, -27.45, -25.68, -21.06, -25.19, -27.22, 0.000, 0.000, 0.000, 16:43:57.912
88, -22.82, -36.50, -20.34, -18.95, -28.88, -15.49, -22.15, -29.75, -20.56, -30.38, -19.04, -27.25, -25.86, -20.94, -25.28, -27.40, 0.000, 0.000, 0.000, 16:43:57.912
89, -22.89, -36.08, -20.59, -19.02, -28.79, -15.42, -22.11, -29.75, -20.56, -30.38, -19.04, -27.25, -25.86, -20.94, -25.28, -27.40, -0.028, 0.950, -0.052, 16:43:57.912
90, -22.89, -36.08, -20.59, -19.02, -28.79, -15.42, -22.11, -29.75, -20.68, -30.20, -18.93, -27.25, -25.50, -21.06, -25.32, -27.27, 0.000, 0.000, 0.000, 16:43:57.913
91, -22.71, -36.32, -20.63, -18.95, -28.65, -15.58, -22.15, -29.66, -20.68, -30.20, -18.93, -27.25, -25.50, -21.06, -25.32, -27.27, 0.000, 0.000, 0.000, 16:43:57.913
92, -22.71, -36.32, -20.63, -18.95, -28.65, -15.58, -22.15, -29.66, -20.59, -30.11, -19.16, -27.38, -25.70, -21.19, -25.35, -27.27, 0.000, 0.000, 0.000, 16:43:58.369
93, -22.80, -36.30, -20.56, -18.84, -28.90, -15.42, -22.20, -29.44, -20.59, -30.11, -19.16, -27.38, -25.70, -21.19, -25.35, -27.27, 0.000, 0.000, 0.000, 16:43:58.370
94, -22.80, -36.30, -20.56, -18.84, -28.90, -15.42, -22.20, -29.44, -20.65, -30.09, -19.16, -27.38, -25.70, -20.92, -25.19, -27.11, 0.000, 0.000, 0.000, 16:43:58.370
95, -22.73, -36.25, -20.72, -19.09, -28.77, -15.38, -22.08, -29.68, -20.65, -30.09, -19.16, -27.38, -25.70, -20.92, -25.19, -27.11, 0.000, 0.000, 0.000, 16:43:58.370
96, -22.73, -36.25, -20.72, -19.09, -28.77, -15.38, -22.08, -29.68, -20.83, -30.26, -19.20, -27.49, -25.64, -21.19, -25.39, -27.38, 0.000, 0.000, 0.000, 16:43:58.370
97, -22.73, -36.21, -20.47, -18.89, -28.86, -15.49, -21.97, -29.39, -20.83, -30.26, -19.20, -27.49, -25.64, -21.19, -25.39, -27.38, 0.000, 0.000, 0.000, 16:43:58.371
98, -22.73, -36.21, -20.47, -18.89, -28.86, -15.49, -21.97, -29.39, -20.38, -30.24, -19.11, -27.58, -25.68, -21.01, -25.10, -27.14, 0.000, 0.000, 0.000, 16:43:58.371
99, -22.82, -36.12, -20.45, -19.07, -28.92, -15.62, -21.95, -29.48, -20.38, -30.24, -19.11, -27.58, -25.68, -21.01, -25.10, -27.14, -0.028, 0.944, -0.056, 16:43:58.371
100, -22.82, -36.12, -20.45, -19.07, -28.92, -15.62, -21.95, -29.48, -20.43, -30.24, -19.11, -27.45, -25.79, -21.12, -25.26, -27.11, 0.000, 0.000, 0.000, 16:43:58.371
101, -22.89, -36.10, -20.43, -18.82, -29.01, -15.36, -22.15, -29.55, -20.43, -30.24, -19.11, -27.45, -25.79, -21.12, -25.26, -27.11, 0.000, 0.000, 0.000, 16:43:58.371
102, -22.89, -36.10, -20.43, -18.82, -29.01, -15.36, -22.15, -29.55, -20.50, -30.09, -18.84, -27.29, -25.55, -21.06, -25.35, -27.27, 0.000, 0.000, 0.000, 16:43:58.372
103, -23.00, -36.25, -20.59, -18.93, -28.59, -15.38, -21.82, -29.57, -20.50, -30.09, -18.84, -27.29, -25.55, -21.06, -25.35, -27.27, 0.000, 0.000, 0.000, 16:43:58.372
104, -23.00, -36.25, -20.59, -18.93, -28.59, -15.38, -21.82, -29.57, -20.76, -30.40, -19.02, -27.20, -25.84, -21.21, -25.41, -27.18, 0.000, 0.000, 0.000, 16:43:58.372
105, -22.96, -36.32, -20.38, -19.18, -28.88, -15.49, -22.04, -29.71, -20.76, -30.40, -19.02, -27.20, -25.84, -21.21, -25.41, -27.18, 0.000, 0.000, 0.000, 16:43:58.372
106, -22.96, -36.32, -20.38, -19.18, -28.88, -15.49, -22.04, -29.71, -20.63, -30.13, -19.04, -27.14, -25.84, -21.14, -25.35, -27.27, 0.000, 0.000, 0.000, 16:43:58.372
107, -22.73, -36.61, -20.54, -19.11, -29.10, -15.27, -22.13, -29.64, -20.63, -30.13, -19.04, -27.14, -25.84, -21.14, -25.35, -27.27, 0.000, 0.000, 0.000, 16:43:58.372
108, -22.73, -36.61, -20.54, -19.11, -29.10, -15.27, -22.13, -29.64, -20.45, -30.24, -19.16, -27.25, -25.70, -21.17, -25.26, -27.31, 0.000, 0.000, 0.000, 16:43:58.373
109, -22.84, -36.12, -20.50, -19.04, -29.03, -15.42, -22.08, -29.64, -20.45, -30.24, -19.16, -27.25, -25.70, -21.17, -25.26, -27.31, -0.024, 0.942, -0.056, 16:43:58.373
110, -22.84, -36.12, -20.50, -19.04, -29.03, -15.42, -22.08, -29.64, -20.45, -30.17, -19.16, -27.36, -25.64, -20.85, -25.44, -27.38, 0.000, 0.000, 0.000, 16:43:58.373
111, -22.58, -36.19, -20.41, -18.91, -29.01, -15.53, -22.02, -29.59, -20.45, -30.17, -19.16, -27.36, -25.64, -20.85, -25.44, -27.38, 0.000, 0.000, 0.000, 16:43:58.373
112, -22.58, -36.19, -20.41, -18.91, -29.01, -15.53, -22.02, -29.59, -20.54, -30.09, -18.98, -27.40, -25.91, -21.17, -25.75, -27.14, 0.000, 0.000, 0.000, 16:43:58.373
113, -22.71, -36.28, -20.61, -19.07, -29.08, -15.40, -21.99, -29.77, -20.54, -30.09, -18.98, -27.40, -25.91, -21.17, -25.75, -27.14, 0.000, 0.000, 0.000, 16:43:58.373
114, -22.71, -36.28, -20.61, -19.07, -29.08, -15.40, -21.99, -29.77, -20.52, -30.33, -19.07, -27.47, -25.68, -21.10, -25.68, -27.11, 0.000, 0.000, 0.000, 16:43:58.374
115, -22.71, -36.17, -20.56, -18.98, -29.17, -15.36, -22.13, -29.57, -20.52, -30.33, -19.07, -27.47, -25.68, -21.10, -25.68, -27.11, 0.000, 0.000, 0.000, 16:43:58.374
116, -22.71, -36.17, -20.56, -18.98, -29.17, -15.36, -22.13, -29.57, -20.47, -30.15, -19.20, -27.45, -25.53, -21.12, -25.28, -27.27, 0.000, 0.000, 0.000, 16:43:58.374
117, -22.91, -36.28, -20.45, -19.02, -29.01, -15.22, -22.08, -29.44, -20.47, -30.15, -19.20, -27.45, -25.53, -21.12, -25.28, -27.27, 0.000, 0.000, 0.000, 16:43:58.374
118, -22.91, -36.28, -20.45, -19.02, -29.01, -15.22, -22.08, -29.44, -20.56, -30.24, -19.00, -27.47, -25.66, -21.12, -25.28, -27.14, 0.000, 0.000, 0.000, 16:43:58.374
119, -22.73, -35.99, -20.50, -18.84, -28.99, -15.40, -22.11, -29.71, -20.56, -30.24, -19.00, -27.47, -25.66, -21.12, -25.28, -27.14, -0.026, 0.942, -0.058, 16:43:58.374
120, -22.73, -35.99, -20.50, -18.84, -28.99, -15.40, -22.11, -29.71, -20.59, -30.11, -19.22, -27.47, -25.64, -21.01, -25.37, -27.20, 0.000, 0.000, 0.000, 16:43:58.375
121, -22.71, -36.12, -20.50, -18.71, -28.92, -15.49, -22.11, -29.79, -20.59, -30.11, -19.22, -27.47, -25.64, -21.01, -25.37, -27.20, 0.000, 0.000, 0.000, 16:43:58.375
122, -22.71, -36.12, -20.50, -18.71, -28.92, -15.49, -22.11, -29.79, -20.59, -30.17, -18.95, -27.47, -25.84, -20.97, -25.46, -27.16, 0.000, 0.000, 0.000, 16:43:58.375
123, -22.84, -36.08, -20.50, -18.84, -28.97, -15.56, -22.31, -29.73, -20.59, -30.17, -18.95, -27.47, -25.84, -20.97, -25.46, -27.16, 0.000, 0.000, 0.000, 16:43:58.375
124, -22.84, -36.08, -20.50, -18.84, -28.97, -15.56, -22.31, -29.73, -20.76, -30.11, -19.16, -27.31, -25.77, -21.21, -25.50, -27.05, 0.000, 0.000, 0.000, 16:43:58.375
125, -22.80, -36.19, -20.32, -19.04, -28.86, -15.62, -21.84, -29.71, -20.76, -30.11, -19.16, -27.31, -25.77, -21.21, -25.50, -27.05, 0.000, 0.000, 0.000, 16:43:58.375
126, -22.80, -36.19, -20.32, -19.04, -28.86, -15.62, -21.84, -29.71, -20.38, -30.15, -19.09, -27.45, -25.70, -21.01, -25.28, -26.98, 0.000, 0.000, 0.000, 16:43:58.376
127, -22.60, -36.21, -20.36, -19.13, -29.08, -15.36, -22.17, -29.64, -20.38, -30.15, -19.09, -27.45, -25.70, -21.01, -25.28, -26.98, 0.000, 0.000, 0.000, 16:43:58.376
128, -22.60, -36.21, -20.36, -19.13, -29.08, -15.36, -22.17, -29.64, -20.43, -30.26, -19.22, -27.36, -25.57, -20.81, -25.44, -27.29, 0.000, 0.000, 0.000, 16:43:58.376
129, -22.60, -35.99, -20.25, -18.93, -28.97, -15.53, -22.06, -29.41, -20.43, -30.26, -19.22, -27.36, -25.57, -20.81, -25.44, -27.29, -0.022, 0.942, -0.056, 16:43:58.376
130, -22.60, -35.99, -20.25, -18.93, -28.97, -15.53, -22.06, -29.41, -20.56, -30.02, -19.16, -27.31, -25.73, -21.03, -25.44, -27.07, 0.000, 0.000, 0.000, 16:43:58.376
131, -22.78, -36.30, -20.32, -19.04, -28.79, -15.53, -21.88, -29.59, -20.56, -30.02, -19.16, -27.31, -25.73, -21.03, -25.44, -27.07, 0.000, 0.000, 0.000, 16:43:58.376
132, -22.78, -36.30, -20.32, -19.04, -28.79, -15.53, -21.88, -29.59, -20.47, -30.29, -19.22, -27.27, -25.79, -20.97, -25.57, -27.07, 0.000, 0.000, 0.000, 16:43:58.377
133, -22.78, -35.99, -20.47, -19.27, -28.86, -15.53, -21.90, -29.46, -20.47, -30.29, -19.22, -27.27, -25.79, -20.97, -25.57, -27.07, 0.000, 0.000, 0.000, 16:43:58.377
134, -22.78, -35.99, -20.47, -19.27, -28.86, -15.53, -21.90, -29.46, -20.65, -30.20, -19.13, -27.29, -25.75, -20.88, -25.59, -27.43, 0.000, 0.000, 0.000, 16:43:58.377
135, -22.53, -35.87, -20.45, -18.75, -28.88, -15.38, -22.06, -29.44, -20.65, -30.20, -19.13, -27.29, -25.75, -20.88, -25.59, -27.43, 0.000, 0.000, 0.000, 16:43:58.377
136, -22.53, -35.87, -20.45, -18.75, -28.88, -15.38, -22.06, -29.44, -20.59, -30.22, -19.11, -27.36, -25.73, -20.97, -25.41, -27.18, 0.000, 0.000, 0.000, 16:43:58.377
137, -22.73, -36.17, -20.65, -19.04, -28.86, -15.47, -21.88, -29.64, -20.59, -30.22, -19.11, -27.36, -25.73, -20.97, -25.41, -27.18, 0.000, 0.000, 0.000, 16:43:58.377
138, -22.73, -36.17, -20.65, -19.04, -28.86, -15.47, -21.88, -29.64, -20.41, -30.06, -19.02, -27.36, -25.55, -20.99, -25.32, -27.00, 0.000, 0.000, 0.000, 16:43:58.378
139, -22.80, -36.03, -20.43, -19.13, -28.90, -15.53, -22.06, -29.73, -20.41, -30.06, -19.02, -27.36, -25.55, -20.99, -25.32, -27.00, -0.024, 0.950, -0.056, 16:43:58.378
140, -22.80, -36.03, -20.43, -19.13, -28.90, -15.53, -22.06, -29.73, -20.61, -30.31, -19.11, -27.22, -25.64, -21.03, -25.55, -27.11, 0.000, 0.000, 0.000, 16:43:58.378
141, -22.80, -36.01, -20.61, -18.89, -28.97, -15.47, -21.93, -29.48, -20.61, -30.31, -19.11, -27.22, -25.64, -21.03, -25.55, -27.11, 0.000, 0.000, 0.000, 16:43:58.378
142, -22.80, -36.01, -20.61, -18.89, -28.97, -15.47, -21.93, -29.48, -20.56, -30.38, -19.02, -27.27, -25.66, -21.08, -25.39, -27.11, 0.000, 0.000, 0.000, 16:43:58.378
143, -22.82, -36.03, -20.43, -19.09, -29.10, -15.45, -22.04, -29.71, -20.56, -30.38, -19.02, -27.27, -25.66, -21.08, -25.39, -27.11, 0.000, 0.000, 0.000, 16:43:58.378
144, -22.82, -36.03, -20.43, -19.09, -29.10, -15.45, -22.04, -29.71, -20.54, -30.22, -19.07, -27.18, -25.88, -21.17, -25.37, -26.98, 0.000, 0.000, 0.000, 16:43:58.379
145, -23.00, -36.12, -20.47, -18.84, -29.12, -15.36, -22.28, -29.59, -20.54, -30.22, -19.07, -27.18, -25.88, -21.17, -25.37, -26.98, 0.000, 0.000, 0.000, 16:43:58.379
146, -23.00, -36.12, -20.47, -18.84, -29.12, -15.36, -22.28, -29.59, -20.59, -30.09, -19.09, -27.25, -25.59, -21.17, -25.46, -27.36, 0.000, 0.000, 0.000, 16:43:58.379
147, -22.71, -36.25, -20.47, -18.93, -29.10, -15.40, -22.17, -29.55, -20.59, -30.09, -19.09, -27.25, -25.59, -21.17, -25.46, -27.36, 0.000, 0.000, 0.000, 16:43:58.379
148, -22.71, -36.25, -20.47, -18.93, -29.10, -15.40, -22.17, -29.55, -20.54, -30.20, -19.02, -27.47, -25.79, -21.08, -25.32, -27.40, 0.000, 0.000, 0.000, 16:43:58.379
149, -22.84, -36.25, -20.59, -18.95, -29.19, -15.38, -22.13, -29.82, -20.54, -30.20, -19.02, -27.47, -25.79, -21.08, -25.32, -27.40, -0.028, 0.946, -0.058, 16:43:58.379
150, -22.84, -36.25, -20.59, -18.95, -29.19, -15.38, -22.13, -29.82, -20.36, -30.15, -19.13, -27.09, -25.70, -20.97, -25.24, -27.31, 0.000, 0.000, 0.000, 16:43:58.380
151, -22.66, -36.28, -20.63, -18.84, -28.92, -15.58, -21.97, -29.57, -20.36, -30.15, -19.13, -27.09, -25.70, -20.97, -25.24, -27.31, 0.000, 0.000, 0.000, 16:43:58.380
152, -22.66, -36.28, -20.63, -18.84, -28.92, -15.58, -21.97, -29.57, -20.45, -30.24, -19.11, -27.31, -25.86, -21.08, -25.44, -27.45, 0.000, 0.000, 0.000, 16:43:58.380
153, -22.60, -36.30, -20.56, -18.80, -28.92, -15.33, -22.17, -29.41, -20.45, -30.24, -19.11, -27.31, -25.86, -21.08, -25.44, -27.45, 0.000, 0.000, 0.000, 16:43:58.380
154, -22.60, -36.30, -20.56, -18.80, -28.92, -15.33, -22.17, -29.41, -20.54, -30.13, -19.04, -27.43, -25.68, -21.21, -25.30, -27.05, 0.000, 0.000, 0.000, 16:43:58.380
155, -22.87, -36.32, -20.52, -18.89, -28.92, -15.38, -21.97, -29.79, -20.54, -30.13, -19.04, -27.43, -25.68, -21.21, -25.30, -27.05, 0.000, 0.000, 0.000, 16:43:58.380
156, -22.87, -36.32, -20.52, -18.89, -28.92, -15.38, -21.97, -29.79, -20.61, -30.13, -19.09, -27.16, -25.91, -21.28, -25.46, -27.27, 0.000, 0.000, 0.000, 16:43:58.381
157, -22.89, -36.19, -20.50, -18.89, -28.92, -15.36, -21.93, -29.75, -20.61, -30.13, -19.09, -27.16, -25.91, -21.28, -25.46, -27.27, 0.000, 0.000, 0.000, 16:43:58.381
158, -22.89, -36.19, -20.50, -18.89, -28.92, -15.36, -21.93, -29.75, -20.74, -30.38, -19.13, -27.11, -25.68, -21.17, -25.41, -27.07, -0.030, 0.946, -0.060, 16:43:58.381
159, -22.78, -36.05, -20.34, -19.04, -29.10, -15.47, -21.95, -29.44, -20.74, -30.38, -19.13, -27.11, -25.68, -21.17, -25.41, -27.07, 0.000, 0.000, 0.000, 16:43:58.381
160, -22.78, -36.05, -20.34, -19.04, -29.10, -15.47, -21.95, -29.44, -20.43, -30.44, -19.13, -27.43, -25.75, -21.08, -25.48, -27.05, 0.000, 0.000, 0.000, 16:43:58.381
161, -22.64, -36.17, -20.32, -18.91, -28.86, -15.33, -21.90, -29.41, -20.43, -30.44, -19.13, -27.43, -25.75, -21.08, -25.48, -27.05, 0.000, 0.000, 0.000, 16:43:58.382
162, -22.64, -36.17, -20.32, -18.91, -28.86, -15.33, -21.90, -29.41, -20.72, -30.31, -18.98, -27.25, -25.79, -21.10, -25.57, -27.18, 0.000, 0.000, 0.000, 16:43:58.382
163, -22.75, -36.12, -20.23, -19.04, -29.01, -15.58, -22.06, -29.79, -20.72, -30.31, -18.98, -27.25, -25.79, -21.10, -25.57, -27.18, 0.000, 0.000, 0.000, 16:43:58.382
164, -22.75, -36.12, -20.23, -19.04, -29.01, -15.58, -22.06, -29.79, -20.79, -30.29, -19.02, -27.14, -25.57, -20.97, -25.21, -27.18, 0.000, 0.000, 0.000, 16:43:58.382
165, -22.78, -36.21, -20.34, -18.95, -29.17, -15.47, -21.77, -29.57, -20.79, -30.29, -19.02, -27.14, -25.57, -20.97, -25.21, -27.18, 0.000, 0.000, 0.000, 16:43:58.382
166, -22.78, -36.21, -20.34, -18.95, -29.17, -15.47, -21.77, -29.57, -20.47, -30.09, -19.09, -27.29, -25.75, -21.12, -25.48, -27.02, 0.000, 0.000, 0.000, 16:43:58.382
167, -22.73, -36.21, -20.27, -19.04, -29.15, -15.69, -22.02, -29.35, -20.47, -30.09, -19.09, -27.29, -25.75, -21.12, -25.48, -27.02, 0.000, 0.000, 0.000, 16:43:58.383
168, -22.73, -36.21, -20.27, -19.04, -29.15, -15.69, -22.02, -29.35, -20.65, -30.09, -18.93, -27.34, -25.70, -21.26, -25.53, -27.11, -0.028, 0.948, -0.058, 16:43:58.383
169, -22.80, -36.28, -20.41, -19.31, -28.97, -15.65, -22.02, -29.53, -20.65, -30.09, -18.93, -27.34, -25.70, -21.26, -25.53, -27.11, 0.000, 0.000, 0.000, 16:43:58.383
170, -22.80, -36.28, -20.41, -19.31, -28.97, -15.65, -22.02, -29.53, -20.56, -29.95, -19.11, -27.29, -25.48, -21.14, -25.39, -27.14, 0.000, 0.000, 0.000, 16:43:58.383
171, -22.71, -36.14, -20.56, -19.07, -28.95, -15.62, -22.31, -29.62, -20.56, -29.95, -19.11, -27.29, -25.48, -21.14, -25.39, -27.14, 0.000, 0.000, 0.000, 16:43:58.383
172, -22.71, -36.14, -20.56, -19.07, -28.95, -15.62, -22.31, -29.62, -20.43, -30.20, -19.07, -27.09, -25.64, -21.23, -25.50, -26.91, 0.000, 0.000, 0.000, 16:43:58.383
173, -22.64, -36.12, -20.45, -18.89, -28.90, -15.36, -22.02, -29.73, -20.43, -30.20, -19.07, -27.09, -25.64, -21.23, -25.50, -26.91, 0.000, 0.000, 0.000, 16:43:58.384
174, -22.64, -36.12, -20.45, -18.89, -28.90, -15.36, -22.02, -29.73, -20.68, -30.06, -19.22, -27.31, -25.64, -21.32, -25.44, -27.29, 0.000, 0.000, 0.000, 16:43:58.384
175, -22.71, -36.08, -20.54, -18.98, -28.92, -15.56, -21.90, -29.50, -20.68, -30.06, -19.22, -27.31, -25.64, -21.32, -25.44, -27.29, 0.000, 0.000, 0.000, 16:43:58.384
176, -22.71, -36.08, -20.54, -18.98, -28.92, -15.56, -21.90, -29.50, -20.74, -30.11, -19.29, -27.34, -25.79, -20.99, -25.37, -27.29, 0.000, 0.000, 0.000, 16:43:58.384
177, -22.78, -36.28, -20.41, -19.09, -29.01, -15.53, -22.08, -29.68, -20.74, -30.11, -19.29, -27.34, -25.79, -20.99, -25.37, -27.29, 0.000, 0.000, 0.000, 16:43:58.384
178, -22.78, -36.28, -20.41, -19.09, -29.01, -15.53, -22.08, -29.68, -20.47, -30.22, -19.16, -27.22, -25.66, -20.97, -25.59, -27.22, -0.024, 0.944, -0.054, 16:43:58.385
179, -22.93, -36.25, -20.65, -19.04, -29.08, -15.47, -21.68, -29.73, -20.47, -30.22, -19.16, -27.22, -25.66, -20.97, -25.59, -27.22, 0.000, 0.000, 0.000, 16:43:58.385
180, -22.93, -36.25, -20.65, -19.04, -29.08, -15.47, -21.68, -29.73, -20.68, -30.17, -19.13, -27.36, -25.77, -20.99, -25.26, -27.14, 0.000, 0.000, 0.000, 16:43:58.385
181, -22.75, -36.28, -20.38, -18.93, -28.99, -15.56, -21.93, -29.84, -20.68, -30.17, -19.13, -27.36, -25.77, -20.99, -25.26, -27.14, 0.000, 0.000, 0.000, 16:43:58.385
182, -22.75, -36.28, -20.38, -18.93, -28.99, -15.56, -21.93, -29.84, -20.63, -30.15, -19.13, -27.29, -25.86, -21.06, -25.39, -27.31, 0.000, 0.000, 0.000, 16:43:58.386
183, -22.66, -36.37, -20.30, -19.02, -28.88, -15.51, -21.99, -29.59, -20.63, -30.15, -19.13, -27.29, -25.86, -21.06, -25.39, -27.31, 0.000, 0.000, 0.000, 16:43:58.386
184, -22.66, -36.37, -20.30, -19.02, -28.88, -15.51, -21.99, -29.59, -20.59, -30.26, -19.27, -27.16, -25.62, -21.26, -25.39, -27.29, 0.000, 0.000, 0.000, 16:43:58.386
185, -22.64, -36.23, -20.61, -19.04, -29.01, -15.51, -21.82, -29.57, -20.59, -30.26, -19.27, -27.16, -25.62, -21.26, -25.39, -27.29, 0.000, 0.000, 0.000, 16:43:58.386
186, -22.64, -36.23, -20.61, -19.04, -29.01, -15.51, -21.82, -29.57, -20.47, -30.26, -19.20, -27.43, -25.62, -20.94, -25.62, -27.31, 0.000, 0.000, 0.000, 16:43:58.386
187, -22.82, -36.19, -20.61, -19.18, -29.01, -15.56, -22.17, -29.57, -20.47, -30.26, -19.20, -27.43, -25.62, -20.94, -25.62, -27.31, 0.000, 0.000, 0.000, 16:43:58.387
188, -22.82, -36.19, -20.61, -19.18, -29.01, -15.56, -22.17, -29.57, -20.68, -29.97, -19.11, -27.43, -25.79, -21.21, -25.48, -27.09, -0.026, 0.942, -0.054, 16:43:58.387
189, -22.91, -36.03, -20.59, -18.93, -29.10, -15.47, -22.15, -29.73, -20.68, -29.97, -19.11, -27.43, -25.79, -21.21, -25.48, -27.09, 0.000, 0.000, 0.000, 16:43:58.387
190, -22.91, -36.03, -20.59, -18.93, -29.10, -15.47, -22.15, -29.73, -20.56, -30.17, -18.89, -27.38, -25.82, -21.12, -25.50, -27.09, 0.000, 0.000, 0.000, 16:43:58.387
191, -22.91, -36.05, -20.56, -18.89, -28.92, -15.53, -21.90, -29.73, -20.56, -30.17, -18.89, -27.38, -25.82, -21.12, -25.50, -27.09, 0.000, 0.000, 0.000, 16:43:58.388
192, -22.91, -36.05, -20.56, -18.89, -28.92, -15.53, -21.90, -29.73, -20.59, -30.31, -19.24, -27.29, -25.68, -21.14, -25.24, -27.29, 0.000, 0.000, 0.000, 16:43:58.388
193, -22.84, -36.23, -20.68, -19.07, -29.03, -15.38, -22.04, -29.62, -20.59, -30.31, -19.24, -27.29, -25.68, -21.14, -25.24, -27.29, 0.000, 0.000, 0.000, 16:43:58.388
194, -22.84, -36.23, -20.68, -19.07, -29.03, -15.38, -22.04, -29.62, -20.76, -30.31, -19.22, -27.40, -25.97, -21.08, -25.46, -27.11, 0.000, 0.000, 0.000, 16:43:58.389
195, -22.62, -36.10, -20.59, -19.00, -29.10, -15.29, -22.15, -29.64, -20.76, -30.31, -19.22, -27.40, -25.97, -21.08, -25.46, -27.11, 0.000, 0.000, 0.000, 16:43:58.389
196, -22.62, -36.10, -20.59, -19.00, -29.10, -15.29, -22.15, -29.64, -20.54, -30.33, -19.13, -27.22, -25.62, -21.17, -25.50, -27.20, 0.000, 0.000, 0.000, 16:43:58.389
197, -22.80, -35.99, -20.41, -19.00, -28.92, -15.45, -21.88, -29.41, -20.54, -30.33, -19.13, -27.22, -25.62, -21.17, -25.50, -27.20, 0.000, 0.000, 0.000, 16:43:58.389
198, -22.80, -35.99, -20.41, -19.00, -28.92, -15.45, -21.88, -29.41, -20.52, -30.35, -19.00, -27.25, -25.53, -21.08, -25.41, -27.07, -0.022, 0.944, -0.052, 16:43:58.389
199, -22.84, -36.14, -20.43, -19.11, -28.88, -15.53, -21.86, -29.71, -20.52, -30.35, -19.00, -27.25, -25.53, -21.08, -25.41, -27.07, 0.000, 0.000, 0.000, 16:43:58.389
200, -22.84, -36.14, -20.43, -19.11, -28.88, -15.53, -21.86, -29.71, -20.59, -30.33, -19.16, -27.34, -25.46, -21.08, -25.21, -27.05, 0.000, 0.000, 0.000, 16:43:58.390
201, -22.98, -36.23, -20.47, -18.98, -28.95, -15.36, -22.15, -29.57, -20.59, -30.33, -19.16, -27.34, -25.46, -21.08, -25.21, -27.05, 0.000, 0.000, 0.000, 16:43:58.390
202, -22.98, -36.23, -20.47, -18.98, -28.95, -15.36, -22.15, -29.57, -20.45, -30.33, -19.00, -27.29, -25.53, -21.08, -25.32, -27.43, 0.000, 0.000, 0.000, 16:43:58.390
203, -22.78, -36.52, -20.30, -18.89, -28.97, -15.51, -22.28, -29.53, -20.45, -30.33, -19.00, -27.29, -25.53, -21.08, -25.32, -27.43, 0.000, 0.000, 0.000, 16:43:58.390
204, -22.78, -36.52, -20.30, -18.89, -28.97, -15.51, -22.28, -29.53, -20.65, -30.26, -18.86, -27.38, -25.59, -21.10, -25.46, -27.20, 0.000, 0.000, 0.000, 16:43:58.390
205, -22.80, -36.28, -20.38, -18.95, -28.88, -15.33, -22.02, -29.79, -20.65, -30.26, -18.86, -27.38, -25.59, -21.10, -25.46, -27.20, 0.000, 0.000, 0.000, 16:43:58.390
206, -22.80, -36.28, -20.38, -18.95, -28.88, -15.33, -22.02, -29.79, -20.47, -30.29, -19.16, -27.22, -25.68, -21.28, -25.35, -27.05, 0.000, 0.000, 0.000, 16:43:58.391
207, -22.91, -36.03, -20.38, -19.07, -28.86, -15.60, -22.02, -29.55, -20.47, -30.29, -19.16, -27.22, -25.68, -21.28, -25.35, -27.05, 0.000, 0.000, 0.000, 16:43:58.391
