%OpenBCI Raw EEG Data
%
%Sample Rate = 250.0 Hz
%First Column = SampleIndex
%Last Column = Timestamp 
%Other Columns = EEG data in microvolts followed by Accel Data (in G) interleaved with Aux Data
0, 0.00, 0.00, 0.00, 0.00, 0.00, 0.00, 0.00, 0.00, -9749.83, -35953.81, -36866.05, 104.58, -36722.02, -42216.79, -30715.81, -35202.27, -0.134, 0.940, -0.018, 17:05:35.233
1, -14.48, -10.91, -13.52, -10.10, -9.48, -12.74, -11.89, -10.33, -9749.83, -35953.81, -36866.05, 104.58, -36722.02, -42216.79, -30715.81, -35202.27, 0.000, 0.000, 0.000, 17:05:35.547
2, -14.48, -10.91, -13.52, -10.10, -9.48, -12.74, -11.89, -10.33, -21.44, -19.62, -23.00, -23.22, -31.05, -23.49, -24.70, -20.12, 0.000, 0.000, 0.000, 17:05:35.547
3, -28.88, -21.90, -27.05, -20.00, -18.86, -25.73, -23.54, -20.38, -21.44, -19.62, -23.00, -23.22, -31.05, -23.49, -24.70, -20.12, 0.000, 0.000, 0.000, 17:05:35.547
4, -28.88, -21.90, -27.05, -20.00, -18.86, -25.73, -23.54, -20.38, -21.37, -19.51, -22.71, -23.29, -31.05, -23.74, -24.68, -19.78, 0.000, 0.000, 0.000, 17:05:35.548
5, -28.81, -21.79, -26.93, -19.85, -18.93, -25.48, -23.54, -20.23, -21.37, -19.51, -22.71, -23.29, -31.05, -23.74, -24.68, -19.78, 0.000, 0.000, 0.000, 17:05:35.548
6, -28.81, -21.79, -26.93, -19.85, -18.93, -25.48, -23.54, -20.23, -21.50, -19.56, -22.64, -23.47, -30.76, -23.72, -24.48, -19.54, 0.000, 0.000, 0.000, 17:05:35.548
7, -28.97, -21.86, -26.87, -19.98, -19.00, -25.26, -23.60, -20.38, -21.50, -19.56, -22.64, -23.47, -30.76, -23.72, -24.48, -19.54, -0.088, 0.960, -0.120, 17:05:35.548
8, -28.97, -21.86, -26.87, -19.98, -19.00, -25.26, -23.60, -20.38, -21.26, -19.51, -22.44, -23.31, -30.76, -23.65, -24.48, -19.80, 0.000, 0.000, 0.000, 17:05:35.548
9, -28.83, -21.77, -26.91, -19.83, -19.18, -25.26, -23.74, -20.34, -21.26, -19.51, -22.44, -23.31, -30.76, -23.65, -24.48, -19.80, 0.000, 0.000, 0.000, 17:05:35.549
10, -28.83, -21.77, -26.91, -19.83, -19.18, -25.26, -23.74, -20.34, -21.35, -19.85, -22.73, -23.51, -30.78, -23.58, -24.52, -19.89, 0.000, 0.000, 0.000, 17:05:35.549
11, -28.99, -21.61, -27.11, -19.94, -18.78, -25.24, -23.58, -20.25, -21.35, -19.85, -22.73, -23.51, -30.78, -23.58, -24.52, -19.89, 0.000, 0.000, 0.000, 17:05:35.549
12, -28.99, -21.61, -27.11, -19.94, -18.78, -25.24, -23.58, -20.25, -21.44, -19.71, -22.93, -23.54, -30.73, -23.56, -24.56, -19.80, 0.000, 0.000, 0.000, 17:05:35.549
13, -28.99, -21.75, -27.00, -19.87, -18.89, -25.55, -23.67, -20.54, -21.44, -19.71, -22.93, -23.54, -30.73, -23.56, -24.56, -19.80, 0.000, 0.000, 0.000, 17:05:35.549
14, -28.99, -21.75, -27.00, -19.87, -18.89, -25.55, -23.67, -20.54, -21.26, -19.67, -22.78, -23.18, -30.93, -23.72, -24.56, -19.80, 0.000, 0.000, 0.000, 17:05:35.549
15, -28.88, -21.79, -26.93, -20.07, -19.00, -25.26, -23.67, -20.59, -21.26, -19.67, -22.78, -23.18, -30.93, -23.72, -24.56, -19.80, 0.000, 0.000, 0.000, 17:05:35.550
16, -28.88, -21.79, -26.93, -20.07, -19.00, -25.26, -23.67, -20.59, -21.21, -19.69, -22.80, -23.13, -30.80, -23.51, -24.52, -20.00, 0.000, 0.000, 0.000, 17:05:35.550
17, -28.86, -21.99, -27.00, -20.05, -19.09, -25.30, -23.80, -20.61, -21.21, -19.69, -22.80, -23.13, -30.80, -23.51, -24.52, -20.00, -0.082, 0.952, -0.110, 17:05:35.550
18, -28.86, -21.99, -27.00, -20.05, -19.09, -25.30, -23.80, -20.61, -21.30, -19.74, -22.71, -23.20, -30.85, -23.72, -24.50, -19.58, 0.000, 0.000, 0.000, 17:05:35.550
19, -28.72, -21.88, -26.89, -19.83, -19.11, -25.44, -23.83, -20.54, -21.30, -19.74, -22.71, -23.20, -30.85, -23.72, -24.50, -19.58, 0.000, 0.000, 0.000, 17:05:35.550
20, -28.72, -21.88, -26.89, -19.83, -19.11, -25.44, -23.83, -20.54, -21.35, -19.80, -22.78, -23.47, -30.82, -23.67, -24.56, -19.80, 0.000, 0.000, 0.000, 17:05:35.551
21, -28.70, -21.77, -26.87, -19.74, -19.13, -25.28, -23.78, -20.41, -21.35, -19.80, -22.78, -23.47, -30.82, -23.67, -24.56, -19.80, 0.000, 0.000, 0.000, 17:05:35.551
22, -28.70, -21.77, -26.87, -19.74, -19.13, -25.28, -23.78, -20.41, -21.19, -19.47, -22.87, -23.18, -31.05, -23.56, -24.48, -19.74, 0.000, 0.000, 0.000, 17:05:35.551
23, -28.97, -21.68, -26.98, -19.89, -19.09, -25.19, -23.69, -20.41, -21.19, -19.47, -22.87, -23.18, -31.05, -23.56, -24.48, -19.74, 0.000, 0.000, 0.000, 17:05:35.551
24, -28.97, -21.68, -26.98, -19.89, -19.09, -25.19, -23.69, -20.41, -21.35, -19.56, -22.93, -23.25, -30.82, -23.72, -24.56, -19.85, 0.000, 0.000, 0.000, 17:05:35.552
25, -28.90, -21.88, -27.11, -19.85, -19.24, -25.57, -23.65, -20.56, -21.35, -19.56, -22.93, -23.25, -30.82, -23.72, -24.56, -19.85, 0.000, 0.000, 0.000, 17:05:35.552
26, -28.90, -21.88, -27.11, -19.85, -19.24, -25.57, -23.65, -20.56, -21.12, -19.71, -22.84, -23.36, -30.69, -23.72, -24.52, -19.87, 0.000, 0.000, 0.000, 17:05:35.552
27, -28.99, -21.77, -26.89, -19.89, -19.16, -25.44, -23.60, -20.47, -21.12, -19.71, -22.84, -23.36, -30.69, -23.72, -24.52, -19.87, -0.080, 0.952, -0.110, 17:05:35.552
28, -28.99, -21.77, -26.89, -19.89, -19.16, -25.44, -23.60, -20.47, -21.17, -19.74, -22.71, -23.27, -30.76, -23.65, -24.56, -19.98, 0.000, 0.000, 0.000, 17:05:35.553
29, -29.03, -21.79, -27.00, -19.87, -19.24, -25.24, -23.67, -20.36, -21.17, -19.74, -22.71, -23.27, -30.76, -23.65, -24.56, -19.98, 0.000, 0.000, 0.000, 17:05:35.553
30, -29.03, -21.79, -27.00, -19.87, -19.24, -25.24, -23.67, -20.36, -21.32, -19.71, -22.80, -23.25, -30.87, -23.45, -24.50, -19.87, 0.000, 0.000, 0.000, 17:05:35.553
31, -28.70, -21.86, -26.98, -20.05, -19.27, -25.30, -23.83, -20.70, -21.32, -19.71, -22.80, -23.25, -30.87, -23.45, -24.50, -19.87, 0.000, 0.000, 0.000, 17:05:35.553
32, -28.70, -21.86, -26.98, -20.05, -19.27, -25.30, -23.83, -20.70, -21.41, -19.67, -22.96, -23.34, -30.96, -23.58, -24.34, -19.89, 0.000, 0.000, 0.000, 17:05:35.553
33, -28.90, -21.70, -27.09, -20.05, -18.93, -25.28, -23.56, -20.61, -21.41, -19.67, -22.96, -23.34, -30.96, -23.58, -24.34, -19.89, 0.000, 0.000, 0.000, 17:05:35.553
34, -28.90, -21.70, -27.09, -20.05, -18.93, -25.28, -23.56, -20.61, -21.41, -19.51, -22.78, -23.56, -30.85, -23.58, -24.61, -19.89, 0.000, 0.000, 0.000, 17:05:35.554
35, -28.90, -21.68, -27.05, -19.85, -18.91, -25.26, -23.87, -20.65, -21.41, -19.51, -22.78, -23.56, -30.85, -23.58, -24.61, -19.89, 0.000, 0.000, 0.000, 17:05:35.554
36, -28.90, -21.68, -27.05, -19.85, -18.91, -25.26, -23.87, -20.65, -21.35, -19.78, -22.60, -23.45, -30.78, -23.65, -24.68, -19.89, 0.000, 0.000, 0.000, 17:05:35.554
37, -28.90, -21.79, -27.20, -20.03, -18.95, -25.41, -23.72, -20.54, -21.35, -19.78, -22.60, -23.45, -30.78, -23.65, -24.68, -19.89, -0.082, 0.950, -0.104, 17:05:35.554
38, -28.90, -21.79, -27.20, -20.03, -18.95, -25.41, -23.72, -20.54, -21.48, -19.69, -22.64, -23.36, -31.11, -23.76, -24.36, -19.83, 0.000, 0.000, 0.000, 17:05:35.554
39, -28.77, -21.84, -26.87, -19.98, -18.91, -25.39, -23.69, -20.59, -21.48, -19.69, -22.64, -23.36, -31.11, -23.76, -24.36, -19.83, 0.000, 0.000, 0.000, 17:05:35.555
40, -28.77, -21.84, -26.87, -19.98, -18.91, -25.39, -23.69, -20.59, -21.37, -19.69, -22.73, -23.27, -30.82, -23.31, -24.50, -19.74, 0.000, 0.000, 0.000, 17:05:35.555
41, -28.63, -21.59, -26.80, -20.00, -18.75, -25.41, -23.65, -20.65, -21.37, -19.69, -22.73, -23.27, -30.82, -23.31, -24.50, -19.74, 0.000, 0.000, 0.000, 17:05:35.555
42, -28.63, -21.59, -26.80, -20.00, -18.75, -25.41, -23.65, -20.65, -21.41, -19.62, -22.66, -23.27, -30.87, -23.56, -24.72, -19.92, 0.000, 0.000, 0.000, 17:05:35.555
43, -28.99, -21.93, -26.93, -19.96, -18.95, -25.39, -23.74, -20.27, -21.41, -19.62, -22.66, -23.27, -30.87, -23.56, -24.72, -19.92, 0.000, 0.000, 0.000, 17:05:35.555
44, -28.99, -21.93, -26.93, -19.96, -18.95, -25.39, -23.74, -20.27, -21.35, -19.78, -22.71, -23.20, -30.78, -23.51, -24.32, -19.67, 0.000, 0.000, 0.000, 17:05:35.556
45, -28.95, -21.88, -26.98, -20.00, -18.98, -25.24, -23.80, -20.52, -21.35, -19.78, -22.71, -23.20, -30.78, -23.51, -24.32, -19.67, 0.000, 0.000, 0.000, 17:05:35.556
46, -28.95, -21.88, -26.98, -20.00, -18.98, -25.24, -23.80, -20.52, -21.26, -19.74, -22.66, -23.36, -30.91, -23.76, -24.56, -19.62, 0.000, 0.000, 0.000, 17:05:35.556
47, -29.08, -21.61, -27.14, -20.14, -19.09, -25.46, -23.87, -20.47, -21.26, -19.74, -22.66, -23.36, -30.91, -23.76, -24.56, -19.62, -0.084, 0.954, -0.106, 17:05:35.556
48, -29.08, -21.61, -27.14, -20.14, -19.09, -25.46, -23.87, -20.47, -21.30, -19.65, -22.62, -23.31, -30.82, -23.58, -24.61, -19.67, 0.000, 0.000, 0.000, 17:05:35.557
49, -28.97, -21.82, -27.14, -20.09, -18.95, -25.44, -23.47, -20.61, -21.30, -19.65, -22.62, -23.31, -30.82, -23.58, -24.61, -19.67, 0.000, 0.000, 0.000, 17:05:35.557
50, -28.97, -21.82, -27.14, -20.09, -18.95, -25.44, -23.47, -20.61, -21.26, -20.03, -22.53, -23.54, -30.93, -23.72, -24.45, -19.78, 0.000, 0.000, 0.000, 17:05:35.558
51, -28.95, -21.64, -27.18, -20.14, -19.11, -25.37, -23.51, -20.47, -21.26, -20.03, -22.53, -23.54, -30.93, -23.72, -24.45, -19.78, 0.000, 0.000, 0.000, 17:05:35.558
52, -28.95, -21.64, -27.18, -20.14, -19.11, -25.37, -23.51, -20.47, -21.32, -19.89, -22.64, -23.18, -30.96, -23.85, -24.54, -19.94, 0.000, 0.000, 0.000, 17:05:35.558
53, -28.92, -21.70, -27.11, -19.96, -18.98, -25.41, -23.69, -20.59, -21.32, -19.89, -22.64, -23.18, -30.96, -23.85, -24.54, -19.94, 0.000, 0.000, 0.000, 17:05:35.558
54, -28.92, -21.70, -27.11, -19.96, -18.98, -25.41, -23.69, -20.59, -21.39, -19.85, -22.62, -23.38, -30.87, -23.83, -24.59, -19.87, 0.000, 0.000, 0.000, 17:05:35.558
55, -28.99, -21.84, -26.98, -20.07, -19.02, -25.06, -23.60, -20.59, -21.39, -19.85, -22.62, -23.38, -30.87, -23.83, -24.59, -19.87, 0.000, 0.000, 0.000, 17:05:35.559
56, -28.99, -21.84, -26.98, -20.07, -19.02, -25.06, -23.60, -20.59, -21.44, -19.65, -22.91, -23.25, -30.82, -23.78, -24.43, -20.03, -0.082, 0.952, -0.108, 17:05:35.559
57, -28.92, -21.75, -26.87, -19.83, -18.98, -25.44, -23.83, -20.52, -21.44, -19.65, -22.91, -23.25, -30.82, -23.78, -24.43, -20.03, 0.000, 0.000, 0.000, 17:05:35.559
58, -28.92, -21.75, -26.87, -19.83, -18.98, -25.44, -23.83, -20.52, -21.32, -19.62, -22.98, -23.56, -30.78, -23.58, -24.50, -19.71, 0.000, 0.000, 0.000, 17:05:35.559
59, -28.72, -21.77, -27.25, -20.14, -19.04, -25.37, -23.65, -20.59, -21.32, -19.62, -22.98, -23.56, -30.78, -23.58, -24.50, -19.71, 0.000, 0.000, 0.000, 17:05:35.559
60, -28.72, -21.77, -27.25, -20.14, -19.04, -25.37, -23.65, -20.59, -21.35, -19.80, -22.75, -23.34, -30.64, -23.54, -24.50, -19.58, 0.000, 0.000, 0.000, 17:05:35.559
61, -29.01, -21.84, -27.14, -19.98, -19.00, -25.24, -23.65, -20.38, -21.35, -19.80, -22.75, -23.34, -30.64, -23.54, -24.50, -19.58, 0.000, 0.000, 0.000, 17:05:35.560
62, -29.01, -21.84, -27.14, -19.98, -19.00, -25.24, -23.65, -20.38, -21.30, -19.65, -22.78, -23.25, -30.96, -23.63, -24.63, -19.67, 0.000, 0.000, 0.000, 17:05:35.560
63, -29.06, -21.95, -26.98, -19.98, -19.02, -25.32, -23.87, -20.38, -21.30, -19.65, -22.78, -23.25, -30.96, -23.63, -24.63, -19.67, 0.000, 0.000, 0.000, 17:05:35.560
64, -29.06, -21.95, -26.98, -19.98, -19.02, -25.32, -23.87, -20.38, -21.37, -19.80, -22.75, -23.45, -30.91, -23.72, -24.65, -20.12, 0.000, 0.000, 0.000, 17:05:35.560
65, -29.26, -21.77, -26.87, -20.07, -18.93, -25.26, -23.60, -20.56, -21.37, -19.80, -22.75, -23.45, -30.91, -23.72, -24.65, -20.12, 0.000, 0.000, 0.000, 17:05:35.560
66, -29.26, -21.77, -26.87, -20.07, -18.93, -25.26, -23.60, -20.56, -21.21, -19.58, -22.87, -23.45, -31.02, -23.51, -24.41, -19.92, -0.084, 0.954, -0.108, 17:05:35.560
67, -28.99, -21.70, -27.00, -19.89, -19.07, -25.28, -23.58, -20.56, -21.21, -19.58, -22.87, -23.45, -31.02, -23.51, -24.41, -19.92, 0.000, 0.000, 0.000, 17:05:35.560
68, -28.99, -21.70, -27.00, -19.89, -19.07, -25.28, -23.58, -20.56, -21.30, -19.78, -22.80, -23.09, -30.69, -23.60, -24.52, -19.96, 0.000, 0.000, 0.000, 17:05:35.561
69, -28.97, -21.50, -26.82, -19.85, -19.18, -25.37, -23.89, -20.25, -21.30, -19.78, -22.80, -23.09, -30.69, -23.60, -24.52, -19.96, 0.000, 0.000, 0.000, 17:05:35.561
70, -28.97, -21.50, -26.82, -19.85, -19.18, -25.37, -23.89, -20.25, -21.44, -20.00, -22.62, -23.42, -30.87, -23.34, -24.52, -19.94, 0.000, 0.000, 0.000, 17:05:35.561
71, -29.08, -21.59, -27.22, -19.67, -18.91, -25.55, -23.60, -20.41, -21.44, -20.00, -22.62, -23.42, -30.87, -23.34, -24.52, -19.94, 0.000, 0.000, 0.000, 17:05:35.561
72, -29.08, -21.59, -27.22, -19.67, -18.91, -25.55, -23.60, -20.41, -21.75, -19.80, -22.89, -23.51, -30.80, -23.54, -24.36, -19.60, 0.000, 0.000, 0.000, 17:05:35.561
73, -28.86, -21.93, -27.02, -19.87, -19.22, -25.57, -23.65, -20.54, -21.75, -19.80, -22.89, -23.51, -30.80, -23.54, -24.36, -19.60, 0.000, 0.000, 0.000, 17:05:35.561
74, -28.86, -21.93, -27.02, -19.87, -19.22, -25.57, -23.65, -20.54, -21.50, -19.85, -22.66, -23.34, -30.87, -23.72, -24.36, -19.85, 0.000, 0.000, 0.000, 17:05:35.562
75, -28.72, -21.75, -27.02, -19.94, -18.98, -25.41, -23.49, -20.52, -21.50, -19.85, -22.66, -23.34, -30.87, -23.72, -24.36, -19.85, 0.000, 0.000, 0.000, 17:05:35.562
76, -28.72, -21.75, -27.02, -19.94, -18.98, -25.41, -23.49, -20.52, -21.14, -19.76, -22.44, -23.29, -30.89, -23.49, -24.56, -19.85, -0.090, 0.958, -0.112, 17:05:35.562
77, -29.08, -21.82, -27.05, -20.05, -18.89, -25.12, -23.54, -20.54, -21.14, -19.76, -22.44, -23.29, -30.89, -23.49, -24.56, -19.85, 0.000, 0.000, 0.000, 17:05:35.562
78, -29.08, -21.82, -27.05, -20.05, -18.89, -25.12, -23.54, -20.54, -21.50, -19.65, -22.62, -23.51, -30.87, -23.76, -24.48, -19.76, 0.000, 0.000, 0.000, 17:05:35.562
79, -28.88, -21.70, -26.84, -20.07, -18.98, -25.55, -23.65, -20.54, -21.50, -19.65, -22.62, -23.51, -30.87, -23.76, -24.48, -19.76, 0.000, 0.000, 0.000, 17:05:35.563
80, -28.88, -21.70, -26.84, -20.07, -18.98, -25.55, -23.65, -20.54, -21.50, -19.87, -22.87, -23.29, -30.82, -23.74, -24.59, -19.56, 0.000, 0.000, 0.000, 17:05:35.563
81, -28.92, -21.82, -26.98, -20.00, -19.11, -25.28, -23.78, -20.56, -21.50, -19.87, -22.87, -23.29, -30.82, -23.74, -24.59, -19.56, 0.000, 0.000, 0.000, 17:05:35.563
82, -28.92, -21.82, -26.98, -20.00, -19.11, -25.28, -23.78, -20.56, -21.26, -19.74, -22.69, -23.16, -31.00, -23.63, -24.61, -19.94, 0.000, 0.000, 0.000, 17:05:35.563
83, -29.10, -21.88, -27.20, -19.94, -19.00, -25.46, -23.72, -20.56, -21.26, -19.74, -22.69, -23.16, -31.00, -23.63, -24.61, -19.94, 0.000, 0.000, 0.000, 17:05:35.564
84, -29.10, -21.88, -27.20, -19.94, -19.00, -25.46, -23.72, -20.56, -21.28, -19.74, -22.71, -23.11, -30.93, -23.51, -24.68, -20.00, 0.000, 0.000, 0.000, 17:05:35.564
85, -29.08, -21.73, -27.07, -19.98, -18.89, -25.32, -23.92, -20.38, -21.28, -19.74, -22.71, -23.11, -30.93, -23.51, -24.68, -20.00, 0.000, 0.000, 0.000, 17:05:35.564
86, -29.08, -21.73, -27.07, -19.98, -18.89, -25.32, -23.92, -20.38, -21.19, -19.60, -22.75, -23.25, -30.78, -23.51, -24.50, -19.96, -0.086, 0.954, -0.112, 17:05:35.564
87, -28.92, -21.64, -26.89, -20.07, -19.00, -25.30, -23.58, -20.61, -21.19, -19.60, -22.75, -23.25, -30.78, -23.51, -24.50, -19.96, 0.000, 0.000, 0.000, 17:05:35.564
88, -28.92, -21.64, -26.89, -20.07, -19.00, -25.30, -23.58, -20.61, -21.39, -19.87, -22.69, -23.51, -30.78, -23.36, -24.41, -19.96, 0.000, 0.000, 0.000, 17:05:35.565
89, -28.79, -21.88, -27.07, -20.21, -19.11, -25.17, -23.78, -20.45, -21.39, -19.87, -22.69, -23.51, -30.78, -23.36, -24.41, -19.96, 0.000, 0.000, 0.000, 17:05:35.565
90, -28.79, -21.88, -27.07, -20.21, -19.11, -25.17, -23.78, -20.45, -21.30, -19.80, -22.66, -23.49, -30.91, -23.65, -24.59, -19.89, 0.000, 0.000, 0.000, 17:05:35.565
91, -29.01, -21.75, -27.02, -20.03, -18.93, -25.35, -23.69, -20.47, -21.30, -19.80, -22.66, -23.49, -30.91, -23.65, -24.59, -19.89, 0.000, 0.000, 0.000, 17:05:35.565
92, -29.01, -21.75, -27.02, -20.03, -18.93, -25.35, -23.69, -20.47, -21.44, -19.98, -22.78, -23.34, -30.87, -23.60, -24.48, -19.78, 0.000, 0.000, 0.000, 17:05:35.565
93, -28.88, -21.84, -26.96, -19.94, -18.89, -25.41, -23.65, -20.38, -21.44, -19.98, -22.78, -23.34, -30.87, -23.60, -24.48, -19.78, 0.000, 0.000, 0.000, 17:05:35.565
94, -28.88, -21.84, -26.96, -19.94, -18.89, -25.41, -23.65, -20.38, -21.61, -19.85, -22.66, -23.27, -30.73, -23.80, -24.50, -19.87, 0.000, 0.000, 0.000, 17:05:35.566
95, -28.97, -21.84, -27.02, -19.78, -19.11, -25.41, -23.65, -20.30, -21.61, -19.85, -22.66, -23.27, -30.73, -23.80, -24.50, -19.87, 0.000, 0.000, 0.000, 17:05:35.566
96, -28.97, -21.84, -27.02, -19.78, -19.11, -25.41, -23.65, -20.30, -21.46, -19.76, -22.82, -23.47, -30.67, -23.51, -24.48, -19.80, -0.090, 0.954, -0.110, 17:05:35.566
97, -28.92, -21.77, -26.98, -19.78, -18.89, -25.39, -23.56, -20.41, -21.46, -19.76, -22.82, -23.47, -30.67, -23.51, -24.48, -19.80, 0.000, 0.000, 0.000, 17:05:35.566
98, -28.92, -21.77, -26.98, -19.78, -18.89, -25.39, -23.56, -20.41, -21.37, -19.71, -22.75, -23.58, -30.87, -23.51, -24.39, -19.98, 0.000, 0.000, 0.000, 17:05:35.566
99, -28.99, -21.55, -26.93, -19.80, -18.82, -25.57, -23.56, -20.43, -21.37, -19.71, -22.75, -23.58, -30.87, -23.51, -24.39, -19.98, 0.000, 0.000, 0.000, 17:05:35.566
100, -28.99, -21.55, -26.93, -19.80, -18.82, -25.57, -23.56, -20.43, -21.39, -19.92, -22.62, -23.31, -30.60, -23.63, -24.34, -19.78, 0.000, 0.000, 0.000, 17:05:35.567
101, -29.06, -21.84, -27.16, -19.92, -18.93, -25.37, -23.80, -20.54, -21.39, -19.92, -22.62, -23.31, -30.60, -23.63, -24.34, -19.78, 0.000, 0.000, 0.000, 17:05:35.567
102, -29.06, -21.84, -27.16, -19.92, -18.93, -25.37, -23.80, -20.54, -21.52, -19.71, -22.69, -23.25, -30.89, -23.56, -24.65, -19.94, 0.000, 0.000, 0.000, 17:05:35.567
103, -28.83, -21.88, -27.14, -19.89, -19.02, -25.37, -23.80, -20.41, -21.52, -19.71, -22.69, -23.25, -30.89, -23.56, -24.65, -19.94, 0.000, 0.000, 0.000, 17:05:35.567
104, -28.83, -21.88, -27.14, -19.89, -19.02, -25.37, -23.80, -20.41, -21.37, -19.80, -22.82, -23.51, -30.73, -23.60, -24.65, -19.89, 0.000, 0.000, 0.000, 17:05:35.567
105, -28.74, -21.48, -27.05, -19.80, -18.93, -25.21, -23.58, -20.45, -21.37, -19.80, -22.82, -23.51, -30.73, -23.60, -24.65, -19.89, 0.000, 0.000, 0.000, 17:05:35.567
106, -28.74, -21.48, -27.05, -19.80, -18.93, -25.21, -23.58, -20.45, -21.48, -19.98, -22.73, -23.38, -30.80, -23.72, -24.61, -19.92, -0.084, 0.950, -0.116, 17:05:35.568
107, -29.03, -21.90, -27.09, -19.83, -18.91, -25.48, -23.56, -20.61, -21.48, -19.98, -22.73, -23.38, -30.80, -23.72, -24.61, -19.92, 0.000, 0.000, 0.000, 17:05:35.568
108, -29.03, -21.90, -27.09, -19.83, -18.91, -25.48, -23.56, -20.61, -21.30, -19.92, -23.00, -23.42, -30.78, -23.51, -24.54, -19.94, 0.000, 0.000, 0.000, 17:05:35.568
109, -29.06, -21.82, -27.14, -19.96, -18.93, -25.24, -23.65, -20.34, -21.30, -19.92, -23.00, -23.42, -30.78, -23.51, -24.54, -19.94, 0.000, 0.000, 0.000, 17:05:35.568
110, -29.06, -21.82, -27.14, -19.96, -18.93, -25.24, -23.65, -20.34, -21.37, -19.94, -22.80, -23.29, -30.71, -23.40, -24.45, -20.03, 0.000, 0.000, 0.000, 17:05:35.568
111, -29.08, -22.04, -27.02, -19.89, -18.84, -25.35, -23.63, -20.50, -21.37, -19.94, -22.80, -23.29, -30.71, -23.40, -24.45, -20.03, 0.000, 0.000, 0.000, 17:05:35.569
112, -29.08, -22.04, -27.02, -19.89, -18.84, -25.35, -23.63, -20.50, -21.35, -19.74, -22.69, -23.27, -30.60, -23.63, -24.45, -19.92, 0.000, 0.000, 0.000, 17:05:35.569
113, -28.83, -21.46, -26.89, -19.89, -18.95, -25.32, -23.65, -20.34, -21.35, -19.74, -22.69, -23.27, -30.60, -23.63, -24.45, -19.92, 0.000, 0.000, 0.000, 17:05:35.569
114, -28.83, -21.46, -26.89, -19.89, -18.95, -25.32, -23.65, -20.34, -21.28, -19.92, -22.82, -23.27, -30.78, -23.54, -24.63, -19.92, 0.000, 0.000, 0.000, 17:05:35.569
115, -28.81, -21.75, -26.87, -20.03, -18.82, -25.39, -23.49, -20.30, -21.28, -19.92, -22.82, -23.27, -30.78, -23.54, -24.63, -19.92, -0.086, 0.952, -0.114, 17:05:35.570
116, -28.81, -21.75, -26.87, -20.03, -18.82, -25.39, -23.49, -20.30, -21.28, -19.62, -22.87, -23.38, -30.91, -23.67, -24.50, -19.87, 0.000, 0.000, 0.000, 17:05:35.570
117, -28.86, -21.82, -26.98, -20.05, -18.84, -25.35, -23.58, -20.43, -21.28, -19.62, -22.87, -23.38, -30.91, -23.67, -24.50, -19.87, 0.000, 0.000, 0.000, 17:05:35.570
118, -28.86, -21.82, -26.98, -20.05, -18.84, -25.35, -23.58, -20.43, -21.44, -19.78, -22.89, -23.36, -30.93, -23.69, -24.54, -19.65, 0.000, 0.000, 0.000, 17:05:35.570
119, -28.88, -21.79, -26.96, -20.14, -18.98, -25.28, -23.49, -20.52, -21.44, -19.78, -22.89, -23.36, -30.93, -23.69, -24.54, -19.65, 0.000, 0.000, 0.000, 17:05:35.570
120, -28.88, -21.79, -26.96, -20.14, -18.98, -25.28, -23.49, -20.52, -21.21, -19.76, -22.82, -23.25, -30.80, -23.74, -24.52, -20.00, 0.000, 0.000, 0.000, 17:05:35.570
121, -28.88, -21.88, -26.84, -20.23, -19.00, -25.32, -23.80, -20.56, -21.21, -19.76, -22.82, -23.25, -30.80, -23.74, -24.52, -20.00, 0.000, 0.000, 0.000, 17:05:35.932
122, -28.88, -21.88, -26.84, -20.23, -19.00, -25.32, -23.80, -20.56, -21.39, -19.83, -22.69, -23.25, -30.62, -23.45, -24.36, -19.92, 0.000, 0.000, 0.000, 17:05:35.933
123, -28.95, -21.79, -27.05, -19.92, -19.04, -25.30, -23.72, -20.43, -21.39, -19.83, -22.69, -23.25, -30.62, -23.45, -24.36, -19.92, 0.000, 0.000, 0.000, 17:05:35.933
124, -28.95, -21.79, -27.05, -19.92, -19.04, -25.30, -23.72, -20.43, -21.46, -19.94, -22.80, -23.42, -30.76, -23.47, -24.63, -19.74, 0.000, 0.000, 0.000, 17:05:35.933
125, -28.86, -21.88, -27.00, -20.09, -19.27, -25.12, -23.76, -20.52, -21.46, -19.94, -22.80, -23.42, -30.76, -23.47, -24.63, -19.74, -0.082, 0.946, -0.106, 17:05:35.933
126, -28.86, -21.88, -27.00, -20.09, -19.27, -25.12, -23.76, -20.52, -20.92, -20.05, -22.91, -23.38, -30.73, -23.78, -24.41, -19.76, 0.000, 0.000, 0.000, 17:05:35.933
127, -28.72, -21.66, -27.20, -20.09, -18.84, -25.30, -23.40, -20.36, -20.92, -20.05, -22.91, -23.38, -30.73, -23.78, -24.41, -19.76, 0.000, 0.000, 0.000, 17:05:35.934
128, -28.72, -21.66, -27.20, -20.09, -18.84, -25.30, -23.40, -20.36, -21.32, -19.76, -22.82, -23.27, -30.93, -23.63, -24.52, -20.12, 0.000, 0.000, 0.000, 17:05:35.934
129, -28.92, -21.77, -26.82, -19.94, -19.02, -25.48, -23.83, -20.43, -21.32, -19.76, -22.82, -23.27, -30.93, -23.63, -24.52, -20.12, 0.000, 0.000, 0.000, 17:05:35.934
130, -28.92, -21.77, -26.82, -19.94, -19.02, -25.48, -23.83, -20.43, -21.57, -19.65, -22.73, -23.36, -30.91, -23.80, -24.61, -19.92, 0.000, 0.000, 0.000, 17:05:35.934
131, -28.88, -21.55, -26.98, -20.12, -18.86, -25.26, -23.67, -20.38, -21.57, -19.65, -22.73, -23.36, -30.91, -23.80, -24.61, -19.92, 0.000, 0.000, 0.000, 17:05:35.934
132, -28.88, -21.55, -26.98, -20.12, -18.86, -25.26, -23.67, -20.38, -21.50, -19.58, -22.73, -23.40, -30.78, -23.47, -24.54, -19.83, 0.000, 0.000, 0.000, 17:05:35.935
133, -28.83, -22.02, -27.09, -20.14, -18.80, -25.39, -23.54, -20.45, -21.50, -19.58, -22.73, -23.40, -30.78, -23.47, -24.54, -19.83, 0.000, 0.000, 0.000, 17:05:35.935
134, -28.83, -22.02, -27.09, -20.14, -18.80, -25.39, -23.54, -20.45, -21.41, -19.78, -22.84, -23.31, -30.93, -23.63, -24.50, -19.87, 0.000, 0.000, 0.000, 17:05:35.935
135, -29.12, -21.93, -27.11, -19.98, -19.16, -25.12, -23.60, -20.38, -21.41, -19.78, -22.84, -23.31, -30.93, -23.63, -24.50, -19.87, -0.084, 0.946, -0.110, 17:05:35.936
136, -29.12, -21.93, -27.11, -19.98, -19.16, -25.12, -23.60, -20.38, -21.28, -19.71, -22.80, -23.34, -30.82, -23.69, -24.56, -19.89, 0.000, 0.000, 0.000, 17:05:35.936
137, -28.95, -21.84, -26.84, -19.85, -19.18, -25.44, -23.72, -20.50, -21.28, -19.71, -22.80, -23.34, -30.82, -23.69, -24.56, -19.89, 0.000, 0.000, 0.000, 17:05:35.936
138, -28.95, -21.84, -26.84, -19.85, -19.18, -25.44, -23.72, -20.50, -21.12, -19.71, -22.80, -23.27, -30.78, -23.67, -24.43, -19.80, 0.000, 0.000, 0.000, 17:05:35.936
139, -28.79, -21.90, -27.29, -20.21, -18.93, -25.30, -23.69, -20.41, -21.12, -19.71, -22.80, -23.27, -30.78, -23.67, -24.43, -19.80, 0.000, 0.000, 0.000, 17:05:35.937
140, -28.79, -21.90, -27.29, -20.21, -18.93, -25.30, -23.69, -20.41, -21.35, -19.83, -22.87, -23.22, -30.91, -23.58, -24.36, -19.76, 0.000, 0.000, 0.000, 17:05:35.937
141, -28.77, -21.79, -27.20, -19.94, -19.04, -25.28, -23.63, -20.14, -21.35, -19.83, -22.87, -23.22, -30.91, -23.58, -24.36, -19.76, 0.000, 0.000, 0.000, 17:05:35.937
142, -28.77, -21.79, -27.20, -19.94, -19.04, -25.28, -23.63, -20.14, -21.46, -19.62, -22.84, -23.40, -30.96, -23.80, -24.39, -19.94, 0.000, 0.000, 0.000, 17:05:35.937
143, -28.95, -21.73, -27.14, -20.16, -18.98, -25.39, -23.76, -20.59, -21.46, -19.62, -22.84, -23.40, -30.96, -23.80, -24.39, -19.94, 0.000, 0.000, 0.000, 17:05:35.937
144, -28.95, -21.73, -27.14, -20.16, -18.98, -25.39, -23.76, -20.59, -21.59, -19.71, -22.89, -23.38, -30.73, -23.76, -24.50, -19.83, 0.000, 0.000, 0.000, 17:05:35.937
145, -28.95, -21.82, -27.14, -20.21, -19.18, -25.44, -23.74, -20.43, -21.59, -19.71, -22.89, -23.38, -30.73, -23.76, -24.50, -19.83, -0.082, 0.950, -0.116, 17:05:35.938
146, -28.95, -21.82, -27.14, -20.21, -19.18, -25.44, -23.74, -20.43, -21.39, -19.85, -22.58, -23.56, -31.00, -23.58, -24.59, -19.78, 0.000, 0.000, 0.000, 17:05:35.938
147, -28.72, -21.55, -27.00, -20.00, -19.16, -25.46, -23.56, -20.32, -21.39, -19.85, -22.58, -23.56, -31.00, -23.58, -24.59, -19.78, 0.000, 0.000, 0.000, 17:05:35.938
148, -28.72, -21.55, -27.00, -20.00, -19.16, -25.46, -23.56, -20.32, -21.32, -19.80, -22.55, -23.38, -30.98, -23.47, -24.50, -19.85, 0.000, 0.000, 0.000, 17:05:35.938
149, -29.28, -21.48, -27.09, -19.96, -19.07, -25.41, -23.83, -20.43, -21.32, -19.80, -22.55, -23.38, -30.98, -23.47, -24.50, -19.85, 0.000, 0.000, 0.000, 17:05:35.938
150, -29.28, -21.48, -27.09, -19.96, -19.07, -25.41, -23.83, -20.43, -21.35, -19.67, -22.82, -23.54, -30.82, -23.56, -24.41, -19.85, 0.000, 0.000, 0.000, 17:05:35.938
151, -29.10, -21.73, -27.25, -19.85, -18.91, -25.21, -23.69, -20.34, -21.35, -19.67, -22.82, -23.54, -30.82, -23.56, -24.41, -19.85, 0.000, 0.000, 0.000, 17:05:35.939
152, -29.10, -21.73, -27.25, -19.85, -18.91, -25.21, -23.69, -20.34, -21.41, -19.87, -22.69, -23.40, -30.89, -23.76, -24.77, -19.96, 0.000, 0.000, 0.000, 17:05:35.939
153, -29.03, -21.68, -27.02, -20.00, -19.07, -25.24, -23.56, -20.47, -21.41, -19.87, -22.69, -23.40, -30.89, -23.76, -24.77, -19.96, 0.000, 0.000, 0.000, 17:05:35.939
154, -29.03, -21.68, -27.02, -20.00, -19.07, -25.24, -23.56, -20.47, -21.39, -19.85, -22.82, -23.36, -30.78, -23.65, -24.52, -19.92, 0.000, 0.000, 0.000, 17:05:35.939
155, -28.86, -21.79, -27.02, -20.05, -19.13, -25.15, -23.65, -20.63, -21.39, -19.85, -22.82, -23.36, -30.78, -23.65, -24.52, -19.92, -0.092, 0.958, -0.120, 17:05:35.939
156, -28.86, -21.79, -27.02, -20.05, -19.13, -25.15, -23.65, -20.63, -21.32, -19.83, -22.98, -23.40, -30.69, -23.60, -24.68, -19.92, 0.000, 0.000, 0.000, 17:05:35.940
157, -29.15, -21.70, -27.07, -19.89, -19.07, -25.39, -23.63, -20.54, -21.32, -19.83, -22.98, -23.40, -30.69, -23.60, -24.68, -19.92, 0.000, 0.000, 0.000, 17:05:35.940
158, -29.15, -21.70, -27.07, -19.89, -19.07, -25.39, -23.63, -20.54, -21.21, -19.74, -22.71, -23.25, -30.73, -23.74, -24.48, -19.74, 0.000, 0.000, 0.000, 17:05:35.940
159, -28.95, -21.95, -27.02, -19.71, -19.02, -25.17, -23.58, -20.50, -21.21, -19.74, -22.71, -23.25, -30.73, -23.74, -24.48, -19.74, 0.000, 0.000, 0.000, 17:05:35.941
160, -28.95, -21.95, -27.02, -19.71, -19.02, -25.17, -23.58, -20.50, -21.28, -19.76, -22.78, -23.29, -30.73, -23.49, -24.23, -19.80, 0.000, 0.000, 0.000, 17:05:35.941
161, -28.95, -21.82, -27.18, -19.89, -19.04, -25.39, -23.85, -20.56, -21.28, -19.76, -22.78, -23.29, -30.73, -23.49, -24.23, -19.80, 0.000, 0.000, 0.000, 17:05:35.941
162, -28.95, -21.82, -27.18, -19.89, -19.04, -25.39, -23.85, -20.56, -21.30, -19.83, -22.73, -23.40, -30.93, -23.63, -24.39, -19.98, 0.000, 0.000, 0.000, 17:05:35.941
163, -28.99, -21.70, -27.02, -19.89, -18.95, -25.39, -23.87, -20.59, -21.30, -19.83, -22.73, -23.40, -30.93, -23.63, -24.39, -19.98, 0.000, 0.000, 0.000, 17:05:35.942
164, -28.99, -21.70, -27.02, -19.89, -18.95, -25.39, -23.87, -20.59, -21.55, -19.60, -22.98, -23.38, -30.71, -23.69, -24.48, -19.74, -0.090, 0.946, -0.122, 17:05:35.942
165, -28.92, -21.79, -27.05, -19.96, -19.16, -25.44, -23.76, -20.52, -21.55, -19.60, -22.98, -23.38, -30.71, -23.69, -24.48, -19.74, 0.000, 0.000, 0.000, 17:05:35.942
166, -28.92, -21.79, -27.05, -19.96, -19.16, -25.44, -23.76, -20.52, -21.44, -19.65, -22.93, -23.25, -30.78, -23.94, -24.68, -19.85, 0.000, 0.000, 0.000, 17:05:35.943
167, -28.83, -21.68, -27.02, -20.03, -18.95, -25.28, -23.74, -20.50, -21.44, -19.65, -22.93, -23.25, -30.78, -23.94, -24.68, -19.85, 0.000, 0.000, 0.000, 17:05:35.943
168, -28.83, -21.68, -27.02, -20.03, -18.95, -25.28, -23.74, -20.50, -21.35, -19.67, -22.93, -23.40, -30.76, -23.89, -24.65, -19.69, 0.000, 0.000, 0.000, 17:05:35.944
169, -28.77, -21.77, -26.96, -20.07, -18.95, -25.39, -23.63, -20.43, -21.35, -19.67, -22.93, -23.40, -30.76, -23.89, -24.65, -19.69, 0.000, 0.000, 0.000, 17:05:35.944
170, -28.77, -21.77, -26.96, -20.07, -18.95, -25.39, -23.63, -20.43, -21.37, -19.62, -22.75, -23.22, -30.87, -23.58, -24.48, -19.89, 0.000, 0.000, 0.000, 17:05:35.944
171, -28.92, -21.68, -27.02, -19.94, -19.22, -25.37, -23.74, -20.61, -21.37, -19.62, -22.75, -23.22, -30.87, -23.58, -24.48, -19.89, 0.000, 0.000, 0.000, 17:05:35.944
172, -28.92, -21.68, -27.02, -19.94, -19.22, -25.37, -23.74, -20.61, -21.23, -19.60, -22.87, -23.25, -30.69, -23.54, -24.59, -19.89, 0.000, 0.000, 0.000, 17:05:35.945
173, -28.92, -21.64, -26.82, -19.96, -19.13, -25.57, -23.56, -20.59, -21.23, -19.60, -22.87, -23.25, -30.69, -23.54, -24.59, -19.89, 0.000, 0.000, 0.000, 17:05:35.945
174, -28.92, -21.64, -26.82, -19.96, -19.13, -25.57, -23.56, -20.59, -21.39, -19.74, -22.87, -23.36, -30.73, -23.67, -24.41, -19.92, -0.096, 0.956, -0.124, 17:05:35.945
175, -28.88, -21.50, -27.00, -19.85, -18.80, -25.46, -23.49, -20.27, -21.39, -19.74, -22.87, -23.36, -30.73, -23.67, -24.41, -19.92, 0.000, 0.000, 0.000, 17:05:35.945
176, -28.88, -21.50, -27.00, -19.85, -18.80, -25.46, -23.49, -20.27, -21.26, -19.89, -22.66, -23.40, -30.80, -23.69, -24.43, -19.94, 0.000, 0.000, 0.000, 17:05:35.945
177, -28.86, -21.75, -26.89, -20.18, -18.91, -25.44, -23.85, -20.45, -21.26, -19.89, -22.66, -23.40, -30.80, -23.69, -24.43, -19.94, 0.000, 0.000, 0.000, 17:05:35.945
178, -28.86, -21.75, -26.89, -20.18, -18.91, -25.44, -23.85, -20.45, -21.17, -19.89, -22.75, -23.49, -30.82, -23.67, -24.59, -19.87, 0.000, 0.000, 0.000, 17:05:35.946
179, -29.06, -21.93, -26.93, -19.74, -18.82, -25.46, -23.67, -20.38, -21.17, -19.89, -22.75, -23.49, -30.82, -23.67, -24.59, -19.87, 0.000, 0.000, 0.000, 17:05:35.946
180, -29.06, -21.93, -26.93, -19.74, -18.82, -25.46, -23.67, -20.38, -21.35, -19.74, -22.73, -23.45, -30.93, -23.87, -24.61, -19.85, 0.000, 0.000, 0.000, 17:05:35.946
181, -28.95, -21.95, -26.87, -19.92, -19.00, -25.50, -23.76, -20.59, -21.35, -19.74, -22.73, -23.45, -30.93, -23.87, -24.61, -19.85, 0.000, 0.000, 0.000, 17:05:35.946
182, -28.95, -21.95, -26.87, -19.92, -19.00, -25.50, -23.76, -20.59, -21.50, -19.58, -22.98, -23.29, -30.85, -23.65, -24.50, -19.89, 0.000, 0.000, 0.000, 17:05:35.946
183, -28.81, -21.79, -27.09, -19.89, -18.86, -25.48, -23.63, -20.36, -21.50, -19.58, -22.98, -23.29, -30.85, -23.65, -24.50, -19.89, 0.000, 0.000, 0.000, 17:05:35.947
184, -28.81, -21.79, -27.09, -19.89, -18.86, -25.48, -23.63, -20.36, -21.50, -19.65, -22.93, -23.49, -30.85, -23.87, -24.61, -19.96, -0.094, 0.958, -0.122, 17:05:35.947
185, -28.74, -21.82, -26.98, -19.80, -19.16, -25.30, -23.40, -20.59, -21.50, -19.65, -22.93, -23.49, -30.85, -23.87, -24.61, -19.96, 0.000, 0.000, 0.000, 17:05:35.947
186, -28.74, -21.82, -26.98, -19.80, -19.16, -25.30, -23.40, -20.59, -21.21, -19.89, -22.84, -23.27, -30.76, -23.54, -24.39, -19.78, 0.000, 0.000, 0.000, 17:05:35.948
187, -28.95, -21.70, -27.09, -19.76, -19.11, -25.30, -23.83, -20.41, -21.21, -19.89, -22.84, -23.27, -30.76, -23.54, -24.39, -19.78, 0.000, 0.000, 0.000, 17:05:35.948
188, -28.95, -21.70, -27.09, -19.76, -19.11, -25.30, -23.83, -20.41, -21.37, -19.54, -22.78, -23.25, -30.89, -23.51, -24.50, -19.83, 0.000, 0.000, 0.000, 17:05:35.948
189, -28.86, -22.08, -27.02, -19.98, -18.84, -25.44, -23.87, -20.59, -21.37, -19.54, -22.78, -23.25, -30.89, -23.51, -24.50, -19.83, 0.000, 0.000, 0.000, 17:05:35.948
190, -28.86, -22.08, -27.02, -19.98, -18.84, -25.44, -23.87, -20.59, -21.35, -19.76, -22.71, -23.20, -30.98, -23.54, -24.59, -19.71, 0.000, 0.000, 0.000, 17:05:35.948
191, -28.90, -21.90, -26.91, -20.09, -19.07, -25.30, -23.54, -20.41, -21.35, -19.76, -22.71, -23.20, -30.98, -23.54, -24.59, -19.71, 0.000, 0.000, 0.000, 17:05:35.948
192, -28.90, -21.90, -26.91, -20.09, -19.07, -25.30, -23.54, -20.41, -21.32, -19.78, -22.75, -23.42, -30.71, -23.49, -24.41, -19.96, 0.000, 0.000, 0.000, 17:05:35.948
193, -28.97, -22.04, -27.09, -19.92, -19.27, -25.48, -23.40, -20.23, -21.32, -19.78, -22.75, -23.42, -30.71, -23.49, -24.41, -19.96, 0.000, 0.000, 0.000, 17:05:35.949
194, -28.97, -22.04, -27.09, -19.92, -19.27, -25.48, -23.40, -20.23, -21.26, -19.74, -22.66, -23.56, -30.93, -23.58, -24.36, -19.94, -0.090, 0.950, -0.124, 17:05:35.949
195, -28.77, -21.64, -27.09, -20.07, -19.16, -25.48, -23.65, -20.54, -21.26, -19.74, -22.66, -23.56, -30.93, -23.58, -24.36, -19.94, 0.000, 0.000, 0.000, 17:05:35.949
196, -28.77, -21.64, -27.09, -20.07, -19.16, -25.48, -23.65, -20.54, -21.32, -19.78, -22.82, -23.42, -30.89, -23.56, -24.52, -19.74, 0.000, 0.000, 0.000, 17:05:35.949
197, -28.81, -21.77, -27.16, -19.94, -19.04, -25.37, -23.63, -20.36, -21.32, -19.78, -22.82, -23.42, -30.89, -23.56, -24.52, -19.74, 0.000, 0.000, 0.000, 17:05:35.949
198, -28.81, -21.77, -27.16, -19.94, -19.04, -25.37, -23.63, -20.36, -21.32, -19.78, -22.49, -23.31, -30.73, -23.67, -24.41, -19.85, 0.000, 0.000, 0.000, 17:05:35.949
199, -29.17, -21.93, -26.98, -19.98, -18.98, -25.30, -23.72, -20.52, -21.32, -19.78, -22.49, -23.31, -30.73, -23.67, -24.41, -19.85, 0.000, 0.000, 0.000, 17:05:35.950
200, -29.17, -21.93, -26.98, -19.98, -18.98, -25.30, -23.72, -20.52, -21.32, -19.83, -22.87, -23.36, -30.89, -23.67, -24.65, -19.85, 0.000, 0.000, 0.000, 17:05:35.950
201, -28.83, -21.90, -27.09, -19.94, -19.02, -25.06, -23.76, -20.72, -21.32, -19.83, -22.87, -23.36, -30.89, -23.67, -24.65, -19.85, 0.000, 0.000, 0.000, 17:05:35.950
202, -28.83, -21.90, -27.09, -19.94, -19.02, -25.06, -23.76, -20.72, -21.39, -19.83, -22.71, -23.29, -30.73, -23.74, -24.43, -19.67, 0.000, 0.000, 0.000, 17:05:35.950
203, -28.88, -21.79, -27.02, -20.14, -18.86, -25.39, -23.72, -20.30, -21.39, -19.83, -22.71, -23.29, -30.73, -23.74, -24.43, -19.67, 0.000, 0.000, 0.000, 17:05:35.950
204, -28.88, -21.79, -27.02, -20.14, -18.86, -25.39, -23.72, -20.30, -21.44, -19.92, -22.75, -23.58, -30.82, -23.65, -24.45, -19.83, -0.086, 0.952, -0.124, 17:05:35.952
205, -28.99, -21.64, -26.98, -19.94, -18.93, -25.44, -23.60, -20.43, -21.44, -19.92, -22.75, -23.58, -30.82, -23.65, -24.45, -19.83, 0.000, 0.000, 0.000, 17:05:35.952
206, -28.99, -21.64, -26.98, -19.94, -18.93, -25.44, -23.60, -20.43, -21.21, -19.98, -22.84, -23.38, -30.93, -23.58, -24.52, -19.92, 0.000, 0.000, 0.000, 17:05:35.952
207, -28.97, -21.66, -26.80, -20.09, -19.07, -25.46, -23.74, -20.43, -21.21, -19.98, -22.84, -23.38, -30.93, -23.58, -24.52, -19.92, 0.000, 0.000, 0.000, 17:05:35.953
208, -28.97, -21.66, -26.80, -20.09, -19.07, -25.46, -23.74, -20.43, -21.59, -19.71, -22.64, -23.40, -30.98, -23.56, -24.54, -20.00, 0.000, 0.000, 0.000, 17:05:35.953
209, -28.72, -21.64, -26.98, -20.07, -19.09, -25.37, -23.78, -20.61, -21.59, -19.71, -22.64, -23.40, -30.98, -23.56, -24.54, -20.00, 0.000, 0.000, 0.000, 17:05:35.953
210, -28.72, -21.64, -26.98, -20.07, -19.09, -25.37, -23.78, -20.61, -21.57, -19.85, -22.75, -23.42, -30.87, -23.60, -24.54, -19.98, 0.000, 0.000, 0.000, 17:05:35.953
211, -28.77, -21.88, -26.89, -19.98, -19.13, -25.26, -23.85, -20.45, -21.57, -19.85, -22.75, -23.42, -30.87, -23.60, -24.54, -19.98, 0.000, 0.000, 0.000, 17:05:35.954
212, -28.77, -21.88, -26.89, -19.98, -19.13, -25.26, -23.85, -20.45, -21.37, -19.67, -22.89, -23.36, -30.71, -23.60, -24.45, -19.92, 0.000, 0.000, 0.000, 17:05:35.954
213, -28.92, -21.64, -27.02, -20.21, -19.02, -25.39, -23.63, -20.65, -21.37, -19.67, -22.89, -23.36, -30.71, -23.60, -24.45, -19.92, -0.090, 0.946, -0.124, 17:05:35.954
214, -28.92, -21.64, -27.02, -20.21, -19.02, -25.39, -23.63, -20.65, -21.30, -19.76, -22.73, -23.04, -30.82, -23.60, -24.68, -19.94, 0.000, 0.000, 0.000, 17:05:35.954
215, -29.01, -21.70, -26.96, -19.94, -18.98, -25.41, -23.58, -20.56, -21.30, -19.76, -22.73, -23.04, -30.82, -23.60, -24.68, -19.94, 0.000, 0.000, 0.000, 17:05:36.406
216, -29.01, -21.70, -26.96, -19.94, -18.98, -25.41, -23.58, -20.56, -21.37, -19.83, -22.80, -23.11, -30.73, -23.60, -24.65, -19.71, 0.000, 0.000, 0.000, 17:05:36.406
217, -28.90, -21.99, -27.00, -19.80, -18.98, -25.44, -23.74, -20.68, -21.37, -19.83, -22.80, -23.11, -30.73, -23.60, -24.65, -19.71, 0.000, 0.000, 0.000, 17:05:36.406
218, -28.90, -21.99, -27.00, -19.80, -18.98, -25.44, -23.74, -20.68, -21.50, -19.92, -23.09, -23.38, -30.82, -23.78, -24.61, -19.80, 0.000, 0.000, 0.000, 17:05:36.407
220, -28.90, -21.99, -27.00, -19.80, -18.98, -25.44, -23.74, -20.68, -21.46, -20.12, -23.00, -23.29, -30.98, -23.63, -24.43, -19.83, 0.000, 0.000, 0.000, 17:05:36.407
221, -28.95, -21.77, -27.07, -20.03, -19.04, -25.41, -23.65, -20.47, -21.46, -20.12, -23.00, -23.29, -30.98, -23.63, -24.43, -19.83, 0.000, 0.000, 0.000, 17:05:36.407
222, -28.95, -21.77, -27.07, -20.03, -19.04, -25.41, -23.65, -20.47, -21.44, -19.71, -22.89, -23.40, -30.85, -23.67, -24.50, -19.87, 0.000, 0.000, 0.000, 17:05:36.407
223, -28.97, -21.66, -27.05, -19.87, -18.93, -25.19, -23.80, -20.47, -21.44, -19.71, -22.89, -23.40, -30.85, -23.67, -24.50, -19.87, -0.086, 0.948, -0.122, 17:05:36.408
224, -28.97, -21.66, -27.05, -19.87, -18.93, -25.19, -23.80, -20.47, -21.55, -19.80, -22.69, -23.42, -30.69, -23.60, -24.59, -19.74, 0.000, 0.000, 0.000, 17:05:36.408
225, -28.95, -21.86, -27.05, -19.83, -19.09, -25.28, -23.60, -20.54, -21.55, -19.80, -22.69, -23.42, -30.69, -23.60, -24.59, -19.74, 0.000, 0.000, 0.000, 17:05:36.408
226, -28.95, -21.86, -27.05, -19.83, -19.09, -25.28, -23.60, -20.54, -21.44, -19.85, -22.78, -23.29, -30.71, -23.58, -24.45, -19.92, 0.000, 0.000, 0.000, 17:05:36.408
227, -29.10, -21.77, -26.87, -19.92, -19.29, -25.46, -23.72, -20.47, -21.44, -19.85, -22.78, -23.29, -30.71, -23.58, -24.45, -19.92, 0.000, 0.000, 0.000, 17:05:36.408
228, -29.10, -21.77, -26.87, -19.92, -19.29, -25.46, -23.72, -20.47, -21.50, -19.89, -22.91, -23.27, -30.78, -23.72, -24.59, -20.14, 0.000, 0.000, 0.000, 17:05:36.409
229, -29.15, -21.82, -27.07, -19.87, -19.00, -25.28, -23.74, -20.54, -21.50, -19.89, -22.91, -23.27, -30.78, -23.72, -24.59, -20.14, 0.000, 0.000, 0.000, 17:05:36.409
230, -29.15, -21.82, -27.07, -19.87, -19.00, -25.28, -23.74, -20.54, -21.37, -19.62, -22.66, -23.45, -30.87, -23.69, -24.59, -19.92, 0.000, 0.000, 0.000, 17:05:36.409
231, -28.97, -21.70, -27.05, -19.80, -19.07, -25.37, -23.72, -20.30, -21.37, -19.62, -22.66, -23.45, -30.87, -23.69, -24.59, -19.92, 0.000, 0.000, 0.000, 17:05:36.409
232, -28.97, -21.70, -27.05, -19.80, -19.07, -25.37, -23.72, -20.30, -21.39, -20.07, -22.87, -23.11, -30.76, -23.76, -24.70, -19.85, 0.000, 0.000, 0.000, 17:05:36.409
233, -28.86, -21.75, -26.93, -19.92, -18.80, -25.35, -23.80, -20.07, -21.39, -20.07, -22.87, -23.11, -30.76, -23.76, -24.70, -19.85, -0.090, 0.952, -0.122, 17:05:36.409
234, -28.86, -21.75, -26.93, -19.92, -18.80, -25.35, -23.80, -20.07, -21.32, -19.76, -22.89, -23.38, -30.78, -23.96, -24.36, -19.98, 0.000, 0.000, 0.000, 17:05:36.410
235, -28.88, -21.93, -26.93, -20.03, -18.98, -25.24, -23.92, -20.34, -21.32, -19.76, -22.89, -23.38, -30.78, -23.96, -24.36, -19.98, 0.000, 0.000, 0.000, 17:05:36.410
236, -28.88, -21.93, -26.93, -20.03, -18.98, -25.24, -23.92, -20.34, -21.44, -19.67, -22.71, -23.09, -30.96, -23.65, -24.65, -19.83, 0.000, 0.000, 0.000, 17:05:36.410
237, -28.95, -21.68, -27.02, -20.14, -19.09, -25.37, -23.65, -20.38, -21.44, -19.67, -22.71, -23.09, -30.96, -23.65, -24.65, -19.83, 0.000, 0.000, 0.000, 17:05:36.410
238, -28.95, -21.68, -27.02, -20.14, -19.09, -25.37, -23.65, -20.38, -21.41, -19.85, -22.93, -23.16, -30.87, -23.65, -24.36, -19.62, 0.000, 0.000, 0.000, 17:05:36.410
239, -29.12, -21.93, -27.02, -20.32, -19.00, -25.41, -23.74, -20.45, -21.41, -19.85, -22.93, -23.16, -30.87, -23.65, -24.36, -19.62, 0.000, 0.000, 0.000, 17:05:36.411
240, -29.12, -21.93, -27.02, -20.32, -19.00, -25.41, -23.74, -20.45, -21.21, -19.65, -22.87, -23.27, -30.76, -23.51, -24.52, -19.85, 0.000, 0.000, 0.000, 17:05:36.411
241, -28.88, -21.77, -26.98, -19.80, -19.02, -25.28, -23.83, -20.50, -21.21, -19.65, -22.87, -23.27, -30.76, -23.51, -24.52, -19.85, 0.000, 0.000, 0.000, 17:05:36.411
242, -28.88, -21.77, -26.98, -19.80, -19.02, -25.28, -23.83, -20.50, -21.37, -19.62, -22.84, -23.11, -30.91, -23.76, -24.34, -19.80, 0.000, 0.000, 0.000, 17:05:36.411
243, -28.97, -21.77, -27.20, -19.96, -18.84, -25.28, -23.76, -20.65, -21.37, -19.62, -22.84, -23.11, -30.91, -23.76, -24.34, -19.80, -0.100, 0.958, -0.128, 17:05:36.411
244, -28.97, -21.77, -27.20, -19.96, -18.84, -25.28, -23.76, -20.65, -21.55, -19.62, -22.64, -23.25, -31.16, -23.56, -24.50, -19.56, 0.000, 0.000, 0.000, 17:05:36.412
245, -28.81, -21.70, -26.91, -20.09, -19.02, -25.28, -23.56, -20.27, -21.55, -19.62, -22.64, -23.25, -31.16, -23.56, -24.50, -19.56, 0.000, 0.000, 0.000, 17:05:36.412
246, -28.81, -21.70, -26.91, -20.09, -19.02, -25.28, -23.56, -20.27, -21.57, -19.71, -22.73, -23.40, -31.02, -23.40, -24.65, -19.87, 0.000, 0.000, 0.000, 17:05:36.412
247, -28.97, -21.82, -27.05, -19.94, -18.66, -25.55, -23.63, -20.32, -21.57, -19.71, -22.73, -23.40, -31.02, -23.40, -24.65, -19.87, 0.000, 0.000, 0.000, 17:05:36.413
248, -28.97, -21.82, -27.05, -19.94, -18.66, -25.55, -23.63, -20.32, -21.32, -19.60, -22.87, -23.49, -30.93, -23.34, -24.54, -19.87, 0.000, 0.000, 0.000, 17:05:36.413
249, -28.97, -21.61, -26.96, -19.96, -19.09, -25.44, -23.69, -20.25, -21.32, -19.60, -22.87, -23.49, -30.93, -23.34, -24.54, -19.87, 0.000, 0.000, 0.000, 17:05:36.413
250, -28.97, -21.61, -26.96, -19.96, -19.09, -25.44, -23.69, -20.25, -21.48, -19.65, -22.75, -23.38, -31.07, -23.74, -24.59, -19.92, 0.000, 0.000, 0.000, 17:05:36.413
251, -28.86, -21.86, -26.91, -19.92, -19.11, -25.50, -23.49, -20.36, -21.48, -19.65, -22.75, -23.38, -31.07, -23.74, -24.59, -19.92, 0.000, 0.000, 0.000, 17:05:36.414
252, -28.86, -21.86, -26.91, -19.92, -19.11, -25.50, -23.49, -20.36, -21.46, -19.76, -22.91, -23.20, -30.85, -23.49, -24.52, -19.89, 0.000, 0.000, 0.000, 17:05:36.414
253, -28.97, -21.68, -27.09, -20.05, -19.02, -25.28, -23.76, -20.76, -21.46, -19.76, -22.91, -23.20, -30.85, -23.49, -24.52, -19.89, -0.108, 0.954, -0.134, 17:05:36.414
254, -28.97, -21.68, -27.09, -20.05, -19.02, -25.28, -23.76, -20.76, -21.39, -19.56, -22.96, -23.29, -30.80, -23.40, -24.52, -19.92, 0.000, 0.000, 0.000, 17:05:36.414
255, -28.99, -21.52, -26.80, -20.03, -19.11, -25.10, -23.85, -20.47, -21.39, -19.56, -22.96, -23.29, -30.80, -23.40, -24.52, -19.92, 0.000, 0.000, 0.000, 17:05:36.415
0, -28.99, -21.52, -26.80, -20.03, -19.11, -25.10, -23.85, -20.47, -21.41, -19.76, -22.75, -23.36, -30.82, -23.69, -24.43, -19.85, 0.000, 0.000, 0.000, 17:05:36.415
1, -28.99, -21.82, -27.09, -19.94, -18.93, -25.19, -23.72, -20.41, -21.41, -19.76, -22.75, -23.36, -30.82, -23.69, -24.43, -19.85, 0.000, 0.000, 0.000, 17:05:36.415
2, -28.99, -21.82, -27.09, -19.94, -18.93, -25.19, -23.72, -20.41, -21.44, -19.74, -22.78, -23.38, -30.69, -23.60, -24.41, -20.00, 0.000, 0.000, 0.000, 17:05:36.416
3, -28.95, -21.79, -26.84, -19.80, -19.07, -25.46, -23.51, -20.21, -21.44, -19.74, -22.78, -23.38, -30.69, -23.60, -24.41, -20.00, 0.000, 0.000, 0.000, 17:05:36.416
4, -28.95, -21.79, -26.84, -19.80, -19.07, -25.46, -23.51, -20.21, -21.21, -19.78, -22.82, -23.36, -31.25, -23.56, -24.36, -19.62, 0.000, 0.000, 0.000, 17:05:36.416
5, -28.92, -21.73, -26.87, -20.23, -19.20, -25.28, -23.80, -20.59, -21.21, -19.78, -22.82, -23.36, -31.25, -23.56, -24.36, -19.62, 0.000, 0.000, 0.000, 17:05:36.416
6, -28.92, -21.73, -26.87, -20.23, -19.20, -25.28, -23.80, -20.59, -21.44, -19.85, -22.82, -23.31, -30.67, -23.76, -24.39, -19.98, 0.000, 0.000, 0.000, 17:05:36.417
7, -29.01, -21.86, -26.93, -20.21, -19.22, -25.24, -23.60, -20.61, -21.44, -19.85, -22.82, -23.31, -30.67, -23.76, -24.39, -19.98, -0.108, 0.946, -0.134, 17:05:36.417
8, -29.01, -21.86, -26.93, -20.21, -19.22, -25.24, -23.60, -20.61, -21.44, -19.74, -22.80, -23.27, -30.76, -23.60, -24.48, -19.65, 0.000, 0.000, 0.000, 17:05:36.417
9, -29.01, -21.50, -27.07, -20.16, -18.98, -25.37, -23.51, -20.63, -21.44, -19.74, -22.80, -23.27, -30.76, -23.60, -24.48, -19.65, 0.000, 0.000, 0.000, 17:05:36.417
10, -29.01, -21.50, -27.07, -20.16, -18.98, -25.37, -23.51, -20.63, -21.41, -19.74, -22.89, -23.34, -30.87, -23.60, -24.50, -19.94, 0.000, 0.000, 0.000, 17:05:36.418
11, -28.90, -21.52, -27.00, -20.27, -19.13, -25.39, -23.69, -20.41, -21.41, -19.74, -22.89, -23.34, -30.87, -23.60, -24.50, -19.94, 0.000, 0.000, 0.000, 17:05:36.418
12, -28.90, -21.52, -27.00, -20.27, -19.13, -25.39, -23.69, -20.41, -21.39, -19.74, -22.93, -23.63, -30.91, -23.72, -24.63, -20.03, 0.000, 0.000, 0.000, 17:05:36.418
13, -28.72, -21.84, -26.80, -20.12, -19.04, -25.32, -23.51, -20.38, -21.39, -19.74, -22.93, -23.63, -30.91, -23.72, -24.63, -20.03, 0.000, 0.000, 0.000, 17:05:36.419
14, -28.72, -21.84, -26.80, -20.12, -19.04, -25.32, -23.51, -20.38, -21.50, -19.65, -22.75, -23.45, -30.76, -23.54, -24.39, -19.65, 0.000, 0.000, 0.000, 17:05:36.419
15, -28.97, -21.77, -26.89, -20.00, -18.98, -25.46, -23.60, -20.52, -21.50, -19.65, -22.75, -23.45, -30.76, -23.54, -24.39, -19.65, 0.000, 0.000, 0.000, 17:05:36.419
16, -28.97, -21.77, -26.89, -20.00, -18.98, -25.46, -23.60, -20.52, -21.39, -19.76, -22.73, -23.16, -30.53, -23.40, -24.43, -19.80, -0.102, 0.956, -0.128, 17:05:36.419
17, -28.77, -21.75, -26.89, -19.94, -19.09, -25.48, -23.67, -20.36, -21.39, -19.76, -22.73, -23.16, -30.53, -23.40, -24.43, -19.80, 0.000, 0.000, 0.000, 17:05:36.419
18, -28.77, -21.75, -26.89, -19.94, -19.09, -25.48, -23.67, -20.36, -21.41, -19.49, -22.73, -23.34, -30.73, -23.45, -24.41, -19.71, 0.000, 0.000, 0.000, 17:05:36.420
19, -28.88, -21.64, -26.91, -19.76, -18.89, -25.39, -23.63, -20.50, -21.41, -19.49, -22.73, -23.34, -30.73, -23.45, -24.41, -19.71, 0.000, 0.000, 0.000, 17:05:36.420
20, -28.88, -21.64, -26.91, -19.76, -18.89, -25.39, -23.63, -20.50, -21.37, -19.65, -22.82, -23.34, -30.71, -23.58, -24.48, -19.80, 0.000, 0.000, 0.000, 17:05:36.420
21, -28.88, -21.77, -27.07, -20.00, -19.02, -25.62, -23.65, -20.54, -21.37, -19.65, -22.82, -23.34, -30.71, -23.58, -24.48, -19.80, 0.000, 0.000, 0.000, 17:05:36.420
22, -28.88, -21.77, -27.07, -20.00, -19.02, -25.62, -23.65, -20.54, -21.41, -19.65, -22.69, -23.36, -30.85, -23.89, -24.54, -20.03, 0.000, 0.000, 0.000, 17:05:36.420
23, -28.88, -21.77, -26.73, -20.00, -18.89, -25.24, -23.74, -20.43, -21.41, -19.65, -22.69, -23.36, -30.85, -23.89, -24.54, -20.03, 0.000, 0.000, 0.000, 17:05:36.420
24, -28.88, -21.77, -26.73, -20.00, -18.89, -25.24, -23.74, -20.43, -21.39, -19.54, -22.84, -23.40, -30.85, -23.76, -24.48, -19.65, 0.000, 0.000, 0.000, 17:05:36.421
25, -29.12, -21.84, -26.89, -20.09, -19.00, -25.44, -23.98, -20.59, -21.39, -19.54, -22.84, -23.40, -30.85, -23.76, -24.48, -19.65, 0.000, 0.000, 0.000, 17:05:36.421
26, -29.12, -21.84, -26.89, -20.09, -19.00, -25.44, -23.98, -20.59, -21.32, -19.65, -22.60, -23.51, -30.78, -23.54, -24.30, -19.94, -0.106, 0.950, -0.128, 17:05:36.421
27, -28.99, -21.79, -27.02, -19.89, -19.22, -25.39, -23.56, -20.36, -21.32, -19.65, -22.60, -23.51, -30.78, -23.54, -24.30, -19.94, 0.000, 0.000, 0.000, 17:05:36.421
28, -28.99, -21.79, -27.02, -19.89, -19.22, -25.39, -23.56, -20.36, -21.21, -19.83, -22.58, -23.36, -30.82, -23.65, -24.48, -20.00, 0.000, 0.000, 0.000, 17:05:36.421
29, -28.99, -21.77, -27.07, -20.21, -19.04, -25.26, -23.78, -20.34, -21.21, -19.83, -22.58, -23.36, -30.82, -23.65, -24.48, -20.00, 0.000, 0.000, 0.000, 17:05:36.421
30, -28.99, -21.77, -27.07, -20.21, -19.04, -25.26, -23.78, -20.34, -21.26, -20.05, -22.80, -23.18, -30.76, -23.69, -24.43, -20.05, 0.000, 0.000, 0.000, 17:05:36.421
31, -28.83, -21.88, -26.93, -19.87, -19.38, -25.19, -23.65, -20.34, -21.26, -20.05, -22.80, -23.18, -30.76, -23.69, -24.43, -20.05, 0.000, 0.000, 0.000, 17:05:36.422
32, -28.83, -21.88, -26.93, -19.87, -19.38, -25.19, -23.65, -20.34, -21.35, -19.96, -22.91, -23.11, -30.80, -23.76, -24.70, -19.92, 0.000, 0.000, 0.000, 17:05:36.422
33, -29.01, -21.79, -27.07, -19.69, -18.98, -25.26, -23.76, -20.45, -21.35, -19.96, -22.91, -23.11, -30.80, -23.76, -24.70, -19.92, 0.000, 0.000, 0.000, 17:05:36.422
34, -29.01, -21.79, -27.07, -19.69, -18.98, -25.26, -23.76, -20.45, -21.39, -19.65, -22.87, -23.34, -30.64, -23.69, -24.52, -19.87, 0.000, 0.000, 0.000, 17:05:36.422
35, -29.08, -21.82, -27.14, -19.92, -18.75, -25.24, -23.47, -20.52, -21.39, -19.65, -22.87, -23.34, -30.64, -23.69, -24.52, -19.87, 0.000, 0.000, 0.000, 17:05:36.422
36, -29.08, -21.82, -27.14, -19.92, -18.75, -25.24, -23.47, -20.52, -21.48, -19.78, -22.84, -23.56, -30.93, -23.47, -24.41, -19.89, -0.104, 0.946, -0.130, 17:05:36.423
37, -29.06, -21.88, -27.02, -19.96, -18.95, -25.30, -23.74, -20.59, -21.48, -19.78, -22.84, -23.56, -30.93, -23.47, -24.41, -19.89, 0.000, 0.000, 0.000, 17:05:36.423
38, -29.06, -21.88, -27.02, -19.96, -18.95, -25.30, -23.74, -20.59, -21.41, -19.74, -23.18, -23.36, -30.85, -23.58, -24.45, -20.12, 0.000, 0.000, 0.000, 17:05:36.423
39, -28.99, -21.73, -27.18, -19.92, -18.86, -25.12, -23.74, -20.56, -21.41, -19.74, -23.18, -23.36, -30.85, -23.58, -24.45, -20.12, 0.000, 0.000, 0.000, 17:05:36.423
40, -28.99, -21.73, -27.18, -19.92, -18.86, -25.12, -23.74, -20.56, -21.28, -19.76, -23.07, -23.42, -30.80, -23.87, -24.39, -20.03, 0.000, 0.000, 0.000, 17:05:36.423
41, -29.01, -21.66, -26.87, -19.98, -19.18, -25.15, -23.60, -20.41, -21.28, -19.76, -23.07, -23.42, -30.80, -23.87, -24.39, -20.03, 0.000, 0.000, 0.000, 17:05:36.424
42, -29.01, -21.66, -26.87, -19.98, -19.18, -25.15, -23.60, -20.41, -21.66, -19.74, -22.80, -23.29, -30.87, -23.56, -24.61, -19.92, 0.000, 0.000, 0.000, 17:05:36.424
43, -28.88, -21.95, -27.14, -20.07, -19.00, -25.44, -23.67, -20.25, -21.66, -19.74, -22.80, -23.29, -30.87, -23.56, -24.61, -19.92, 0.000, 0.000, 0.000, 17:05:36.424
44, -28.88, -21.95, -27.14, -20.07, -19.00, -25.44, -23.67, -20.25, -21.35, -19.58, -22.80, -23.34, -30.80, -23.80, -24.54, -19.94, 0.000, 0.000, 0.000, 17:05:36.425
45, -29.10, -21.82, -27.07, -20.00, -19.13, -25.39, -23.56, -20.38, -21.35, -19.58, -22.80, -23.34, -30.80, -23.80, -24.54, -19.94, 0.000, 0.000, 0.000, 17:05:36.425
46, -29.10, -21.82, -27.07, -20.00, -19.13, -25.39, -23.56, -20.38, -21.55, -19.78, -22.78, -23.54, -30.53, -23.42, -24.45, -19.80, -0.110, 0.940, -0.132, 17:05:36.425
47, -29.03, -21.84, -26.93, -19.96, -19.07, -25.37, -23.92, -20.32, -21.55, -19.78, -22.78, -23.54, -30.53, -23.42, -24.45, -19.80, 0.000, 0.000, 0.000, 17:05:36.425
48, -29.03, -21.84, -26.93, -19.96, -19.07, -25.37, -23.92, -20.32, -21.41, -19.74, -22.71, -23.49, -30.49, -23.49, -24.45, -20.03, 0.000, 0.000, 0.000, 17:05:36.425
49, -28.92, -21.88, -26.93, -19.92, -19.11, -25.37, -23.94, -20.47, -21.41, -19.74, -22.71, -23.49, -30.49, -23.49, -24.45, -20.03, 0.000, 0.000, 0.000, 17:05:36.426
50, -28.92, -21.88, -26.93, -19.92, -19.11, -25.37, -23.94, -20.47, -21.23, -19.83, -22.69, -23.40, -30.82, -23.49, -24.56, -19.74, 0.000, 0.000, 0.000, 17:05:36.426
51, -28.90, -21.77, -26.93, -19.98, -18.95, -25.26, -23.89, -20.27, -21.23, -19.83, -22.69, -23.40, -30.82, -23.49, -24.56, -19.74, 0.000, 0.000, 0.000, 17:05:36.426
52, -28.90, -21.77, -26.93, -19.98, -18.95, -25.26, -23.89, -20.27, -21.32, -19.83, -22.60, -23.29, -30.69, -23.42, -24.36, -19.58, 0.000, 0.000, 0.000, 17:05:36.426
53, -29.15, -21.75, -26.82, -19.98, -19.04, -25.24, -23.72, -20.50, -21.32, -19.83, -22.60, -23.29, -30.69, -23.42, -24.36, -19.58, 0.000, 0.000, 0.000, 17:05:36.426
54, -29.15, -21.75, -26.82, -19.98, -19.04, -25.24, -23.72, -20.50, -21.28, -19.69, -22.89, -23.34, -30.82, -23.63, -24.45, -19.71, 0.000, 0.000, 0.000, 17:05:36.427
55, -28.99, -21.70, -26.67, -19.98, -18.98, -25.35, -23.78, -20.63, -21.28, -19.69, -22.89, -23.34, -30.82, -23.63, -24.45, -19.71, 0.000, 0.000, 0.000, 17:05:36.427
56, -28.99, -21.70, -26.67, -19.98, -18.98, -25.35, -23.78, -20.63, -21.30, -19.74, -22.73, -23.34, -30.67, -23.74, -24.61, -19.76, -0.112, 0.940, -0.126, 17:05:36.427
57, -29.10, -21.90, -26.96, -19.96, -19.27, -25.53, -23.63, -20.61, -21.30, -19.74, -22.73, -23.34, -30.67, -23.74, -24.61, -19.76, 0.000, 0.000, 0.000, 17:05:36.427
58, -29.10, -21.90, -26.96, -19.96, -19.27, -25.53, -23.63, -20.61, -21.52, -19.62, -22.75, -23.47, -30.67, -23.83, -24.34, -19.76, 0.000, 0.000, 0.000, 17:05:36.427
59, -28.77, -21.86, -27.00, -19.83, -18.89, -25.15, -23.69, -20.47, -21.52, -19.62, -22.75, -23.47, -30.67, -23.83, -24.34, -19.76, 0.000, 0.000, 0.000, 17:05:36.427
60, -28.77, -21.86, -27.00, -19.83, -18.89, -25.15, -23.69, -20.47, -21.28, -19.80, -22.71, -23.45, -30.87, -23.72, -24.61, -19.58, 0.000, 0.000, 0.000, 17:05:36.428
61, -29.10, -21.73, -26.82, -20.03, -19.22, -25.39, -23.60, -20.32, -21.28, -19.80, -22.71, -23.45, -30.87, -23.72, -24.61, -19.58, 0.000, 0.000, 0.000, 17:05:36.428
62, -29.10, -21.73, -26.82, -20.03, -19.22, -25.39, -23.60, -20.32, -21.37, -19.78, -22.64, -23.31, -30.80, -23.69, -24.52, -19.58, 0.000, 0.000, 0.000, 17:05:36.428
63, -29.26, -21.84, -26.98, -19.74, -18.95, -25.21, -23.54, -20.30, -21.37, -19.78, -22.64, -23.31, -30.80, -23.69, -24.52, -19.58, 0.000, 0.000, 0.000, 17:05:36.428
64, -29.26, -21.84, -26.98, -19.74, -18.95, -25.21, -23.54, -20.30, -21.06, -19.74, -22.80, -23.36, -30.78, -23.72, -24.39, -19.74, 0.000, 0.000, 0.000, 17:05:36.428
65, -29.10, -21.82, -27.02, -19.85, -18.98, -25.26, -23.67, -20.43, -21.06, -19.74, -22.80, -23.36, -30.78, -23.72, -24.39, -19.74, -0.112, 0.942, -0.130, 17:05:36.428
66, -29.10, -21.82, -27.02, -19.85, -18.98, -25.26, -23.67, -20.43, -21.26, -19.80, -22.87, -23.34, -30.73, -23.63, -24.52, -19.89, 0.000, 0.000, 0.000, 17:05:36.429
67, -28.90, -21.88, -27.09, -19.94, -19.00, -25.28, -23.58, -20.63, -21.26, -19.80, -22.87, -23.34, -30.73, -23.63, -24.52, -19.89, 0.000, 0.000, 0.000, 17:05:36.429
68, -28.90, -21.88, -27.09, -19.94, -19.00, -25.28, -23.58, -20.63, -21.28, -19.89, -22.62, -23.27, -30.76, -23.60, -24.39, -19.96, 0.000, 0.000, 0.000, 17:05:36.429
69, -28.90, -21.77, -26.96, -20.05, -19.04, -25.30, -23.85, -20.38, -21.28, -19.89, -22.62, -23.27, -30.76, -23.60, -24.39, -19.96, 0.000, 0.000, 0.000, 17:05:36.430
70, -28.90, -21.77, -26.96, -20.05, -19.04, -25.30, -23.85, -20.38, -21.23, -19.83, -22.84, -23.29, -31.05, -23.40, -24.70, -19.83, 0.000, 0.000, 0.000, 17:05:36.430
71, -28.90, -21.70, -27.05, -19.96, -18.73, -25.30, -23.76, -20.41, -21.23, -19.83, -22.84, -23.29, -31.05, -23.40, -24.70, -19.83, 0.000, 0.000, 0.000, 17:05:36.430
72, -28.90, -21.70, -27.05, -19.96, -18.73, -25.30, -23.76, -20.41, -21.28, -19.67, -22.73, -23.34, -30.85, -23.47, -24.59, -19.65, 0.000, 0.000, 0.000, 17:05:36.430
73, -29.08, -22.04, -27.07, -19.87, -18.82, -25.32, -23.72, -20.59, -21.28, -19.67, -22.73, -23.34, -30.85, -23.47, -24.59, -19.65, 0.000, 0.000, 0.000, 17:05:36.430
74, -29.08, -22.04, -27.07, -19.87, -18.82, -25.32, -23.72, -20.59, -21.61, -19.92, -22.80, -23.34, -30.85, -23.45, -24.63, -19.89, 0.000, 0.000, 0.000, 17:05:36.431
75, -29.06, -21.86, -26.91, -20.00, -19.09, -25.30, -23.67, -20.41, -21.61, -19.92, -22.80, -23.34, -30.85, -23.45, -24.63, -19.89, -0.112, 0.952, -0.126, 17:05:36.431
76, -29.06, -21.86, -26.91, -20.00, -19.09, -25.30, -23.67, -20.41, -21.35, -19.65, -22.78, -23.34, -30.91, -23.45, -24.56, -19.80, 0.000, 0.000, 0.000, 17:05:36.431
77, -29.08, -21.64, -27.00, -19.89, -18.98, -25.35, -23.60, -20.27, -21.35, -19.65, -22.78, -23.34, -30.91, -23.45, -24.56, -19.80, 0.000, 0.000, 0.000, 17:05:36.431
78, -29.08, -21.64, -27.00, -19.89, -18.98, -25.35, -23.60, -20.27, -21.12, -19.56, -22.98, -23.29, -30.80, -23.54, -24.61, -19.98, 0.000, 0.000, 0.000, 17:05:36.431
79, -28.99, -21.79, -27.18, -20.25, -18.95, -25.24, -23.60, -20.12, -21.12, -19.56, -22.98, -23.29, -30.80, -23.54, -24.61, -19.98, 0.000, 0.000, 0.000, 17:05:36.431
80, -28.99, -21.79, -27.18, -20.25, -18.95, -25.24, -23.60, -20.12, -21.44, -19.76, -23.00, -23.36, -30.67, -23.58, -24.43, -19.74, 0.000, 0.000, 0.000, 17:05:36.583
81, -28.83, -21.77, -27.07, -20.00, -18.86, -25.30, -23.78, -20.43, -21.44, -19.76, -23.00, -23.36, -30.67, -23.58, -24.43, -19.74, 0.000, 0.000, 0.000, 17:05:36.584
82, -28.83, -21.77, -27.07, -20.00, -18.86, -25.30, -23.78, -20.43, -21.28, -19.74, -22.73, -23.16, -30.69, -23.76, -24.52, -19.80, 0.000, 0.000, 0.000, 17:05:36.584
83, -28.81, -21.59, -27.00, -19.94, -18.80, -25.30, -23.78, -20.34, -21.28, -19.74, -22.73, -23.16, -30.69, -23.76, -24.52, -19.80, 0.000, 0.000, 0.000, 17:05:36.584
84, -28.81, -21.59, -27.00, -19.94, -18.80, -25.30, -23.78, -20.34, -21.28, -19.69, -22.78, -23.45, -30.89, -23.42, -24.63, -19.87, 0.000, 0.000, 0.000, 17:05:36.584
85, -29.06, -21.79, -26.87, -20.12, -18.98, -25.41, -23.96, -20.59, -21.28, -19.69, -22.78, -23.45, -30.89, -23.42, -24.63, -19.87, -0.112, 0.948, -0.126, 17:05:36.585
86, -29.06, -21.79, -26.87, -20.12, -18.98, -25.41, -23.96, -20.59, -21.41, -19.54, -22.98, -23.36, -30.91, -23.51, -24.74, -19.96, 0.000, 0.000, 0.000, 17:05:36.585
87, -28.92, -21.68, -26.98, -20.00, -19.00, -25.30, -23.65, -20.47, -21.41, -19.54, -22.98, -23.36, -30.91, -23.51, -24.74, -19.96, 0.000, 0.000, 0.000, 17:05:36.585
88, -28.92, -21.68, -26.98, -20.00, -19.00, -25.30, -23.65, -20.47, -21.28, -19.78, -22.87, -23.18, -31.00, -23.87, -24.63, -19.85, 0.000, 0.000, 0.000, 17:05:36.586
89, -28.92, -21.64, -27.18, -19.89, -19.07, -25.30, -23.65, -20.52, -21.28, -19.78, -22.87, -23.18, -31.00, -23.87, -24.63, -19.85, 0.000, 0.000, 0.000, 17:05:36.586
90, -28.92, -21.64, -27.18, -19.89, -19.07, -25.30, -23.65, -20.52, -21.52, -19.74, -22.64, -23.38, -31.00, -23.47, -24.56, -19.92, 0.000, 0.000, 0.000, 17:05:36.586
91, -29.15, -21.66, -26.87, -19.89, -18.95, -25.12, -23.85, -20.50, -21.52, -19.74, -22.64, -23.38, -31.00, -23.47, -24.56, -19.92, 0.000, 0.000, 0.000, 17:05:36.587
92, -29.15, -21.66, -26.87, -19.89, -18.95, -25.12, -23.85, -20.50, -21.21, -19.74, -22.73, -23.54, -30.89, -23.67, -24.61, -19.89, 0.000, 0.000, 0.000, 17:05:36.587
93, -28.90, -21.75, -27.02, -20.05, -19.02, -25.30, -23.69, -20.54, -21.21, -19.74, -22.73, -23.54, -30.89, -23.67, -24.61, -19.89, 0.000, 0.000, 0.000, 17:05:36.587
94, -28.90, -21.75, -27.02, -20.05, -19.02, -25.30, -23.69, -20.54, -21.46, -19.78, -22.60, -23.25, -30.96, -23.83, -24.48, -19.80, 0.000, 0.000, 0.000, 17:05:36.588
95, -28.99, -21.75, -26.96, -19.96, -18.98, -25.26, -23.76, -20.50, -21.46, -19.78, -22.60, -23.25, -30.96, -23.83, -24.48, -19.80, -0.112, 0.950, -0.128, 17:05:36.588
96, -28.99, -21.75, -26.96, -19.96, -18.98, -25.26, -23.76, -20.50, -21.55, -19.69, -22.80, -23.27, -31.02, -23.65, -24.50, -19.71, 0.000, 0.000, 0.000, 17:05:36.588
97, -29.17, -21.59, -27.02, -19.96, -18.98, -25.46, -23.92, -20.63, -21.55, -19.69, -22.80, -23.27, -31.02, -23.65, -24.50, -19.71, 0.000, 0.000, 0.000, 17:05:36.588
98, -29.17, -21.59, -27.02, -19.96, -18.98, -25.46, -23.92, -20.63, -21.35, -19.65, -22.60, -23.22, -30.76, -23.69, -24.65, -19.74, 0.000, 0.000, 0.000, 17:05:36.589
99, -29.21, -21.70, -27.07, -20.14, -19.04, -25.44, -23.85, -20.56, -21.35, -19.65, -22.60, -23.22, -30.76, -23.69, -24.65, -19.74, 0.000, 0.000, 0.000, 17:05:36.589
100, -29.21, -21.70, -27.07, -20.14, -19.04, -25.44, -23.85, -20.56, -21.10, -19.45, -22.80, -23.27, -30.78, -23.65, -24.39, -19.89, 0.000, 0.000, 0.000, 17:05:36.589
101, -28.95, -21.64, -27.14, -19.92, -18.91, -25.28, -23.69, -20.61, -21.10, -19.45, -22.80, -23.27, -30.78, -23.65, -24.39, -19.89, 0.000, 0.000, 0.000, 17:05:36.589
102, -28.95, -21.64, -27.14, -19.92, -18.91, -25.28, -23.69, -20.61, -21.28, -19.71, -22.66, -23.54, -30.78, -23.65, -24.56, -19.89, 0.000, 0.000, 0.000, 17:05:36.589
103, -28.81, -22.02, -27.14, -19.96, -19.00, -25.30, -23.87, -20.47, -21.28, -19.71, -22.66, -23.54, -30.78, -23.65, -24.56, -19.89, 0.000, 0.000, 0.000, 17:05:36.590
104, -28.81, -22.02, -27.14, -19.96, -19.00, -25.30, -23.87, -20.47, -21.30, -19.54, -22.84, -23.38, -30.96, -23.60, -24.48, -19.94, 0.000, 0.000, 0.000, 17:05:36.590
105, -28.90, -21.70, -27.09, -19.92, -18.95, -25.30, -23.80, -20.38, -21.30, -19.54, -22.84, -23.38, -30.96, -23.60, -24.48, -19.94, -0.110, 0.942, -0.134, 17:05:36.590
106, -28.90, -21.70, -27.09, -19.92, -18.95, -25.30, -23.80, -20.38, -21.44, -19.60, -22.84, -23.63, -31.07, -23.72, -24.61, -19.87, 0.000, 0.000, 0.000, 17:05:36.590
107, -28.95, -21.88, -26.91, -20.00, -19.24, -25.26, -23.69, -20.41, -21.44, -19.60, -22.84, -23.63, -31.07, -23.72, -24.61, -19.87, 0.000, 0.000, 0.000, 17:05:36.590
108, -28.95, -21.88, -26.91, -20.00, -19.24, -25.26, -23.69, -20.41, -21.50, -19.71, -22.91, -23.31, -30.93, -23.65, -24.56, -19.89, 0.000, 0.000, 0.000, 17:05:36.590
109, -28.83, -21.88, -26.76, -20.12, -19.20, -25.37, -23.60, -20.43, -21.50, -19.71, -22.91, -23.31, -30.93, -23.65, -24.56, -19.89, 0.000, 0.000, 0.000, 17:05:36.591
110, -28.83, -21.88, -26.76, -20.12, -19.20, -25.37, -23.60, -20.43, -21.41, -19.58, -22.60, -23.38, -30.76, -23.65, -24.48, -20.03, 0.000, 0.000, 0.000, 17:05:36.591
111, -28.95, -21.82, -27.05, -20.07, -18.93, -25.17, -23.69, -20.47, -21.41, -19.58, -22.60, -23.38, -30.76, -23.65, -24.48, -20.03, 0.000, 0.000, 0.000, 17:05:36.591
112, -28.95, -21.82, -27.05, -20.07, -18.93, -25.17, -23.69, -20.47, -21.39, -19.78, -22.53, -23.36, -30.69, -23.58, -24.54, -19.78, 0.000, 0.000, 0.000, 17:05:36.592
113, -29.08, -21.77, -26.98, -19.89, -18.95, -25.24, -23.65, -20.52, -21.39, -19.78, -22.53, -23.36, -30.69, -23.58, -24.54, -19.78, 0.000, 0.000, 0.000, 17:05:36.592
114, -29.08, -21.77, -26.98, -19.89, -18.95, -25.24, -23.65, -20.52, -21.55, -19.74, -22.78, -23.49, -30.73, -23.83, -24.34, -19.76, -0.092, 0.946, -0.128, 17:05:36.592
115, -28.90, -21.73, -27.07, -20.25, -18.80, -25.37, -23.78, -20.52, -21.55, -19.74, -22.78, -23.49, -30.73, -23.83, -24.34, -19.76, 0.000, 0.000, 0.000, 17:05:36.592
116, -28.90, -21.73, -27.07, -20.25, -18.80, -25.37, -23.78, -20.52, -21.70, -19.58, -22.87, -23.40, -30.85, -23.80, -24.63, -19.80, 0.000, 0.000, 0.000, 17:05:36.593
117, -28.95, -21.64, -26.87, -19.89, -18.86, -25.41, -23.60, -20.50, -21.70, -19.58, -22.87, -23.40, -30.85, -23.80, -24.63, -19.80, 0.000, 0.000, 0.000, 17:05:36.593
118, -28.95, -21.64, -26.87, -19.89, -18.86, -25.41, -23.60, -20.50, -21.37, -19.83, -22.80, -23.34, -31.07, -23.63, -24.63, -20.00, 0.000, 0.000, 0.000, 17:05:36.593
119, -28.97, -21.50, -27.00, -20.14, -19.31, -25.26, -23.74, -20.52, -21.37, -19.83, -22.80, -23.34, -31.07, -23.63, -24.63, -20.00, 0.000, 0.000, 0.000, 17:05:36.593
120, -28.97, -21.50, -27.00, -20.14, -19.31, -25.26, -23.74, -20.52, -21.39, -19.65, -22.66, -23.47, -30.69, -23.54, -24.50, -20.00, 0.000, 0.000, 0.000, 17:05:36.718
121, -28.99, -21.75, -26.91, -20.16, -19.27, -25.08, -23.67, -20.65, -21.39, -19.65, -22.66, -23.47, -30.69, -23.54, -24.50, -20.00, 0.000, 0.000, 0.000, 17:05:36.718
122, -28.99, -21.75, -26.91, -20.16, -19.27, -25.08, -23.67, -20.65, -21.37, -19.78, -22.66, -23.29, -30.69, -23.47, -24.50, -19.89, 0.000, 0.000, 0.000, 17:05:36.718
123, -28.92, -21.75, -26.96, -19.94, -18.93, -25.35, -23.47, -20.30, -21.37, -19.78, -22.66, -23.29, -30.69, -23.47, -24.50, -19.89, 0.000, 0.000, 0.000, 17:05:36.719
124, -28.92, -21.75, -26.96, -19.94, -18.93, -25.35, -23.47, -20.30, -21.39, -19.71, -22.89, -23.29, -30.80, -23.58, -24.48, -19.62, -0.082, 0.950, -0.132, 17:05:36.719
125, -29.06, -21.70, -27.05, -19.96, -19.02, -25.66, -23.40, -20.34, -21.39, -19.71, -22.89, -23.29, -30.80, -23.58, -24.48, -19.62, 0.000, 0.000, 0.000, 17:05:36.719
126, -29.06, -21.70, -27.05, -19.96, -19.02, -25.66, -23.40, -20.34, -21.21, -20.00, -22.78, -23.42, -30.71, -23.49, -24.61, -19.83, 0.000, 0.000, 0.000, 17:05:36.719
127, -28.88, -21.70, -26.96, -19.83, -18.89, -25.37, -23.76, -20.30, -21.21, -20.00, -22.78, -23.42, -30.71, -23.49, -24.61, -19.83, 0.000, 0.000, 0.000, 17:05:36.719
128, -28.88, -21.70, -26.96, -19.83, -18.89, -25.37, -23.76, -20.30, -21.21, -19.67, -22.84, -23.22, -30.93, -23.47, -24.59, -19.74, 0.000, 0.000, 0.000, 17:05:36.719
129, -28.99, -21.82, -26.91, -20.00, -19.02, -25.35, -23.69, -20.32, -21.21, -19.67, -22.84, -23.22, -30.93, -23.47, -24.59, -19.74, 0.000, 0.000, 0.000, 17:05:36.720
130, -28.99, -21.82, -26.91, -20.00, -19.02, -25.35, -23.69, -20.32, -21.35, -19.83, -22.82, -23.22, -30.80, -23.76, -24.43, -19.92, 0.000, 0.000, 0.000, 17:05:36.720
131, -28.90, -21.82, -27.05, -20.21, -19.04, -25.28, -23.67, -20.56, -21.35, -19.83, -22.82, -23.22, -30.80, -23.76, -24.43, -19.92, 0.000, 0.000, 0.000, 17:05:36.720
132, -28.90, -21.82, -27.05, -20.21, -19.04, -25.28, -23.67, -20.56, -21.30, -19.58, -22.71, -23.16, -30.78, -23.65, -24.74, -19.94, 0.000, 0.000, 0.000, 17:05:36.720
133, -28.88, -21.61, -27.11, -20.09, -18.93, -25.50, -23.78, -20.52, -21.30, -19.58, -22.71, -23.16, -30.78, -23.65, -24.74, -19.94, 0.000, 0.000, 0.000, 17:05:36.720
134, -28.88, -21.61, -27.11, -20.09, -18.93, -25.50, -23.78, -20.52, -21.32, -19.71, -22.91, -23.20, -30.93, -23.69, -24.61, -19.85, -0.072, 0.940, -0.130, 17:05:36.721
135, -28.97, -21.77, -27.18, -19.96, -18.98, -25.41, -23.92, -20.45, -21.32, -19.71, -22.91, -23.20, -30.93, -23.69, -24.61, -19.85, 0.000, 0.000, 0.000, 17:05:36.721
136, -28.97, -21.77, -27.18, -19.96, -18.98, -25.41, -23.92, -20.45, -21.28, -19.92, -22.82, -23.34, -30.87, -23.69, -24.74, -20.21, 0.000, 0.000, 0.000, 17:05:36.721
137, -29.24, -21.88, -26.78, -20.00, -18.84, -25.21, -23.89, -20.27, -21.28, -19.92, -22.82, -23.34, -30.87, -23.69, -24.74, -20.21, 0.000, 0.000, 0.000, 17:05:36.721
138, -29.24, -21.88, -26.78, -20.00, -18.84, -25.21, -23.89, -20.27, -21.37, -19.67, -22.62, -23.25, -30.76, -23.60, -24.41, -19.80, 0.000, 0.000, 0.000, 17:05:36.721
139, -28.95, -21.73, -26.87, -19.83, -19.02, -25.17, -23.83, -20.36, -21.37, -19.67, -22.62, -23.25, -30.76, -23.60, -24.41, -19.80, 0.000, 0.000, 0.000, 17:05:36.721
140, -28.95, -21.73, -26.87, -19.83, -19.02, -25.17, -23.83, -20.36, -21.39, -19.71, -22.75, -23.36, -30.67, -23.58, -24.41, -19.74, 0.000, 0.000, 0.000, 17:05:36.722
141, -28.95, -21.79, -27.00, -20.07, -19.13, -25.37, -23.74, -20.38, -21.39, -19.71, -22.75, -23.36, -30.67, -23.58, -24.41, -19.74, 0.000, 0.000, 0.000, 17:05:36.722
142, -28.95, -21.79, -27.00, -20.07, -19.13, -25.37, -23.74, -20.38, -21.35, -19.47, -22.73, -23.31, -30.73, -23.49, -24.30, -19.89, 0.000, 0.000, 0.000, 17:05:36.722
143, -28.90, -21.79, -27.05, -19.98, -19.00, -25.26, -23.76, -20.56, -21.35, -19.47, -22.73, -23.31, -30.73, -23.49, -24.30, -19.89, 0.000, 0.000, 0.000, 17:05:36.722
144, -28.90, -21.79, -27.05, -19.98, -19.00, -25.26, -23.76, -20.56, -21.35, -19.69, -22.93, -23.54, -30.73, -23.65, -24.43, -19.67, -0.074, 0.944, -0.126, 17:05:36.722
145, -28.95, -21.82, -27.20, -20.00, -18.86, -25.19, -23.83, -20.43, -21.35, -19.69, -22.93, -23.54, -30.73, -23.65, -24.43, -19.67, 0.000, 0.000, 0.000, 17:05:36.722
146, -28.95, -21.82, -27.20, -20.00, -18.86, -25.19, -23.83, -20.43, -21.32, -19.65, -22.71, -23.25, -30.91, -23.54, -24.70, -19.89, 0.000, 0.000, 0.000, 17:05:36.798
147, -28.79, -21.77, -27.00, -19.80, -19.11, -25.32, -23.76, -20.56, -21.32, -19.65, -22.71, -23.25, -30.91, -23.54, -24.70, -19.89, 0.000, 0.000, 0.000, 17:05:36.798
148, -28.79, -21.77, -27.00, -19.80, -19.11, -25.32, -23.76, -20.56, -21.39, -19.54, -22.87, -23.42, -30.85, -23.60, -24.41, -19.89, 0.000, 0.000, 0.000, 17:05:36.799
149, -28.97, -21.86, -26.84, -19.94, -18.89, -25.39, -23.74, -20.61, -21.39, -19.54, -22.87, -23.42, -30.85, -23.60, -24.41, -19.89, 0.000, 0.000, 0.000, 17:05:36.799
150, -28.97, -21.86, -26.84, -19.94, -18.89, -25.39, -23.74, -20.61, -21.59, -19.69, -22.66, -23.36, -30.91, -23.67, -24.50, -19.92, 0.000, 0.000, 0.000, 17:05:36.799
151, -29.19, -21.75, -27.02, -19.94, -19.04, -25.32, -23.76, -20.59, -21.59, -19.69, -22.66, -23.36, -30.91, -23.67, -24.50, -19.92, 0.000, 0.000, 0.000, 17:05:36.799
152, -29.19, -21.75, -27.02, -19.94, -19.04, -25.32, -23.76, -20.59, -21.50, -19.65, -22.66, -23.34, -31.07, -23.76, -24.48, -20.07, 0.000, 0.000, 0.000, 17:05:36.799
153, -28.97, -21.93, -27.09, -20.03, -19.18, -25.28, -23.51, -20.14, -21.50, -19.65, -22.66, -23.34, -31.07, -23.76, -24.48, -20.07, 0.000, 0.000, 0.000, 17:05:36.800
154, -28.97, -21.93, -27.09, -20.03, -19.18, -25.28, -23.51, -20.14, -21.39, -19.89, -23.00, -23.40, -31.02, -23.74, -24.32, -19.92, -0.074, 0.948, -0.120, 17:05:36.800
155, -29.06, -21.73, -27.02, -20.23, -19.16, -25.32, -23.76, -20.41, -21.39, -19.89, -23.00, -23.40, -31.02, -23.74, -24.32, -19.92, 0.000, 0.000, 0.000, 17:05:36.800
156, -29.06, -21.73, -27.02, -20.23, -19.16, -25.32, -23.76, -20.41, -21.03, -19.83, -22.82, -23.45, -30.98, -23.67, -24.72, -20.05, 0.000, 0.000, 0.000, 17:05:36.800
157, -29.01, -21.61, -27.00, -20.05, -19.04, -25.32, -23.67, -20.45, -21.03, -19.83, -22.82, -23.45, -30.98, -23.67, -24.72, -20.05, 0.000, 0.000, 0.000, 17:05:36.800
158, -29.01, -21.61, -27.00, -20.05, -19.04, -25.32, -23.67, -20.45, -21.35, -19.85, -22.62, -23.38, -30.91, -23.49, -24.72, -19.94, 0.000, 0.000, 0.000, 17:05:36.800
159, -28.92, -21.61, -27.00, -20.09, -19.13, -25.39, -23.65, -20.45, -21.35, -19.85, -22.62, -23.38, -30.91, -23.49, -24.72, -19.94, 0.000, 0.000, 0.000, 17:05:36.814
160, -28.92, -21.61, -27.00, -20.09, -19.13, -25.39, -23.65, -20.45, -21.50, -19.94, -22.69, -23.36, -30.82, -23.60, -24.77, -19.87, 0.000, 0.000, 0.000, 17:05:36.851
161, -28.95, -21.93, -26.91, -19.96, -18.91, -25.15, -23.87, -20.47, -21.50, -19.94, -22.69, -23.36, -30.82, -23.60, -24.77, -19.87, 0.000, 0.000, 0.000, 17:05:36.852
162, -28.95, -21.93, -26.91, -19.96, -18.91, -25.15, -23.87, -20.47, -21.39, -19.78, -22.84, -23.29, -30.91, -23.85, -24.27, -19.94, 0.000, 0.000, 0.000, 17:05:36.852
163, -28.74, -21.75, -26.96, -20.09, -19.11, -25.28, -23.49, -20.36, -21.39, -19.78, -22.84, -23.29, -30.91, -23.85, -24.27, -19.94, 0.000, 0.000, 0.000, 17:05:36.852
164, -28.74, -21.75, -26.96, -20.09, -19.11, -25.28, -23.49, -20.36, -21.37, -19.83, -22.89, -23.13, -31.05, -23.58, -24.48, -19.94, -0.078, 0.948, -0.116, 17:05:36.852
165, -28.79, -21.66, -27.02, -19.89, -19.09, -25.24, -23.69, -20.50, -21.37, -19.83, -22.89, -23.13, -31.05, -23.58, -24.48, -19.94, 0.000, 0.000, 0.000, 17:05:36.852
166, -28.79, -21.66, -27.02, -19.89, -19.09, -25.24, -23.69, -20.50, -21.73, -19.83, -22.96, -23.25, -30.85, -23.67, -24.59, -19.87, 0.000, 0.000, 0.000, 17:05:36.853
167, -28.99, -21.73, -27.00, -19.85, -18.82, -25.41, -23.69, -20.54, -21.73, -19.83, -22.96, -23.25, -30.85, -23.67, -24.59, -19.87, 0.000, 0.000, 0.000, 17:05:36.868
168, -28.99, -21.73, -27.00, -19.85, -18.82, -25.41, -23.69, -20.54, -21.37, -19.89, -22.78, -23.31, -30.82, -23.63, -24.61, -19.83, 0.000, 0.000, 0.000, 17:05:36.905
169, -29.03, -21.73, -26.98, -19.89, -18.80, -25.30, -23.72, -20.45, -21.37, -19.89, -22.78, -23.31, -30.82, -23.63, -24.61, -19.83, 0.000, 0.000, 0.000, 17:05:36.906
170, -29.03, -21.73, -26.98, -19.89, -18.80, -25.30, -23.72, -20.45, -21.32, -19.62, -22.80, -23.34, -30.73, -23.58, -24.36, -19.78, 0.000, 0.000, 0.000, 17:05:36.906
171, -28.81, -21.55, -27.02, -20.14, -19.07, -25.48, -23.94, -20.36, -21.32, -19.62, -22.80, -23.34, -30.73, -23.58, -24.36, -19.78, 0.000, 0.000, 0.000, 17:05:36.906
172, -28.81, -21.55, -27.02, -20.14, -19.07, -25.48, -23.94, -20.36, -21.41, -19.78, -22.75, -23.22, -30.85, -23.49, -24.39, -19.89, 0.000, 0.000, 0.000, 17:05:36.906
174, -28.81, -21.55, -27.02, -20.14, -19.07, -25.48, -23.94, -20.36, -21.32, -19.89, -22.75, -23.11, -31.09, -23.65, -24.56, -19.67, 0.000, 0.000, 0.000, 17:05:36.906
175, -28.97, -21.84, -26.82, -20.00, -18.98, -25.50, -23.83, -20.43, -21.32, -19.89, -22.75, -23.11, -31.09, -23.65, -24.56, -19.67, 0.000, 0.000, 0.000, 17:05:36.906
176, -28.97, -21.84, -26.82, -20.00, -18.98, -25.50, -23.83, -20.43, -21.26, -19.74, -22.87, -23.25, -30.67, -23.60, -24.41, -19.83, 0.000, 0.000, 0.000, 17:05:36.930
177, -29.03, -21.86, -26.96, -20.03, -18.91, -25.32, -24.01, -20.59, -21.26, -19.74, -22.87, -23.25, -30.67, -23.60, -24.41, -19.83, 0.000, 0.000, 0.000, 17:05:36.930
178, -29.03, -21.86, -26.96, -20.03, -18.91, -25.32, -24.01, -20.59, -21.35, -19.80, -22.93, -23.51, -30.55, -23.63, -24.52, -19.76, 0.000, 0.000, 0.000, 17:05:36.930
179, -29.08, -21.79, -26.93, -20.09, -18.98, -25.08, -23.67, -20.52, -21.35, -19.80, -22.93, -23.51, -30.55, -23.63, -24.52, -19.76, 0.000, 0.000, 0.000, 17:05:37.009
180, -29.08, -21.79, -26.93, -20.09, -18.98, -25.08, -23.67, -20.52, -21.50, -19.92, -22.82, -23.40, -31.09, -23.51, -24.61, -19.87, 0.000, 0.000, 0.000, 17:05:37.009
181, -28.86, -21.77, -27.07, -20.00, -19.07, -25.17, -23.72, -20.65, -21.50, -19.92, -22.82, -23.40, -31.09, -23.51, -24.61, -19.87, 0.000, 0.000, 0.000, 17:05:37.009
182, -28.86, -21.77, -27.07, -20.00, -19.07, -25.17, -23.72, -20.65, -21.48, -19.85, -22.73, -23.29, -30.87, -23.74, -24.48, -19.87, 0.000, 0.000, 0.000, 17:05:37.010
183, -29.08, -21.90, -26.87, -19.94, -19.04, -25.19, -23.60, -20.56, -21.48, -19.85, -22.73, -23.29, -30.87, -23.74, -24.48, -19.87, -0.082, 0.958, -0.124, 17:05:37.010
184, -29.08, -21.90, -26.87, -19.94, -19.04, -25.19, -23.60, -20.56, -21.35, -19.96, -22.53, -23.49, -31.07, -23.76, -24.39, -19.76, 0.000, 0.000, 0.000, 17:05:37.010
185, -28.90, -21.52, -27.05, -19.94, -18.86, -25.39, -23.80, -20.56, -21.35, -19.96, -22.53, -23.49, -31.07, -23.76, -24.39, -19.76, 0.000, 0.000, 0.000, 17:05:37.010
186, -28.90, -21.52, -27.05, -19.94, -18.86, -25.39, -23.80, -20.56, -21.44, -19.71, -22.71, -23.27, -30.78, -23.60, -24.52, -19.74, 0.000, 0.000, 0.000, 17:05:37.010
187, -28.86, -21.68, -27.02, -20.14, -18.95, -25.35, -23.74, -20.41, -21.44, -19.71, -22.71, -23.27, -30.78, -23.60, -24.52, -19.74, 0.000, 0.000, 0.000, 17:05:37.010
188, -28.86, -21.68, -27.02, -20.14, -18.95, -25.35, -23.74, -20.41, -21.39, -19.78, -22.91, -23.40, -30.73, -23.51, -24.34, -19.62, 0.000, 0.000, 0.000, 17:05:37.011
189, -28.86, -21.61, -27.07, -20.16, -18.95, -25.32, -23.58, -20.36, -21.39, -19.78, -22.91, -23.40, -30.73, -23.51, -24.34, -19.62, 0.000, 0.000, 0.000, 17:05:37.011
190, -28.86, -21.61, -27.07, -20.16, -18.95, -25.32, -23.58, -20.36, -21.41, -19.74, -22.78, -23.34, -30.73, -23.63, -24.52, -19.78, 0.000, 0.000, 0.000, 17:05:37.011
191, -28.86, -21.79, -26.87, -19.96, -18.80, -25.30, -23.85, -20.47, -21.41, -19.74, -22.78, -23.34, -30.73, -23.63, -24.52, -19.78, 0.000, 0.000, 0.000, 17:05:37.011
192, -28.86, -21.79, -26.87, -19.96, -18.80, -25.30, -23.85, -20.47, -21.19, -19.92, -22.93, -23.45, -30.71, -23.67, -24.52, -19.71, 0.000, 0.000, 0.000, 17:05:37.011
193, -28.88, -21.97, -27.18, -19.80, -19.00, -25.50, -23.80, -20.45, -21.19, -19.92, -22.93, -23.45, -30.71, -23.67, -24.52, -19.71, -0.076, 0.952, -0.126, 17:05:37.012
194, -28.88, -21.97, -27.18, -19.80, -19.00, -25.50, -23.80, -20.45, -21.55, -19.83, -22.84, -23.25, -30.85, -23.49, -24.52, -19.80, 0.000, 0.000, 0.000, 17:05:37.012
195, -28.99, -21.73, -27.11, -20.00, -18.89, -25.32, -23.78, -20.43, -21.55, -19.83, -22.84, -23.25, -30.85, -23.49, -24.52, -19.80, 0.000, 0.000, 0.000, 17:05:37.419
196, -28.99, -21.73, -27.11, -20.00, -18.89, -25.32, -23.78, -20.43, -21.52, -19.62, -22.82, -23.47, -30.82, -23.74, -24.70, -19.85, 0.000, 0.000, 0.000, 17:05:37.420
207, -28.86, -21.77, -26.96, -19.92, -18.75, -25.46, -23.72, -20.52, -21.52, -19.62, -22.82, -23.47, -30.82, -23.74, -24.70, -19.85, 0.000, 0.000, 0.000, 17:05:37.420
205, -28.99, -21.64, -26.87, -19.96, -19.07, -25.35, -23.74, -20.65, -21.52, -19.62, -22.82, -23.47, -30.82, -23.74, -24.70, -19.85, 0.000, 0.000, 0.000, 17:05:37.420
199, -28.99, -21.82, -27.20, -19.96, -18.89, -25.21, -23.78, -20.36, -21.52, -19.62, -22.82, -23.47, -30.82, -23.74, -24.70, -19.85, 0.000, 0.000, 0.000, 17:05:37.421
200, -28.99, -21.82, -27.20, -19.96, -18.89, -25.21, -23.78, -20.36, -21.44, -19.47, -22.60, -23.31, -31.00, -23.67, -24.68, -19.92, 0.000, 0.000, 0.000, 17:05:37.421
201, -28.97, -21.77, -26.98, -19.96, -19.04, -25.30, -23.72, -20.45, -21.44, -19.47, -22.60, -23.31, -31.00, -23.67, -24.68, -19.92, 0.000, 0.000, 0.000, 17:05:37.421
202, -28.97, -21.77, -26.98, -19.96, -19.04, -25.30, -23.72, -20.45, -21.37, -19.80, -22.89, -23.45, -30.87, -23.49, -24.45, -19.89, 0.000, 0.000, 0.000, 17:05:37.421
203, -28.97, -21.66, -26.80, -20.07, -19.13, -25.48, -23.60, -20.63, -21.37, -19.80, -22.89, -23.45, -30.87, -23.49, -24.45, -19.89, -0.076, 0.952, -0.120, 17:05:37.421
214, -28.97, -21.66, -26.80, -20.07, -19.13, -25.48, -23.60, -20.63, -21.37, -19.78, -22.96, -23.18, -30.87, -23.78, -24.52, -19.89, 0.000, 0.000, 0.000, 17:05:37.421
209, -28.70, -21.77, -26.96, -20.05, -18.95, -25.53, -23.58, -20.34, -21.37, -19.78, -22.96, -23.18, -30.87, -23.78, -24.52, -19.89, 0.000, 0.000, 0.000, 17:05:37.422
210, -28.70, -21.77, -26.96, -20.05, -18.95, -25.53, -23.58, -20.34, -21.41, -19.85, -22.55, -23.25, -30.98, -23.51, -24.39, -19.83, 0.000, 0.000, 0.000, 17:05:37.422
215, -28.86, -21.75, -26.96, -19.92, -19.22, -25.57, -23.78, -20.47, -21.41, -19.85, -22.55, -23.25, -30.98, -23.51, -24.39, -19.83, 0.000, 0.000, 0.000, 17:05:37.422
216, -28.86, -21.75, -26.96, -19.92, -19.22, -25.57, -23.78, -20.47, -21.44, -19.69, -22.87, -23.31, -30.78, -23.54, -24.34, -19.87, 0.000, 0.000, 0.000, 17:05:37.422
217, -28.95, -21.90, -27.29, -20.18, -19.11, -25.48, -23.87, -20.52, -21.44, -19.69, -22.87, -23.31, -30.78, -23.54, -24.34, -19.87, 0.000, 0.000, 0.000, 17:05:37.422
218, -28.95, -21.90, -27.29, -20.18, -19.11, -25.48, -23.87, -20.52, -21.30, -19.83, -22.80, -23.27, -30.87, -23.51, -24.63, -20.09, 0.000, 0.000, 0.000, 17:05:37.423
219, -28.90, -21.82, -26.96, -20.14, -19.16, -25.30, -23.76, -20.38, -21.30, -19.83, -22.80, -23.27, -30.87, -23.51, -24.63, -20.09, 0.000, 0.000, 0.000, 17:05:37.423
220, -28.90, -21.82, -26.96, -20.14, -19.16, -25.30, -23.76, -20.38, -21.19, -19.74, -22.98, -23.47, -30.80, -23.69, -24.56, -19.89, 0.000, 0.000, 0.000, 17:05:37.423
221, -28.97, -21.75, -26.93, -19.89, -19.00, -25.41, -23.65, -20.45, -21.19, -19.74, -22.98, -23.47, -30.80, -23.69, -24.56, -19.89, 0.000, 0.000, 0.000, 17:05:37.423
222, -28.97, -21.75, -26.93, -19.89, -19.00, -25.41, -23.65, -20.45, -21.32, -19.78, -22.89, -23.54, -30.87, -23.60, -24.43, -19.89, -0.070, 0.950, -0.122, 17:05:37.423
223, -28.97, -21.84, -27.11, -20.12, -18.91, -25.37, -23.85, -20.65, -21.32, -19.78, -22.89, -23.54, -30.87, -23.60, -24.43, -19.89, 0.000, 0.000, 0.000, 17:05:37.423
224, -28.97, -21.84, -27.11, -20.12, -18.91, -25.37, -23.85, -20.65, -21.19, -19.80, -22.91, -23.09, -30.67, -23.72, -24.50, -19.80, 0.000, 0.000, 0.000, 17:05:37.424
225, -28.90, -21.82, -26.96, -20.03, -19.13, -25.41, -23.89, -20.56, -21.19, -19.80, -22.91, -23.09, -30.67, -23.72, -24.50, -19.80, 0.000, 0.000, 0.000, 17:05:37.424
233, -29.28, -21.68, -26.87, -20.05, -18.98, -25.26, -23.65, -20.27, -21.19, -19.80, -22.91, -23.09, -30.67, -23.72, -24.50, -19.80, 0.000, 0.000, 0.000, 17:05:37.424
227, -28.83, -21.79, -26.89, -19.94, -19.20, -25.53, -23.83, -20.36, -21.19, -19.80, -22.91, -23.09, -30.67, -23.72, -24.50, -19.80, 0.000, 0.000, 0.000, 17:05:37.424
231, -28.92, -21.88, -27.16, -19.71, -19.00, -25.26, -23.56, -20.38, -21.19, -19.80, -22.91, -23.09, -30.67, -23.72, -24.50, -19.80, 0.000, 0.000, 0.000, 17:05:37.424
229, -28.86, -21.73, -26.84, -20.16, -19.02, -25.28, -23.58, -20.34, -21.19, -19.80, -22.91, -23.09, -30.67, -23.72, -24.50, -19.80, 0.000, 0.000, 0.000, 17:05:37.425
234, -28.86, -21.73, -26.84, -20.16, -19.02, -25.28, -23.58, -20.34, -21.35, -19.58, -22.73, -23.58, -30.93, -23.56, -24.59, -19.83, 0.000, 0.000, 0.000, 17:05:37.425
235, -28.99, -21.82, -26.93, -20.05, -19.09, -25.48, -23.69, -20.45, -21.35, -19.58, -22.73, -23.58, -30.93, -23.56, -24.59, -19.83, 0.000, 0.000, 0.000, 17:05:37.425
236, -28.99, -21.82, -26.93, -20.05, -19.09, -25.48, -23.69, -20.45, -21.44, -19.83, -22.78, -23.34, -31.05, -23.80, -24.61, -19.67, 0.000, 0.000, 0.000, 17:05:37.425
237, -29.08, -21.84, -26.98, -20.16, -19.24, -25.37, -23.76, -20.61, -21.44, -19.83, -22.78, -23.34, -31.05, -23.80, -24.61, -19.67, 0.000, 0.000, 0.000, 17:05:37.425
238, -29.08, -21.84, -26.98, -20.16, -19.24, -25.37, -23.76, -20.61, -21.35, -19.83, -22.87, -23.38, -30.93, -23.58, -24.56, -19.94, 0.000, 0.000, 0.000, 17:05:37.426
239, -29.01, -21.66, -26.89, -19.89, -19.00, -25.44, -23.85, -20.36, -21.35, -19.83, -22.87, -23.38, -30.93, -23.58, -24.56, -19.94, 0.000, 0.000, 0.000, 17:05:37.426
240, -29.01, -21.66, -26.89, -19.89, -19.00, -25.44, -23.85, -20.36, -21.30, -19.62, -22.80, -23.27, -30.76, -23.58, -24.41, -19.85, 0.000, 0.000, 0.000, 17:05:37.426
241, -28.99, -21.77, -26.93, -20.23, -18.93, -25.48, -23.78, -20.59, -21.30, -19.62, -22.80, -23.27, -30.76, -23.58, -24.41, -19.85, 0.000, 0.000, 0.000, 17:05:37.426
242, -28.99, -21.77, -26.93, -20.23, -18.93, -25.48, -23.78, -20.59, -21.39, -19.78, -22.91, -23.34, -30.73, -23.63, -24.36, -19.89, -0.066, 0.952, -0.128, 17:05:37.426
243, -28.86, -21.88, -26.80, -20.12, -18.93, -25.24, -23.78, -20.34, -21.39, -19.78, -22.91, -23.34, -30.73, -23.63, -24.36, -19.89, 0.000, 0.000, 0.000, 17:05:37.427
244, -28.86, -21.88, -26.80, -20.12, -18.93, -25.24, -23.78, -20.34, -21.28, -19.47, -22.73, -23.16, -30.96, -23.63, -24.54, -19.85, 0.000, 0.000, 0.000, 17:05:37.427
245, -28.90, -21.86, -26.96, -20.00, -18.93, -25.30, -23.89, -20.43, -21.28, -19.47, -22.73, -23.16, -30.96, -23.63, -24.54, -19.85, 0.000, 0.000, 0.000, 17:05:37.427
246, -28.90, -21.86, -26.96, -20.00, -18.93, -25.30, -23.89, -20.43, -21.44, -19.74, -22.64, -23.45, -31.02, -23.45, -24.52, -19.87, 0.000, 0.000, 0.000, 17:05:37.427
247, -28.95, -21.61, -27.02, -19.92, -18.91, -25.32, -23.60, -20.38, -21.44, -19.74, -22.64, -23.45, -31.02, -23.45, -24.52, -19.87, 0.000, 0.000, 0.000, 17:05:37.427
248, -28.95, -21.61, -27.02, -19.92, -18.91, -25.32, -23.60, -20.38, -21.23, -19.65, -22.62, -23.47, -30.78, -23.58, -24.59, -20.03, 0.000, 0.000, 0.000, 17:05:37.427
249, -28.77, -21.68, -27.11, -19.85, -19.18, -25.21, -23.65, -20.52, -21.23, -19.65, -22.62, -23.47, -30.78, -23.58, -24.59, -20.03, 0.000, 0.000, 0.000, 17:05:37.428
250, -28.77, -21.68, -27.11, -19.85, -19.18, -25.21, -23.65, -20.52, -21.46, -19.71, -22.75, -23.51, -30.80, -23.54, -24.68, -19.76, 0.000, 0.000, 0.000, 17:05:37.428
251, -28.74, -21.84, -27.18, -20.05, -18.95, -25.28, -23.54, -20.56, -21.46, -19.71, -22.75, -23.51, -30.80, -23.54, -24.68, -19.76, 0.000, 0.000, 0.000, 17:05:37.428
252, -28.74, -21.84, -27.18, -20.05, -18.95, -25.28, -23.54, -20.56, -21.26, -19.80, -23.04, -23.27, -30.73, -23.45, -24.52, -19.85, -0.060, 0.960, -0.138, 17:05:37.429
253, -28.86, -21.70, -27.16, -20.09, -18.75, -25.26, -24.01, -20.59, -21.26, -19.80, -23.04, -23.27, -30.73, -23.45, -24.52, -19.85, 0.000, 0.000, 0.000, 17:05:37.429
254, -28.86, -21.70, -27.16, -20.09, -18.75, -25.26, -24.01, -20.59, -21.21, -19.80, -22.84, -23.29, -30.69, -23.58, -24.48, -20.00, 0.000, 0.000, 0.000, 17:05:37.429
255, -28.99, -21.68, -27.11, -19.87, -18.75, -25.37, -23.65, -20.65, -21.21, -19.80, -22.84, -23.29, -30.69, -23.58, -24.48, -20.00, 0.000, 0.000, 0.000, 17:05:37.430
0, -28.99, -21.68, -27.11, -19.87, -18.75, -25.37, -23.65, -20.65, -21.44, -19.87, -22.93, -23.34, -30.71, -23.67, -24.36, -20.07, 0.000, 0.000, 0.000, 17:05:37.430
1, -28.95, -21.84, -27.05, -19.87, -18.84, -25.41, -23.83, -20.68, -21.44, -19.87, -22.93, -23.34, -30.71, -23.67, -24.36, -20.07, 0.000, 0.000, 0.000, 17:05:37.430
2, -28.95, -21.84, -27.05, -19.87, -18.84, -25.41, -23.83, -20.68, -21.30, -19.54, -22.80, -23.45, -30.69, -23.56, -24.56, -19.78, 0.000, 0.000, 0.000, 17:05:37.430
3, -28.88, -21.93, -26.96, -20.07, -18.98, -25.41, -23.76, -20.30, -21.30, -19.54, -22.80, -23.45, -30.69, -23.56, -24.56, -19.78, 0.000, 0.000, 0.000, 17:05:37.430
4, -28.88, -21.93, -26.96, -20.07, -18.98, -25.41, -23.76, -20.30, -21.44, -19.76, -22.73, -23.29, -31.05, -23.78, -24.50, -19.87, 0.000, 0.000, 0.000, 17:05:37.431
5, -29.08, -21.70, -26.93, -20.18, -19.00, -25.32, -23.87, -20.47, -21.44, -19.76, -22.73, -23.29, -31.05, -23.78, -24.50, -19.87, 0.000, 0.000, 0.000, 17:05:37.431
6, -29.08, -21.70, -26.93, -20.18, -19.00, -25.32, -23.87, -20.47, -21.21, -19.62, -22.69, -23.20, -30.87, -23.85, -24.59, -19.87, -0.058, 0.962, -0.130, 17:05:37.431
7, -29.17, -21.77, -26.80, -19.96, -19.09, -25.30, -23.74, -20.43, -21.21, -19.62, -22.69, -23.20, -30.87, -23.85, -24.59, -19.87, 0.000, 0.000, 0.000, 17:05:37.431
8, -29.17, -21.77, -26.80, -19.96, -19.09, -25.30, -23.74, -20.43, -21.28, -19.62, -22.73, -23.40, -31.02, -23.63, -24.56, -19.85, 0.000, 0.000, 0.000, 17:05:37.432
9, -28.92, -21.79, -26.80, -19.78, -19.11, -25.35, -23.60, -20.36, -21.28, -19.62, -22.73, -23.40, -31.02, -23.63, -24.56, -19.85, 0.000, 0.000, 0.000, 17:05:37.432
10, -28.92, -21.79, -26.80, -19.78, -19.11, -25.35, -23.60, -20.36, -21.46, -19.60, -22.64, -23.34, -30.80, -23.60, -24.27, -20.00, 0.000, 0.000, 0.000, 17:05:37.432
11, -28.88, -21.75, -27.20, -19.98, -18.86, -25.46, -23.60, -20.41, -21.46, -19.60, -22.64, -23.34, -30.80, -23.60, -24.27, -20.00, 0.000, 0.000, 0.000, 17:05:37.433
12, -28.88, -21.75, -27.20, -19.98, -18.86, -25.46, -23.60, -20.41, -21.46, -19.74, -22.89, -23.45, -31.18, -23.58, -24.30, -19.87, 0.000, 0.000, 0.000, 17:05:37.433
13, -28.86, -21.84, -27.00, -20.25, -19.16, -25.24, -23.60, -20.45, -21.46, -19.74, -22.89, -23.45, -31.18, -23.58, -24.30, -19.87, 0.000, 0.000, 0.000, 17:05:37.433
14, -28.86, -21.84, -27.00, -20.25, -19.16, -25.24, -23.60, -20.45, -21.52, -19.78, -22.93, -23.40, -30.64, -23.69, -24.61, -19.80, 0.000, 0.000, 0.000, 17:05:37.433
15, -28.79, -21.84, -26.98, -19.98, -18.98, -25.26, -23.67, -20.36, -21.52, -19.78, -22.93, -23.40, -30.64, -23.69, -24.61, -19.80, -0.058, 0.948, -0.132, 17:05:37.434
16, -28.79, -21.84, -26.98, -19.98, -18.98, -25.26, -23.67, -20.36, -21.39, -19.96, -22.62, -23.16, -30.67, -23.69, -24.63, -19.83, 0.000, 0.000, 0.000, 17:05:37.434
17, -29.01, -22.06, -27.18, -19.98, -19.11, -25.44, -23.69, -20.56, -21.39, -19.96, -22.62, -23.16, -30.67, -23.69, -24.63, -19.83, 0.000, 0.000, 0.000, 17:05:37.434
18, -29.01, -22.06, -27.18, -19.98, -19.11, -25.44, -23.69, -20.56, -21.35, -19.67, -22.64, -23.29, -30.78, -23.58, -24.56, -19.74, 0.000, 0.000, 0.000, 17:05:37.434
19, -28.99, -21.82, -26.87, -19.83, -18.95, -24.99, -23.76, -20.36, -21.35, -19.67, -22.64, -23.29, -30.78, -23.58, -24.56, -19.74, 0.000, 0.000, 0.000, 17:05:37.435
20, -28.99, -21.82, -26.87, -19.83, -18.95, -24.99, -23.76, -20.36, -21.44, -19.80, -22.73, -23.20, -30.76, -23.89, -24.65, -19.80, 0.000, 0.000, 0.000, 17:05:37.435
21, -29.06, -21.68, -27.00, -19.92, -19.11, -25.39, -23.83, -20.50, -21.44, -19.80, -22.73, -23.20, -30.76, -23.89, -24.65, -19.80, 0.000, 0.000, 0.000, 17:05:37.435
22, -29.06, -21.68, -27.00, -19.92, -19.11, -25.39, -23.83, -20.50, -21.30, -19.98, -22.73, -23.36, -30.64, -23.83, -24.41, -19.85, 0.000, 0.000, 0.000, 17:05:37.436
23, -28.97, -21.59, -27.09, -19.87, -19.16, -25.53, -23.85, -20.45, -21.30, -19.98, -22.73, -23.36, -30.64, -23.83, -24.41, -19.85, 0.000, 0.000, 0.000, 17:05:37.436
24, -28.97, -21.59, -27.09, -19.87, -19.16, -25.53, -23.85, -20.45, -21.30, -19.98, -22.82, -23.38, -30.62, -23.78, -24.39, -19.98, 0.000, 0.000, 0.000, 17:05:37.437
25, -28.97, -21.68, -26.96, -19.94, -19.09, -25.24, -23.74, -20.61, -21.30, -19.98, -22.82, -23.38, -30.62, -23.78, -24.39, -19.98, -0.058, 0.946, -0.136, 17:05:37.437
26, -28.97, -21.68, -26.96, -19.94, -19.09, -25.24, -23.74, -20.61, -21.50, -19.69, -22.89, -23.27, -30.78, -23.65, -24.56, -19.94, 0.000, 0.000, 0.000, 17:05:37.437
27, -29.01, -21.86, -26.96, -19.98, -19.00, -25.24, -23.83, -20.70, -21.50, -19.69, -22.89, -23.27, -30.78, -23.65, -24.56, -19.94, 0.000, 0.000, 0.000, 17:05:37.437
28, -29.01, -21.86, -26.96, -19.98, -19.00, -25.24, -23.83, -20.70, -21.41, -19.83, -22.78, -23.09, -30.73, -23.40, -24.32, -19.83, 0.000, 0.000, 0.000, 17:05:37.438
29, -29.01, -21.77, -26.87, -19.92, -19.07, -25.10, -23.87, -20.30, -21.41, -19.83, -22.78, -23.09, -30.73, -23.40, -24.32, -19.83, 0.000, 0.000, 0.000, 17:05:37.438
30, -29.01, -21.77, -26.87, -19.92, -19.07, -25.10, -23.87, -20.30, -21.37, -19.74, -22.73, -23.49, -30.69, -23.60, -24.25, -19.83, 0.000, 0.000, 0.000, 17:05:37.438
31, -29.01, -21.82, -27.09, -19.96, -19.16, -25.32, -23.63, -20.52, -21.37, -19.74, -22.73, -23.49, -30.69, -23.60, -24.25, -19.83, 0.000, 0.000, 0.000, 17:05:37.438
32, -29.01, -21.82, -27.09, -19.96, -19.16, -25.32, -23.63, -20.52, -21.21, -19.69, -22.82, -23.45, -30.80, -23.56, -24.41, -20.07, 0.000, 0.000, 0.000, 17:05:37.438
33, -28.86, -21.86, -26.89, -20.05, -19.07, -25.41, -23.87, -20.36, -21.21, -19.69, -22.82, -23.45, -30.80, -23.56, -24.41, -20.07, 0.000, 0.000, 0.000, 17:05:37.439
34, -28.86, -21.86, -26.89, -20.05, -19.07, -25.41, -23.87, -20.36, -21.50, -19.51, -22.71, -23.36, -30.91, -23.65, -24.54, -20.09, 0.000, 0.000, 0.000, 17:05:37.439
35, -29.01, -21.86, -26.91, -20.34, -18.89, -25.37, -23.76, -20.36, -21.50, -19.51, -22.71, -23.36, -30.91, -23.65, -24.54, -20.09, -0.058, 0.944, -0.140, 17:05:37.439
36, -29.01, -21.86, -26.91, -20.34, -18.89, -25.37, -23.76, -20.36, -21.28, -19.54, -22.84, -23.36, -30.73, -23.51, -24.41, -19.87, 0.000, 0.000, 0.000, 17:05:37.439
37, -28.97, -21.88, -26.91, -20.00, -19.00, -25.26, -23.65, -20.25, -21.28, -19.54, -22.84, -23.36, -30.73, -23.51, -24.41, -19.87, 0.000, 0.000, 0.000, 17:05:37.439
38, -28.97, -21.88, -26.91, -20.00, -19.00, -25.26, -23.65, -20.25, -21.39, -20.05, -22.71, -23.34, -30.82, -23.72, -24.34, -19.92, 0.000, 0.000, 0.000, 17:05:37.439
39, -29.17, -21.75, -27.07, -19.89, -19.02, -25.19, -23.67, -20.47, -21.39, -20.05, -22.71, -23.34, -30.82, -23.72, -24.34, -19.92, 0.000, 0.000, 0.000, 17:05:37.440
40, -29.17, -21.75, -27.07, -19.89, -19.02, -25.19, -23.67, -20.47, -21.14, -19.89, -22.98, -23.42, -30.67, -23.69, -24.56, -20.00, 0.000, 0.000, 0.000, 17:05:37.440
41, -29.06, -21.75, -26.98, -19.87, -18.98, -25.46, -23.60, -20.43, -21.14, -19.89, -22.98, -23.42, -30.67, -23.69, -24.56, -20.00, 0.000, 0.000, 0.000, 17:05:37.440
42, -29.06, -21.75, -26.98, -19.87, -18.98, -25.46, -23.60, -20.43, -21.61, -19.94, -22.80, -23.40, -30.64, -23.49, -24.43, -19.89, 0.000, 0.000, 0.000, 17:05:37.440
43, -28.90, -21.77, -26.80, -19.92, -18.98, -25.35, -23.69, -20.47, -21.61, -19.94, -22.80, -23.40, -30.64, -23.49, -24.43, -19.89, 0.000, 0.000, 0.000, 17:05:37.441
44, -28.90, -21.77, -26.80, -19.92, -18.98, -25.35, -23.69, -20.47, -21.37, -19.71, -22.93, -23.40, -30.73, -23.49, -24.36, -20.03, 0.000, 0.000, 0.000, 17:05:37.441
45, -28.95, -21.70, -26.87, -19.94, -19.09, -25.35, -23.67, -20.50, -21.37, -19.71, -22.93, -23.40, -30.73, -23.49, -24.36, -20.03, -0.058, 0.948, -0.140, 17:05:37.442
46, -28.95, -21.70, -26.87, -19.94, -19.09, -25.35, -23.67, -20.50, -21.37, -19.76, -22.84, -23.31, -30.78, -23.67, -24.43, -20.03, 0.000, 0.000, 0.000, 17:05:37.442
47, -29.17, -21.97, -27.09, -19.98, -19.02, -25.24, -23.74, -20.47, -21.37, -19.76, -22.84, -23.31, -30.78, -23.67, -24.43, -20.03, 0.000, 0.000, 0.000, 17:05:37.442
48, -29.17, -21.97, -27.09, -19.98, -19.02, -25.24, -23.74, -20.47, -21.59, -19.65, -22.78, -23.25, -30.89, -23.56, -24.81, -19.67, 0.000, 0.000, 0.000, 17:05:37.443
49, -29.21, -21.79, -27.18, -20.12, -18.86, -25.26, -23.76, -20.50, -21.59, -19.65, -22.78, -23.25, -30.89, -23.56, -24.81, -19.67, 0.000, 0.000, 0.000, 17:05:37.443
50, -29.21, -21.79, -27.18, -20.12, -18.86, -25.26, -23.76, -20.50, -21.39, -19.76, -22.78, -23.47, -30.80, -23.76, -24.41, -19.96, 0.000, 0.000, 0.000, 17:05:37.443
51, -28.95, -21.79, -26.87, -20.25, -18.89, -25.32, -23.54, -20.45, -21.39, -19.76, -22.78, -23.47, -30.80, -23.76, -24.41, -19.96, 0.000, 0.000, 0.000, 17:05:37.444
52, -28.95, -21.79, -26.87, -20.25, -18.89, -25.32, -23.54, -20.45, -21.32, -19.60, -22.69, -23.25, -30.69, -23.78, -24.59, -19.96, 0.000, 0.000, 0.000, 17:05:37.444
53, -28.86, -21.68, -26.96, -19.96, -18.89, -25.21, -23.60, -20.38, -21.32, -19.60, -22.69, -23.25, -30.69, -23.78, -24.59, -19.96, 0.000, 0.000, 0.000, 17:05:37.444
54, -28.86, -21.68, -26.96, -19.96, -18.89, -25.21, -23.60, -20.38, -21.39, -19.76, -22.82, -23.13, -30.87, -23.74, -24.36, -19.76, 0.000, 0.000, 0.000, 17:05:37.444
55, -29.01, -21.66, -26.82, -19.85, -18.95, -25.44, -23.80, -20.47, -21.39, -19.76, -22.82, -23.13, -30.87, -23.74, -24.36, -19.76, -0.062, 0.954, -0.142, 17:05:37.445
56, -29.01, -21.66, -26.82, -19.85, -18.95, -25.44, -23.80, -20.47, -21.32, -19.94, -22.69, -23.25, -30.93, -23.29, -24.63, -19.78, 0.000, 0.000, 0.000, 17:05:37.445
57, -28.79, -21.73, -26.58, -20.16, -19.11, -25.48, -23.72, -20.68, -21.32, -19.94, -22.69, -23.25, -30.93, -23.29, -24.63, -19.78, 0.000, 0.000, 0.000, 17:05:37.445
58, -28.79, -21.73, -26.58, -20.16, -19.11, -25.48, -23.72, -20.68, -21.28, -19.85, -23.02, -23.27, -30.87, -23.49, -24.45, -19.87, 0.000, 0.000, 0.000, 17:05:37.445
59, -28.97, -21.75, -26.84, -20.12, -19.09, -25.21, -23.85, -20.61, -21.28, -19.85, -23.02, -23.27, -30.87, -23.49, -24.45, -19.87, 0.000, 0.000, 0.000, 17:05:37.445
60, -28.97, -21.75, -26.84, -20.12, -19.09, -25.21, -23.85, -20.61, -21.23, -19.96, -22.96, -23.18, -30.71, -23.63, -24.27, -19.80, 0.000, 0.000, 0.000, 17:05:37.446
61, -28.97, -21.79, -26.89, -20.03, -18.98, -25.12, -23.72, -20.43, -21.23, -19.96, -22.96, -23.18, -30.71, -23.63, -24.27, -19.80, 0.000, 0.000, 0.000, 17:05:37.446
62, -28.97, -21.79, -26.89, -20.03, -18.98, -25.12, -23.72, -20.43, -21.41, -19.60, -22.91, -23.40, -30.96, -23.65, -24.63, -19.74, 0.000, 0.000, 0.000, 17:05:37.446
63, -28.86, -21.77, -27.07, -19.89, -19.27, -25.55, -23.72, -20.45, -21.41, -19.60, -22.91, -23.40, -30.96, -23.65, -24.63, -19.74, 0.000, 0.000, 0.000, 17:05:37.446
64, -28.86, -21.77, -27.07, -19.89, -19.27, -25.55, -23.72, -20.45, -21.46, -19.80, -22.84, -23.27, -31.07, -23.49, -24.79, -19.85, 0.000, 0.000, 0.000, 17:05:37.446
66, -28.86, -21.77, -27.07, -19.89, -19.27, -25.55, -23.72, -20.45, -21.39, -19.74, -22.91, -23.36, -30.98, -23.72, -24.41, -19.87, 0.000, 0.000, 0.000, 17:05:37.447
67, -28.95, -21.68, -26.91, -20.03, -19.00, -25.30, -23.80, -20.59, -21.39, -19.74, -22.91, -23.36, -30.98, -23.72, -24.41, -19.87, 0.000, 0.000, 0.000, 17:05:37.447
68, -28.95, -21.68, -26.91, -20.03, -19.00, -25.30, -23.80, -20.59, -21.23, -19.65, -22.98, -23.38, -30.91, -23.40, -24.36, -20.05, 0.000, 0.000, 0.000, 17:05:37.447
69, -28.88, -22.06, -27.00, -20.12, -19.02, -25.46, -23.87, -20.38, -21.23, -19.65, -22.98, -23.38, -30.91, -23.40, -24.36, -20.05, 0.000, 0.000, 0.000, 17:05:37.493
70, -28.88, -22.06, -27.00, -20.12, -19.02, -25.46, -23.87, -20.38, -21.44, -19.78, -23.09, -23.49, -30.73, -23.49, -24.63, -19.80, 0.000, 0.000, 0.000, 17:05:37.493
71, -28.79, -21.66, -27.05, -20.18, -19.29, -25.48, -23.83, -20.25, -21.44, -19.78, -23.09, -23.49, -30.73, -23.49, -24.63, -19.80, 0.000, 0.000, 0.000, 17:05:37.494
72, -28.79, -21.66, -27.05, -20.18, -19.29, -25.48, -23.83, -20.25, -21.50, -19.71, -22.80, -23.34, -30.80, -23.65, -24.54, -19.71, 0.000, 0.000, 0.000, 17:05:37.494
73, -29.08, -21.64, -27.07, -19.98, -19.22, -25.28, -23.65, -20.47, -21.50, -19.71, -22.80, -23.34, -30.80, -23.65, -24.54, -19.71, 0.000, 0.000, 0.000, 17:05:37.494
74, -29.08, -21.64, -27.07, -19.98, -19.22, -25.28, -23.65, -20.47, -21.30, -19.78, -22.80, -23.40, -30.78, -23.56, -24.61, -19.71, -0.060, 0.958, -0.150, 17:05:37.494
75, -29.03, -21.68, -26.93, -20.16, -18.91, -25.53, -23.69, -20.38, -21.30, -19.78, -22.80, -23.40, -30.78, -23.56, -24.61, -19.71, 0.000, 0.000, 0.000, 17:05:37.495
76, -29.03, -21.68, -26.93, -20.16, -18.91, -25.53, -23.69, -20.38, -21.41, -19.80, -22.96, -23.31, -31.02, -23.72, -24.54, -19.67, 0.000, 0.000, 0.000, 17:05:37.495
77, -29.19, -21.57, -27.07, -20.00, -18.91, -25.19, -23.65, -20.63, -21.41, -19.80, -22.96, -23.31, -31.02, -23.72, -24.54, -19.67, 0.000, 0.000, 0.000, 17:05:37.495
78, -29.19, -21.57, -27.07, -20.00, -18.91, -25.19, -23.65, -20.63, -21.37, -19.69, -22.93, -23.25, -30.60, -23.63, -24.56, -19.80, 0.000, 0.000, 0.000, 17:05:37.495
79, -29.15, -21.55, -27.09, -19.78, -18.91, -25.35, -23.54, -20.59, -21.37, -19.69, -22.93, -23.25, -30.60, -23.63, -24.56, -19.80, 0.000, 0.000, 0.000, 17:05:37.527
80, -29.15, -21.55, -27.09, -19.78, -18.91, -25.35, -23.54, -20.59, -21.48, -19.80, -22.80, -23.31, -30.96, -23.58, -24.25, -19.76, 0.000, 0.000, 0.000, 17:05:37.527
81, -28.92, -21.84, -27.00, -19.94, -18.91, -25.30, -23.65, -20.34, -21.48, -19.80, -22.80, -23.31, -30.96, -23.58, -24.25, -19.76, 0.000, 0.000, 0.000, 17:05:37.527
82, -28.92, -21.84, -27.00, -19.94, -18.91, -25.30, -23.65, -20.34, -21.17, -19.71, -22.91, -23.29, -30.69, -23.58, -24.54, -19.60, 0.000, 0.000, 0.000, 17:05:37.528
83, -28.97, -21.75, -26.98, -19.96, -18.98, -25.32, -23.51, -20.63, -21.17, -19.71, -22.91, -23.29, -30.69, -23.58, -24.54, -19.60, 0.000, 0.000, 0.000, 17:05:37.557
84, -28.97, -21.75, -26.98, -19.96, -18.98, -25.32, -23.51, -20.63, -21.39, -19.76, -23.07, -23.38, -30.98, -23.60, -24.59, -19.89, -0.066, 0.956, -0.140, 17:05:37.557
85, -29.12, -21.75, -26.80, -20.03, -19.07, -25.39, -23.63, -20.63, -21.39, -19.76, -23.07, -23.38, -30.98, -23.60, -24.59, -19.89, 0.000, 0.000, 0.000, 17:05:37.557
86, -29.12, -21.75, -26.80, -20.03, -19.07, -25.39, -23.63, -20.63, -21.52, -19.80, -22.91, -23.36, -30.89, -23.78, -24.52, -19.85, 0.000, 0.000, 0.000, 17:05:37.558
87, -29.06, -21.50, -26.84, -19.92, -18.95, -25.44, -23.63, -20.63, -21.52, -19.80, -22.91, -23.36, -30.89, -23.78, -24.52, -19.85, 0.000, 0.000, 0.000, 17:05:37.558
88, -29.06, -21.50, -26.84, -19.92, -18.95, -25.44, -23.63, -20.63, -21.30, -19.76, -22.82, -23.38, -30.85, -23.72, -24.56, -19.98, 0.000, 0.000, 0.000, 17:05:37.619
89, -28.86, -21.84, -27.00, -20.07, -18.80, -25.39, -23.54, -20.59, -21.30, -19.76, -22.82, -23.38, -30.85, -23.72, -24.56, -19.98, 0.000, 0.000, 0.000, 17:05:37.620
90, -28.86, -21.84, -27.00, -20.07, -18.80, -25.39, -23.54, -20.59, -21.19, -19.80, -22.84, -23.42, -30.69, -23.65, -24.54, -19.92, 0.000, 0.000, 0.000, 17:05:37.620
91, -28.99, -21.52, -26.67, -19.78, -19.00, -25.26, -23.65, -20.68, -21.19, -19.80, -22.84, -23.42, -30.69, -23.65, -24.54, -19.92, 0.000, 0.000, 0.000, 17:05:37.620
92, -28.99, -21.52, -26.67, -19.78, -19.00, -25.26, -23.65, -20.68, -21.37, -19.71, -22.64, -23.13, -31.07, -23.78, -24.50, -20.00, 0.000, 0.000, 0.000, 17:05:37.620
93, -29.06, -21.68, -27.09, -20.07, -19.02, -25.30, -23.67, -20.27, -21.37, -19.71, -22.64, -23.13, -31.07, -23.78, -24.50, -20.00, 0.000, 0.000, 0.000, 17:05:37.620
94, -29.06, -21.68, -27.09, -20.07, -19.02, -25.30, -23.67, -20.27, -21.39, -19.87, -22.84, -23.31, -31.09, -23.58, -24.68, -19.98, -0.068, 0.954, -0.144, 17:05:37.621
95, -28.86, -21.84, -27.02, -19.96, -18.84, -25.32, -23.69, -20.45, -21.39, -19.87, -22.84, -23.31, -31.09, -23.58, -24.68, -19.98, 0.000, 0.000, 0.000, 17:05:37.621
96, -28.86, -21.84, -27.02, -19.96, -18.84, -25.32, -23.69, -20.45, -21.41, -19.60, -22.89, -23.36, -30.51, -23.67, -24.63, -19.71, 0.000, 0.000, 0.000, 17:05:37.621
97, -28.79, -21.66, -26.89, -20.00, -19.07, -25.30, -23.51, -20.56, -21.41, -19.60, -22.89, -23.36, -30.51, -23.67, -24.63, -19.71, 0.000, 0.000, 0.000, 17:05:37.621
98, -28.79, -21.66, -26.89, -20.00, -19.07, -25.30, -23.51, -20.56, -21.30, -19.96, -22.71, -23.49, -30.60, -23.65, -24.48, -19.76, 0.000, 0.000, 0.000, 17:05:37.622
99, -29.15, -21.70, -26.87, -20.14, -19.27, -25.17, -23.60, -20.47, -21.30, -19.96, -22.71, -23.49, -30.60, -23.65, -24.48, -19.76, 0.000, 0.000, 0.000, 17:05:37.622
100, -29.15, -21.70, -26.87, -20.14, -19.27, -25.17, -23.60, -20.47, -21.35, -19.71, -22.64, -23.40, -30.62, -23.63, -24.63, -19.94, 0.000, 0.000, 0.000, 17:05:37.622
101, -28.88, -21.64, -26.96, -20.00, -19.20, -25.30, -23.67, -20.34, -21.35, -19.71, -22.64, -23.40, -30.62, -23.63, -24.63, -19.94, 0.000, 0.000, 0.000, 17:05:37.623
102, -28.88, -21.64, -26.96, -20.00, -19.20, -25.30, -23.67, -20.34, -21.59, -19.76, -22.89, -23.47, -30.87, -23.56, -24.41, -19.78, 0.000, 0.000, 0.000, 17:05:38.042
103, -28.90, -21.75, -26.98, -19.96, -19.04, -25.39, -23.69, -20.70, -21.59, -19.76, -22.89, -23.47, -30.87, -23.56, -24.41, -19.78, 0.000, 0.000, 0.000, 17:05:38.042
104, -28.90, -21.75, -26.98, -19.96, -19.04, -25.39, -23.69, -20.70, -21.55, -19.83, -22.89, -23.27, -30.82, -23.60, -24.48, -19.96, -0.058, 0.972, -0.136, 17:05:38.042
105, -28.99, -21.84, -27.02, -20.03, -19.11, -25.50, -23.60, -20.36, -21.55, -19.83, -22.89, -23.27, -30.82, -23.60, -24.48, -19.96, 0.000, 0.000, 0.000, 17:05:38.043
106, -28.99, -21.84, -27.02, -20.03, -19.11, -25.50, -23.60, -20.36, -21.41, -19.69, -22.71, -23.22, -30.82, -23.42, -24.63, -19.92, 0.000, 0.000, 0.000, 17:05:38.043
108, -28.99, -21.84, -27.02, -20.03, -19.11, -25.50, -23.60, -20.36, -21.12, -19.80, -22.66, -23.42, -30.76, -23.63, -24.45, -19.92, 0.000, 0.000, 0.000, 17:05:38.043
109, -28.88, -21.64, -26.91, -20.00, -19.00, -25.08, -24.03, -20.36, -21.12, -19.80, -22.66, -23.42, -30.76, -23.63, -24.45, -19.92, 0.000, 0.000, 0.000, 17:05:38.043
110, -28.88, -21.64, -26.91, -20.00, -19.00, -25.08, -24.03, -20.36, -21.46, -19.62, -22.80, -23.13, -30.89, -23.65, -24.41, -19.89, 0.000, 0.000, 0.000, 17:05:38.044
111, -28.95, -21.95, -27.00, -20.00, -19.18, -25.17, -23.83, -20.43, -21.46, -19.62, -22.80, -23.13, -30.89, -23.65, -24.41, -19.89, 0.000, 0.000, 0.000, 17:05:38.046
112, -28.95, -21.95, -27.00, -20.00, -19.18, -25.17, -23.83, -20.43, -21.39, -19.78, -22.71, -23.36, -30.85, -23.51, -24.36, -19.98, 0.000, 0.000, 0.000, 17:05:38.046
113, -28.99, -21.97, -26.82, -20.25, -19.00, -25.28, -23.65, -20.59, -21.39, -19.78, -22.71, -23.36, -30.85, -23.51, -24.36, -19.98, 0.000, 0.000, 0.000, 17:05:38.046
114, -28.99, -21.97, -26.82, -20.25, -19.00, -25.28, -23.65, -20.59, -21.46, -19.74, -22.66, -23.34, -30.76, -23.69, -24.43, -19.83, -0.074, 0.964, -0.140, 17:05:38.046
115, -28.81, -21.84, -27.14, -20.09, -18.86, -25.39, -23.72, -20.41, -21.46, -19.74, -22.66, -23.34, -30.76, -23.69, -24.43, -19.83, 0.000, 0.000, 0.000, 17:05:38.046
116, -28.81, -21.84, -27.14, -20.09, -18.86, -25.39, -23.72, -20.41, -21.41, -19.74, -22.75, -23.42, -30.96, -23.80, -24.50, -19.94, 0.000, 0.000, 0.000, 17:05:38.047
117, -28.70, -21.90, -26.98, -20.05, -19.00, -25.44, -23.89, -20.59, -21.41, -19.74, -22.75, -23.42, -30.96, -23.80, -24.50, -19.94, 0.000, 0.000, 0.000, 17:05:38.047
118, -28.70, -21.90, -26.98, -20.05, -19.00, -25.44, -23.89, -20.59, -21.17, -19.47, -22.75, -23.45, -30.76, -23.60, -24.32, -19.98, 0.000, 0.000, 0.000, 17:05:38.047
119, -28.90, -21.88, -27.20, -20.14, -19.09, -25.15, -23.63, -20.61, -21.17, -19.47, -22.75, -23.45, -30.76, -23.60, -24.32, -19.98, 0.000, 0.000, 0.000, 17:05:38.047
120, -28.90, -21.88, -27.20, -20.14, -19.09, -25.15, -23.63, -20.61, -21.26, -19.67, -22.75, -23.36, -30.76, -23.74, -24.43, -19.80, 0.000, 0.000, 0.000, 17:05:38.047
121, -28.86, -21.73, -27.05, -19.83, -19.00, -25.01, -23.65, -20.50, -21.26, -19.67, -22.75, -23.36, -30.76, -23.74, -24.43, -19.80, 0.000, 0.000, 0.000, 17:05:38.047
122, -28.86, -21.73, -27.05, -19.83, -19.00, -25.01, -23.65, -20.50, -21.21, -19.80, -22.87, -23.78, -30.85, -23.65, -24.45, -19.83, 0.000, 0.000, 0.000, 17:05:38.048
123, -29.03, -21.82, -26.76, -19.76, -19.04, -25.41, -23.69, -20.54, -21.21, -19.80, -22.87, -23.78, -30.85, -23.65, -24.45, -19.83, -0.076, 0.954, -0.140, 17:05:38.048
124, -29.03, -21.82, -26.76, -19.76, -19.04, -25.41, -23.69, -20.54, -21.23, -19.83, -22.84, -23.42, -30.80, -23.74, -24.68, -19.89, 0.000, 0.000, 0.000, 17:05:38.048
125, -28.86, -21.86, -26.78, -19.89, -18.86, -25.46, -23.72, -20.56, -21.23, -19.83, -22.84, -23.42, -30.80, -23.74, -24.68, -19.89, 0.000, 0.000, 0.000, 17:05:38.048
131, -29.01, -21.84, -27.09, -19.89, -18.84, -25.46, -23.76, -20.54, -21.23, -19.83, -22.84, -23.42, -30.80, -23.74, -24.68, -19.89, 0.000, 0.000, 0.000, 17:05:38.048
135, -28.92, -21.82, -26.82, -19.92, -19.13, -25.32, -23.65, -20.50, -21.23, -19.83, -22.84, -23.42, -30.80, -23.74, -24.68, -19.89, 0.000, 0.000, 0.000, 17:05:38.048
128, -28.92, -21.82, -26.82, -19.92, -19.13, -25.32, -23.65, -20.50, -21.32, -19.92, -23.13, -23.31, -30.98, -23.63, -24.39, -19.92, 0.000, 0.000, 0.000, 17:05:38.049
129, -28.88, -21.86, -27.07, -19.80, -18.93, -25.39, -23.72, -20.36, -21.32, -19.92, -23.13, -23.31, -30.98, -23.63, -24.39, -19.92, 0.000, 0.000, 0.000, 17:05:38.049
132, -28.88, -21.86, -27.07, -19.80, -18.93, -25.39, -23.72, -20.36, -21.37, -19.62, -22.66, -23.27, -31.07, -23.60, -24.34, -19.80, 0.000, 0.000, 0.000, 17:05:38.049
133, -29.03, -21.68, -26.76, -19.87, -19.02, -25.32, -23.67, -20.45, -21.37, -19.62, -22.66, -23.27, -31.07, -23.60, -24.34, -19.80, -0.072, 0.952, -0.136, 17:05:38.049
136, -29.03, -21.68, -26.76, -19.87, -19.02, -25.32, -23.67, -20.45, -21.37, -19.65, -22.91, -23.38, -30.98, -23.56, -24.61, -19.83, 0.000, 0.000, 0.000, 17:05:38.049
137, -28.86, -21.90, -26.96, -19.87, -19.11, -25.37, -23.47, -20.47, -21.37, -19.65, -22.91, -23.38, -30.98, -23.56, -24.61, -19.83, 0.000, 0.000, 0.000, 17:05:38.050
138, -28.86, -21.90, -26.96, -19.87, -19.11, -25.37, -23.47, -20.47, -21.28, -19.60, -22.96, -23.63, -30.80, -23.58, -24.77, -19.80, 0.000, 0.000, 0.000, 17:05:38.050
139, -28.74, -21.82, -26.71, -19.94, -19.18, -25.24, -23.89, -20.59, -21.28, -19.60, -22.96, -23.63, -30.80, -23.58, -24.77, -19.80, 0.000, 0.000, 0.000, 17:05:38.050
140, -28.74, -21.82, -26.71, -19.94, -19.18, -25.24, -23.89, -20.59, -21.39, -19.76, -22.87, -23.36, -30.73, -23.56, -24.63, -19.87, 0.000, 0.000, 0.000, 17:05:38.051
141, -28.99, -21.75, -27.00, -19.98, -19.20, -25.24, -23.72, -20.25, -21.39, -19.76, -22.87, -23.36, -30.73, -23.56, -24.63, -19.87, 0.000, 0.000, 0.000, 17:05:38.051
142, -28.99, -21.75, -27.00, -19.98, -19.20, -25.24, -23.72, -20.25, -21.26, -19.80, -22.96, -23.34, -30.85, -23.58, -24.54, -19.98, 0.000, 0.000, 0.000, 17:05:38.051
143, -29.06, -21.86, -27.05, -19.98, -19.11, -25.10, -23.58, -20.25, -21.26, -19.80, -22.96, -23.34, -30.85, -23.58, -24.54, -19.98, -0.068, 0.948, -0.136, 17:05:38.051
144, -29.06, -21.86, -27.05, -19.98, -19.11, -25.10, -23.58, -20.25, -21.35, -19.65, -22.73, -23.27, -30.93, -23.56, -24.23, -19.96, 0.000, 0.000, 0.000, 17:05:38.052
145, -28.88, -21.93, -26.89, -19.98, -19.09, -25.26, -23.63, -20.47, -21.35, -19.65, -22.73, -23.27, -30.93, -23.56, -24.23, -19.96, 0.000, 0.000, 0.000, 17:05:38.052
146, -28.88, -21.93, -26.89, -19.98, -19.09, -25.26, -23.63, -20.47, -21.44, -19.65, -22.82, -23.36, -30.82, -23.63, -24.48, -19.85, 0.000, 0.000, 0.000, 17:05:38.052
147, -28.77, -21.55, -26.91, -19.94, -19.16, -25.46, -23.87, -20.47, -21.44, -19.65, -22.82, -23.36, -30.82, -23.63, -24.48, -19.85, 0.000, 0.000, 0.000, 17:05:38.053
148, -28.77, -21.55, -26.91, -19.94, -19.16, -25.46, -23.87, -20.47, -21.35, -19.87, -22.93, -23.20, -30.76, -23.63, -24.56, -19.76, 0.000, 0.000, 0.000, 17:05:38.053
149, -28.77, -21.73, -27.05, -20.03, -19.13, -25.15, -23.76, -20.43, -21.35, -19.87, -22.93, -23.20, -30.76, -23.63, -24.56, -19.76, 0.000, 0.000, 0.000, 17:05:38.053
150, -28.77, -21.73, -27.05, -20.03, -19.13, -25.15, -23.76, -20.43, -21.50, -19.74, -22.84, -23.38, -30.96, -23.60, -24.36, -20.05, 0.000, 0.000, 0.000, 17:05:38.054
151, -28.90, -21.75, -26.98, -20.03, -19.27, -25.28, -23.87, -20.45, -21.50, -19.74, -22.84, -23.38, -30.96, -23.60, -24.36, -20.05, 0.000, 0.000, 0.000, 17:05:38.054
152, -28.90, -21.75, -26.98, -20.03, -19.27, -25.28, -23.87, -20.45, -21.39, -19.54, -22.91, -23.38, -30.78, -23.54, -24.48, -19.98, 0.000, 0.000, 0.000, 17:05:38.054
153, -28.65, -21.70, -26.96, -20.07, -19.11, -25.35, -23.85, -20.56, -21.39, -19.54, -22.91, -23.38, -30.78, -23.54, -24.48, -19.98, -0.068, 0.948, -0.142, 17:05:38.054
154, -28.65, -21.70, -26.96, -20.07, -19.11, -25.35, -23.85, -20.56, -21.37, -19.69, -22.91, -23.47, -30.76, -23.45, -24.36, -19.85, 0.000, 0.000, 0.000, 17:05:38.054
155, -28.77, -21.66, -27.02, -20.07, -19.07, -25.21, -23.54, -20.41, -21.37, -19.69, -22.91, -23.47, -30.76, -23.45, -24.36, -19.85, 0.000, 0.000, 0.000, 17:05:38.054
156, -28.77, -21.66, -27.02, -20.07, -19.07, -25.21, -23.54, -20.41, -21.28, -19.65, -22.80, -23.47, -30.76, -23.58, -24.52, -19.71, 0.000, 0.000, 0.000, 17:05:38.055
157, -29.01, -21.77, -26.98, -20.07, -19.18, -25.26, -23.78, -20.59, -21.28, -19.65, -22.80, -23.47, -30.76, -23.58, -24.52, -19.71, 0.000, 0.000, 0.000, 17:05:38.055
158, -29.01, -21.77, -26.98, -20.07, -19.18, -25.26, -23.78, -20.59, -21.21, -19.69, -22.62, -23.45, -30.78, -23.56, -24.65, -19.80, 0.000, 0.000, 0.000, 17:05:38.055
160, -29.01, -21.77, -26.98, -20.07, -19.18, -25.26, -23.78, -20.59, -21.37, -19.74, -22.75, -23.38, -30.71, -23.72, -24.74, -20.00, 0.000, 0.000, 0.000, 17:05:38.055
161, -28.95, -21.70, -26.93, -20.14, -19.11, -25.32, -23.69, -20.54, -21.37, -19.74, -22.75, -23.38, -30.71, -23.72, -24.74, -20.00, 0.000, 0.000, 0.000, 17:05:38.055
163, -28.74, -22.08, -26.96, -20.00, -18.82, -25.30, -23.54, -20.52, -21.37, -19.74, -22.75, -23.38, -30.71, -23.72, -24.74, -20.00, -0.076, 0.944, -0.134, 17:05:38.055
164, -28.74, -22.08, -26.96, -20.00, -18.82, -25.30, -23.54, -20.52, -21.39, -19.78, -23.04, -23.22, -30.85, -23.63, -24.56, -19.96, 0.000, 0.000, 0.000, 17:05:38.056
165, -28.99, -21.75, -26.93, -20.00, -18.82, -25.44, -23.69, -20.21, -21.39, -19.78, -23.04, -23.22, -30.85, -23.63, -24.56, -19.96, 0.000, 0.000, 0.000, 17:05:38.056
166, -28.99, -21.75, -26.93, -20.00, -18.82, -25.44, -23.69, -20.21, -21.44, -19.78, -22.66, -23.40, -30.76, -23.67, -24.61, -19.85, 0.000, 0.000, 0.000, 17:05:38.056
167, -28.99, -21.86, -26.98, -19.92, -19.11, -25.30, -23.54, -20.36, -21.44, -19.78, -22.66, -23.40, -30.76, -23.67, -24.61, -19.85, 0.000, 0.000, 0.000, 17:05:38.056
168, -28.99, -21.86, -26.98, -19.92, -19.11, -25.30, -23.54, -20.36, -21.52, -19.98, -22.89, -23.49, -31.00, -23.56, -24.61, -19.87, 0.000, 0.000, 0.000, 17:05:38.056
169, -29.12, -21.79, -26.87, -19.89, -18.89, -25.21, -23.49, -20.72, -21.52, -19.98, -22.89, -23.49, -31.00, -23.56, -24.61, -19.87, 0.000, 0.000, 0.000, 17:05:38.057
170, -29.12, -21.79, -26.87, -19.89, -18.89, -25.21, -23.49, -20.72, -21.59, -19.71, -22.96, -23.49, -30.69, -23.58, -24.56, -19.83, 0.000, 0.000, 0.000, 17:05:38.057
171, -28.97, -21.84, -26.67, -19.83, -19.09, -25.26, -23.54, -20.41, -21.59, -19.71, -22.96, -23.49, -30.69, -23.58, -24.56, -19.83, 0.000, 0.000, 0.000, 17:05:38.057
172, -28.97, -21.84, -26.67, -19.83, -19.09, -25.26, -23.54, -20.41, -21.35, -19.83, -22.71, -23.54, -30.76, -23.49, -24.59, -19.92, -0.072, 0.952, -0.140, 17:05:38.057
173, -28.83, -21.59, -26.96, -19.85, -19.16, -25.15, -23.76, -20.38, -21.35, -19.83, -22.71, -23.54, -30.76, -23.49, -24.59, -19.92, 0.000, 0.000, 0.000, 17:05:38.058
174, -28.83, -21.59, -26.96, -19.85, -19.16, -25.15, -23.76, -20.38, -21.44, -19.80, -22.55, -23.40, -30.76, -23.67, -24.43, -19.85, 0.000, 0.000, 0.000, 17:05:38.059
175, -29.10, -21.68, -27.05, -20.03, -19.02, -25.28, -23.85, -20.41, -21.44, -19.80, -22.55, -23.40, -30.76, -23.67, -24.43, -19.85, 0.000, 0.000, 0.000, 17:05:38.059
177, -28.92, -21.90, -27.00, -20.07, -19.16, -25.37, -23.89, -20.56, -21.44, -19.80, -22.55, -23.40, -30.76, -23.67, -24.43, -19.85, 0.000, 0.000, 0.000, 17:05:38.059
178, -28.92, -21.90, -27.00, -20.07, -19.16, -25.37, -23.89, -20.56, -21.14, -19.71, -22.98, -23.36, -30.89, -23.65, -24.54, -20.05, 0.000, 0.000, 0.000, 17:05:38.059
179, -28.90, -21.66, -27.07, -19.85, -19.16, -25.35, -23.80, -20.56, -21.14, -19.71, -22.98, -23.36, -30.89, -23.65, -24.54, -20.05, 0.000, 0.000, 0.000, 17:05:38.060
180, -28.90, -21.66, -27.07, -19.85, -19.16, -25.35, -23.80, -20.56, -21.35, -19.94, -22.78, -23.13, -31.05, -23.51, -24.41, -20.00, 0.000, 0.000, 0.000, 17:05:38.060
181, -28.92, -21.59, -26.76, -20.00, -19.31, -25.26, -23.80, -20.68, -21.35, -19.94, -22.78, -23.13, -31.05, -23.51, -24.41, -20.00, 0.000, 0.000, 0.000, 17:05:38.060
182, -28.92, -21.59, -26.76, -20.00, -19.31, -25.26, -23.80, -20.68, -21.35, -19.65, -22.78, -23.09, -30.76, -23.47, -24.48, -20.00, -0.076, 0.950, -0.134, 17:05:38.060
183, -28.86, -21.79, -26.80, -20.09, -18.93, -25.28, -23.78, -20.56, -21.35, -19.65, -22.78, -23.09, -30.76, -23.47, -24.48, -20.00, 0.000, 0.000, 0.000, 17:05:38.060
184, -28.86, -21.79, -26.80, -20.09, -18.93, -25.28, -23.78, -20.56, -21.26, -19.92, -22.80, -23.49, -30.82, -23.60, -24.59, -19.85, 0.000, 0.000, 0.000, 17:05:38.061
185, -28.97, -21.66, -27.14, -20.05, -19.02, -25.50, -23.63, -20.70, -21.26, -19.92, -22.80, -23.49, -30.82, -23.60, -24.59, -19.85, 0.000, 0.000, 0.000, 17:05:38.061
186, -28.97, -21.66, -27.14, -20.05, -19.02, -25.50, -23.63, -20.70, -21.32, -19.89, -22.89, -23.29, -30.73, -23.63, -24.59, -19.89, 0.000, 0.000, 0.000, 17:05:38.061
187, -29.06, -21.70, -27.14, -19.98, -18.95, -25.37, -23.67, -20.63, -21.32, -19.89, -22.89, -23.29, -30.73, -23.63, -24.59, -19.89, 0.000, 0.000, 0.000, 17:05:38.061
188, -29.06, -21.70, -27.14, -19.98, -18.95, -25.37, -23.67, -20.63, -21.41, -19.65, -22.80, -23.42, -30.93, -23.67, -24.70, -19.76, 0.000, 0.000, 0.000, 17:05:38.061
189, -29.06, -21.75, -27.07, -19.78, -18.80, -25.21, -23.74, -20.52, -21.41, -19.65, -22.80, -23.42, -30.93, -23.67, -24.70, -19.76, 0.000, 0.000, 0.000, 17:05:38.061
190, -29.06, -21.75, -27.07, -19.78, -18.80, -25.21, -23.74, -20.52, -21.26, -19.74, -22.93, -23.63, -30.85, -23.74, -24.65, -19.78, 0.000, 0.000, 0.000, 17:05:38.062
191, -28.83, -21.59, -27.11, -20.16, -19.00, -25.44, -23.63, -20.65, -21.26, -19.74, -22.93, -23.63, -30.85, -23.74, -24.65, -19.78, 0.000, 0.000, 0.000, 17:05:38.062
192, -28.83, -21.59, -27.11, -20.16, -19.00, -25.44, -23.63, -20.65, -21.46, -20.05, -22.80, -23.36, -30.85, -23.63, -24.43, -19.71, -0.076, 0.942, -0.132, 17:05:38.062
193, -28.81, -21.70, -27.07, -19.94, -19.00, -25.57, -23.80, -20.30, -21.46, -20.05, -22.80, -23.36, -30.85, -23.63, -24.43, -19.71, 0.000, 0.000, 0.000, 17:05:38.062
194, -28.81, -21.70, -27.07, -19.94, -19.00, -25.57, -23.80, -20.30, -21.44, -19.83, -22.93, -23.38, -30.93, -23.69, -24.61, -19.85, 0.000, 0.000, 0.000, 17:05:38.062
195, -29.21, -22.02, -26.96, -19.96, -19.11, -25.26, -23.78, -20.32, -21.44, -19.83, -22.93, -23.38, -30.93, -23.69, -24.61, -19.85, 0.000, 0.000, 0.000, 17:05:38.062
196, -29.21, -22.02, -26.96, -19.96, -19.11, -25.26, -23.78, -20.32, -21.37, -19.83, -22.80, -23.51, -30.87, -23.69, -24.65, -19.69, 0.000, 0.000, 0.000, 17:05:38.062
197, -28.92, -21.93, -26.73, -20.00, -19.31, -25.48, -23.78, -20.45, -21.37, -19.83, -22.80, -23.51, -30.87, -23.69, -24.65, -19.69, 0.000, 0.000, 0.000, 17:05:38.063
198, -28.92, -21.93, -26.73, -20.00, -19.31, -25.48, -23.78, -20.45, -21.46, -20.00, -22.60, -23.56, -30.93, -23.56, -24.54, -19.80, 0.000, 0.000, 0.000, 17:05:38.063
199, -28.77, -21.70, -26.87, -19.83, -18.93, -25.30, -23.87, -20.23, -21.46, -20.00, -22.60, -23.56, -30.93, -23.56, -24.54, -19.80, 0.000, 0.000, 0.000, 17:05:38.063
200, -28.77, -21.70, -26.87, -19.83, -18.93, -25.30, -23.87, -20.23, -21.46, -19.65, -22.87, -23.40, -30.98, -23.67, -24.54, -19.83, 0.000, 0.000, 0.000, 17:05:38.063
201, -28.92, -21.70, -26.93, -19.89, -18.95, -25.46, -23.96, -20.50, -21.46, -19.65, -22.87, -23.40, -30.98, -23.67, -24.54, -19.83, 0.000, 0.000, 0.000, 17:05:38.064
202, -28.92, -21.70, -26.93, -19.89, -18.95, -25.46, -23.96, -20.50, -21.44, -19.80, -22.80, -23.65, -30.60, -23.58, -24.52, -19.92, -0.080, 0.944, -0.134, 17:05:38.064
203, -28.99, -21.70, -27.22, -19.92, -18.91, -25.39, -23.78, -20.70, -21.44, -19.80, -22.80, -23.65, -30.60, -23.58, -24.52, -19.92, 0.000, 0.000, 0.000, 17:05:38.064
204, -28.99, -21.70, -27.22, -19.92, -18.91, -25.39, -23.78, -20.70, -21.48, -19.87, -22.73, -23.51, -30.87, -23.49, -24.65, -19.71, 0.000, 0.000, 0.000, 17:05:38.065
205, -28.97, -22.06, -27.07, -19.92, -18.89, -25.32, -23.83, -20.41, -21.48, -19.87, -22.73, -23.51, -30.87, -23.49, -24.65, -19.71, 0.000, 0.000, 0.000, 17:05:38.065
206, -28.97, -22.06, -27.07, -19.92, -18.89, -25.32, -23.83, -20.41, -21.30, -19.78, -22.84, -23.45, -31.02, -23.65, -24.45, -19.80, 0.000, 0.000, 0.000, 17:05:38.065
207, -28.90, -21.86, -26.98, -20.00, -18.95, -25.17, -23.80, -20.59, -21.30, -19.78, -22.84, -23.45, -31.02, -23.65, -24.45, -19.80, 0.000, 0.000, 0.000, 17:05:38.065
208, -28.90, -21.86, -26.98, -20.00, -18.95, -25.17, -23.80, -20.59, -21.17, -19.87, -22.89, -23.22, -30.71, -23.67, -24.43, -19.83, 0.000, 0.000, 0.000, 17:05:38.066
209, -28.92, -21.77, -26.87, -19.69, -19.02, -25.17, -23.76, -20.68, -21.17, -19.87, -22.89, -23.22, -30.71, -23.67, -24.43, -19.83, 0.000, 0.000, 0.000, 17:05:38.066
210, -28.92, -21.77, -26.87, -19.69, -19.02, -25.17, -23.76, -20.68, -21.28, -19.76, -22.93, -23.34, -30.85, -23.31, -24.39, -20.03, 0.000, 0.000, 0.000, 17:05:38.066
211, -28.74, -21.70, -27.00, -19.85, -18.93, -25.41, -23.76, -20.27, -21.28, -19.76, -22.93, -23.34, -30.85, -23.31, -24.39, -20.03, 0.000, 0.000, 0.000, 17:05:38.066
212, -28.74, -21.70, -27.00, -19.85, -18.93, -25.41, -23.76, -20.27, -21.37, -19.58, -22.87, -23.27, -30.82, -23.42, -24.63, -20.03, -0.082, 0.950, -0.126, 17:05:38.067
213, -29.03, -21.64, -26.96, -20.00, -19.00, -25.37, -23.92, -20.34, -21.37, -19.58, -22.87, -23.27, -30.82, -23.42, -24.63, -20.03, 0.000, 0.000, 0.000, 17:05:38.067
214, -29.03, -21.64, -26.96, -20.00, -19.00, -25.37, -23.92, -20.34, -21.26, -19.76, -22.75, -23.38, -30.85, -23.63, -24.50, -19.74, 0.000, 0.000, 0.000, 17:05:38.067
215, -29.10, -21.88, -26.98, -19.96, -19.24, -25.17, -23.72, -20.65, -21.26, -19.76, -22.75, -23.38, -30.85, -23.63, -24.50, -19.74, 0.000, 0.000, 0.000, 17:05:38.067
216, -29.10, -21.88, -26.98, -19.96, -19.24, -25.17, -23.72, -20.65, -21.26, -19.92, -22.82, -23.40, -31.00, -23.78, -24.61, -19.89, 0.000, 0.000, 0.000, 17:05:38.067
217, -28.99, -21.86, -26.82, -20.03, -18.98, -25.19, -23.78, -20.63, -21.26, -19.92, -22.82, -23.40, -31.00, -23.78, -24.61, -19.89, 0.000, 0.000, 0.000, 17:05:38.067
218, -28.99, -21.86, -26.82, -20.03, -18.98, -25.19, -23.78, -20.63, -21.19, -19.65, -22.80, -23.36, -30.73, -23.65, -24.79, -19.96, 0.000, 0.000, 0.000, 17:05:38.068
219, -28.97, -21.77, -27.09, -19.78, -19.13, -25.24, -23.63, -20.27, -21.19, -19.65, -22.80, -23.36, -30.73, -23.65, -24.79, -19.96, 0.000, 0.000, 0.000, 17:05:38.068
220, -28.97, -21.77, -27.09, -19.78, -19.13, -25.24, -23.63, -20.27, -21.35, -19.89, -22.71, -23.34, -30.73, -23.65, -24.56, -20.09, 0.000, 0.000, 0.000, 17:05:38.068
221, -28.90, -21.68, -27.07, -19.76, -19.24, -25.39, -23.78, -20.59, -21.35, -19.89, -22.71, -23.34, -30.73, -23.65, -24.56, -20.09, 0.000, 0.000, 0.000, 17:05:38.068
222, -28.90, -21.68, -27.07, -19.76, -19.24, -25.39, -23.78, -20.59, -21.26, -19.78, -22.84, -23.31, -30.80, -23.47, -24.36, -20.03, -0.078, 0.954, -0.132, 17:05:38.069
223, -28.92, -21.79, -27.09, -19.96, -19.16, -25.32, -23.78, -20.41, -21.26, -19.78, -22.84, -23.31, -30.80, -23.47, -24.36, -20.03, 0.000, 0.000, 0.000, 17:05:38.069
224, -28.92, -21.79, -27.09, -19.96, -19.16, -25.32, -23.78, -20.41, -21.35, -19.69, -22.71, -23.25, -30.96, -23.56, -24.54, -19.74, 0.000, 0.000, 0.000, 17:05:38.069
225, -29.17, -21.61, -26.98, -20.14, -18.73, -25.35, -23.78, -20.34, -21.35, -19.69, -22.71, -23.25, -30.96, -23.56, -24.54, -19.74, 0.000, 0.000, 0.000, 17:05:38.069
227, -29.03, -21.84, -27.02, -20.23, -18.89, -25.19, -23.72, -20.47, -21.35, -19.69, -22.71, -23.25, -30.96, -23.56, -24.54, -19.74, 0.000, 0.000, 0.000, 17:05:38.070
228, -29.03, -21.84, -27.02, -20.23, -18.89, -25.19, -23.72, -20.47, -21.32, -19.87, -22.91, -23.47, -30.93, -23.60, -24.50, -19.83, 0.000, 0.000, 0.000, 17:05:38.070
229, -29.15, -21.90, -26.98, -19.87, -18.95, -25.21, -23.94, -20.56, -21.32, -19.87, -22.91, -23.47, -30.93, -23.60, -24.50, -19.83, 0.000, 0.000, 0.000, 17:05:38.070
