%OpenBCI Raw EEG Data
%
%Sample Rate = 250.0 Hz
%First Column = SampleIndex
%Last Column = Timestamp 
%Other Columns = EEG data in microvolts followed by Accel Data (in G) interleaved with Aux Data
0, 0.00, 0.00, 0.00, 0.00, 0.00, 0.00, 0.00, 0.00, -59853.16, -48165.46, -53838.80, -41564.57, -48564.57, -54399.29, -93750.01, -80476.60, 0.176, 0.890, 0.008, 16:35:23.918
1, -93750.01, -26490.48, 66982.14, 70721.84, -15196.30, -20892.69, -16348.40, -93750.01, -59853.16, -48165.46, -53838.80, -41564.57, -48564.57, -54399.29, -93750.01, -80476.60, 0.000, 0.000, 0.000, 16:35:24.396
2, -93750.01, -26490.48, 66982.14, 70721.84, -15196.30, -20892.69, -16348.40, -93750.01, 56672.06, 15870.32, 170318.50, 1248.75, 6325.43, -5197.09, 57697.76, 7342.46, 0.000, 0.000, 0.000, 16:35:24.396
3, -187500.02, -53042.18, 133983.34, 141469.50, -30409.48, -41764.30, -32725.32, -187500.02, 56672.06, 15870.32, 170318.50, 1248.75, 6325.43, -5197.09, 57697.76, 7342.46, 0.000, 0.000, 0.000, 16:35:24.397
4, -187500.02, -53042.18, 133983.34, 141469.50, -30409.48, -41764.30, -32725.32, -187500.02, 56663.14, 15831.70, 170308.89, 1247.07, 6318.32, -5205.52, 57666.16, 7318.68, 0.000, 0.000, 0.000, 16:35:24.397
5, -187500.02, -52992.74, 133964.14, 141441.36, -30379.28, -41778.70, -32701.96, -187500.02, 56663.14, 15831.70, 170308.89, 1247.07, 6318.32, -5205.52, 57666.16, 7318.68, 0.000, 0.000, 0.000, 16:35:24.398
6, -187500.02, -52992.74, 133964.14, 141441.36, -30379.28, -41778.70, -32701.96, -187500.02, 56668.09, 15881.83, 170303.28, 1226.86, 6311.51, -5221.57, 57694.88, 7348.31, 0.000, 0.000, 0.000, 16:35:24.399
7, -187500.02, -53011.16, 133981.58, 141456.05, -30386.86, -41775.57, -32710.23, -187500.02, 56668.09, 15881.83, 170303.28, 1226.86, 6311.51, -5221.57, 57694.88, 7348.31, 0.000, 0.000, 0.000, 16:35:24.399
8, -187500.02, -53011.16, 133981.58, 141456.05, -30386.86, -41775.57, -32710.23, -187500.02, 56668.33, 15846.00, 170303.95, 1228.56, 6313.88, -5227.11, 57687.61, 7337.00, 0.004, 0.916, -0.244, 16:35:24.400
9, -187500.02, -53006.11, 133975.25, 141452.92, -30379.39, -41785.45, -32692.60, -187500.02, 56668.33, 15846.00, 170303.95, 1228.56, 6313.88, -5227.11, 57687.61, 7337.00, 0.000, 0.000, 0.000, 16:35:24.400
10, -187500.02, -53006.11, 133975.25, 141452.92, -30379.39, -41785.45, -32692.60, -187500.02, 56671.50, 15877.76, 170303.88, 1238.33, 6314.21, -5235.83, 57698.48, 7352.38, 0.000, 0.000, 0.000, 16:35:24.401
11, -187500.02, -52948.80, 133963.75, 141444.11, -30365.98, -41792.29, -32665.64, -187500.02, 56671.50, 15877.76, 170303.88, 1238.33, 6314.21, -5235.83, 57698.48, 7352.38, 0.000, 0.000, 0.000, 16:35:24.401
12, -187500.02, -52948.80, 133963.75, 141444.11, -30365.98, -41792.29, -32665.64, -187500.02, 56678.03, 15905.03, 170298.83, 1232.86, 6309.94, -5234.91, 57732.72, 7384.48, 0.000, 0.000, 0.000, 16:35:24.402
13, -187500.02, -52965.43, 133968.50, 141446.84, -30363.64, -41781.60, -32651.72, -187500.02, 56678.03, 15905.03, 170298.83, 1232.86, 6309.94, -5234.91, 57732.72, 7384.48, 0.000, 0.000, 0.000, 16:35:24.402
14, -187500.02, -52965.43, 133968.50, 141446.84, -30363.64, -41781.60, -32651.72, -187500.02, 56676.89, 15898.64, 170297.94, 1232.05, 6312.53, -5242.96, 57732.83, 7379.92, 0.000, 0.000, 0.000, 16:35:24.403
15, -187500.02, -52915.03, 133965.58, 141440.34, -30341.08, -41794.63, -32630.26, -187500.02, 56676.89, 15898.64, 170297.94, 1232.05, 6312.53, -5242.96, 57732.83, 7379.92, 0.000, 0.000, 0.000, 16:35:24.403
16, -187500.02, -52915.03, 133965.58, 141440.34, -30341.08, -41794.63, -32630.26, -187500.02, 56690.32, 15921.73, 170322.98, 1244.48, 6335.45, -5223.60, 57729.08, 7376.66, 0.000, 0.000, 0.000, 16:35:24.404
17, -187500.02, -52950.63, 133982.00, 141458.00, -30359.30, -41782.56, -32658.45, -187500.02, 56690.32, 15921.73, 170322.98, 1244.48, 6335.45, -5223.60, 57729.08, 7376.66, 0.010, 0.916, -0.250, 16:35:24.404
18, -187500.02, -52950.63, 133982.00, 141458.00, -30359.30, -41782.56, -32658.45, -187500.02, 56688.74, 15873.29, 170325.67, 1258.60, 6337.95, -5234.04, 57702.57, 7357.17, 0.000, 0.000, 0.000, 16:35:24.405
19, -187500.02, -52959.13, 133980.75, 141458.55, -30371.39, -41781.38, -32658.65, -187500.02, 56688.74, 15873.29, 170325.67, 1258.60, 6337.95, -5234.04, 57702.57, 7357.17, 0.000, 0.000, 0.000, 16:35:24.406
20, -187500.02, -52959.13, 133980.75, 141458.55, -30371.39, -41781.38, -32658.65, -187500.02, 56683.80, 15909.30, 170304.38, 1255.30, 6313.36, -5253.53, 57710.82, 7374.67, 0.000, 0.000, 0.000, 16:35:24.406
21, -187500.02, -52905.73, 133967.34, 141447.13, -30367.04, -41795.95, -32636.59, -187500.02, 56683.80, 15909.30, 170304.38, 1255.30, 6313.36, -5253.53, 57710.82, 7374.67, 0.000, 0.000, 0.000, 16:35:24.407
22, -187500.02, -52905.73, 133967.34, 141447.13, -30367.04, -41795.95, -32636.59, -187500.02, 56691.27, 15920.32, 170311.28, 1251.43, 6320.80, -5248.39, 57730.51, 7390.40, 0.000, 0.000, 0.000, 16:35:24.408
23, -187500.02, -52930.27, 133976.67, 141449.28, -30375.33, -41785.76, -32631.51, -187500.02, 56691.27, 15920.32, 170311.28, 1251.43, 6320.80, -5248.39, 57730.51, 7390.40, 0.000, 0.000, 0.000, 16:35:24.408
24, -187500.02, -52930.27, 133976.67, 141449.28, -30375.33, -41785.76, -32631.51, -187500.02, 56692.63, 15904.09, 170320.67, 1259.21, 6327.38, -5230.13, 57730.24, 7383.88, 0.000, 0.000, 0.000, 16:35:24.409
25, -187500.02, -52897.37, 133982.56, 141450.03, -30383.20, -41792.87, -32624.96, -187500.02, 56692.63, 15904.09, 170320.67, 1259.21, 6327.38, -5230.13, 57730.24, 7383.88, 0.000, 0.000, 0.000, 16:35:24.409
26, -187500.02, -52897.37, 133982.56, 141450.03, -30383.20, -41792.87, -32624.96, -187500.02, 56695.02, 15936.44, 170322.64, 1264.39, 6330.95, -5240.21, 57744.25, 7403.57, 0.000, 0.000, 0.000, 16:35:24.410
27, -187500.02, -52899.04, 133985.89, 141452.55, -30378.88, -41799.55, -32619.96, -187500.02, 56695.02, 15936.44, 170322.64, 1264.39, 6330.95, -5240.21, 57744.25, 7403.57, 0.018, 0.910, -0.244, 16:35:24.410
28, -187500.02, -52899.04, 133985.89, 141452.55, -30378.88, -41799.55, -32619.96, -187500.02, 56703.18, 15915.25, 170331.34, 1268.33, 6336.50, -5256.48, 57753.46, 7405.94, 0.000, 0.000, 0.000, 16:35:24.411
29, -187500.02, -52894.80, 133977.72, 141446.81, -30365.04, -41808.76, -32609.67, -187500.02, 56703.18, 15915.25, 170331.34, 1268.33, 6336.50, -5256.48, 57753.46, 7405.94, 0.000, 0.000, 0.000, 16:35:24.411
30, -187500.02, -52894.80, 133977.72, 141446.81, -30365.04, -41808.76, -32609.67, -187500.02, 56696.14, 15958.59, 170307.39, 1248.90, 6313.79, -5277.43, 57778.50, 7434.95, 0.000, 0.000, 0.000, 16:35:24.412
31, -187500.02, -52847.66, 133976.27, 141447.72, -30362.83, -41807.46, -32598.19, -187500.02, 56696.14, 15958.59, 170307.39, 1248.90, 6313.79, -5277.43, 57778.50, 7434.95, 0.000, 0.000, 0.000, 16:35:24.412
32, -187500.02, -52847.66, 133976.27, 141447.72, -30362.83, -41807.46, -32598.19, -187500.02, 56709.57, 15939.77, 170342.03, 1264.01, 6351.56, -5235.67, 57772.06, 7427.46, 0.000, 0.000, 0.000, 16:35:24.413
33, -187500.02, -52905.77, 133990.14, 141458.64, -30381.05, -41802.86, -32632.36, -187500.02, 56709.57, 15939.77, 170342.03, 1264.01, 6351.56, -5235.67, 57772.06, 7427.46, 0.000, 0.000, 0.000, 16:35:24.413
34, -187500.02, -52905.77, 133990.14, 141458.64, -30381.05, -41802.86, -32632.36, -187500.02, 56698.57, 15910.31, 170330.41, 1264.46, 6335.76, -5268.93, 57760.23, 7419.97, 0.000, 0.000, 0.000, 16:35:24.413
35, -187500.02, -52867.53, 133976.23, 141451.20, -30351.48, -41805.90, -32625.61, -187500.02, 56698.57, 15910.31, 170330.41, 1264.46, 6335.76, -5268.93, 57760.23, 7419.97, 0.000, 0.000, 0.000, 16:35:24.414
36, -187500.02, -52867.53, 133976.23, 141451.20, -30351.48, -41805.90, -32625.61, -187500.02, 56711.09, 15946.76, 170341.97, 1272.75, 6340.43, -5259.25, 57780.66, 7444.92, 0.000, 0.000, 0.000, 16:35:24.414
37, -187500.02, -52877.72, 133976.44, 141455.77, -30337.78, -41804.54, -32630.93, -187500.02, 56711.09, 15946.76, 170341.97, 1272.75, 6340.43, -5259.25, 57780.66, 7444.92, 0.022, 0.912, -0.242, 16:35:24.415
38, -187500.02, -52877.72, 133976.44, 141455.77, -30337.78, -41804.54, -32630.93, -187500.02, 56708.52, 15914.15, 170342.42, 1272.04, 6339.69, -5266.54, 57783.88, 7452.59, 0.000, 0.000, 0.000, 16:35:24.415
39, -187500.02, -52880.74, 133976.80, 141455.38, -30332.63, -41825.10, -32627.38, -187500.02, 56708.52, 15914.15, 170342.42, 1272.04, 6339.69, -5266.54, 57783.88, 7452.59, 0.000, 0.000, 0.000, 16:35:24.416
40, -187500.02, -52880.74, 133976.80, 141455.38, -30332.63, -41825.10, -32627.38, -187500.02, 56702.91, 15949.35, 170322.91, 1257.49, 6322.73, -5261.00, 57803.13, 7479.23, 0.000, 0.000, 0.000, 16:35:24.417
41, -187500.02, -52827.74, 133976.70, 141453.25, -30323.69, -41827.58, -32609.09, -187500.02, 56702.91, 15949.35, 170322.91, 1257.49, 6322.73, -5261.00, 57803.13, 7479.23, 0.000, 0.000, 0.000, 16:35:24.417
42, -187500.02, -52827.74, 133976.70, 141453.25, -30323.69, -41827.58, -32609.09, -187500.02, 56713.82, 15949.80, 170350.31, 1269.58, 6348.30, -5263.39, 57817.61, 7489.47, 0.000, 0.000, 0.000, 16:35:24.418
43, -187500.02, -52865.79, 133988.80, 141468.81, -30323.72, -41820.09, -32619.69, -187500.02, 56713.82, 15949.80, 170350.31, 1269.58, 6348.30, -5263.39, 57817.61, 7489.47, 0.000, 0.000, 0.000, 16:35:24.418
44, -187500.02, -52865.79, 133988.80, 141468.81, -30323.72, -41820.09, -32619.69, -187500.02, 56706.64, 15936.21, 170343.48, 1274.14, 6341.61, -5273.11, 57815.38, 7488.19, 0.000, 0.000, 0.000, 16:35:24.419
45, -187500.02, -52823.59, 133974.47, 141458.31, -30314.22, -41825.52, -32606.41, -187500.02, 56706.64, 15936.21, 170343.48, 1274.14, 6341.61, -5273.11, 57815.38, 7488.19, 0.000, 0.000, 0.000, 16:35:24.419
46, -187500.02, -52823.59, 133974.47, 141458.31, -30314.22, -41825.52, -32606.41, -187500.02, 56712.88, 15984.04, 170338.75, 1268.84, 6335.27, -5285.34, 57847.07, 7516.98, 0.000, 0.000, 0.000, 16:35:24.421
47, -187500.02, -52821.84, 133975.55, 141465.80, -30308.61, -41827.40, -32601.61, -187500.02, 56712.88, 15984.04, 170338.75, 1268.84, 6335.27, -5285.34, 57847.07, 7516.98, 0.020, 0.920, -0.240, 16:35:24.422
48, -187500.02, -52821.84, 133975.55, 141465.80, -30308.61, -41827.40, -32601.61, -187500.02, 56709.55, 15957.78, 170344.05, 1266.14, 6335.33, -5295.60, 57853.02, 7518.86, 0.000, 0.000, 0.000, 16:35:24.422
49, -187500.02, -52808.83, 133972.95, 141460.39, -30294.39, -41835.00, -32582.38, -187500.02, 56709.55, 15957.78, 170344.05, 1266.14, 6335.33, -5295.60, 57853.02, 7518.86, 0.000, 0.000, 0.000, 16:35:24.423
50, -187500.02, -52808.83, 133972.95, 141460.39, -30294.39, -41835.00, -32582.38, -187500.02, 56718.27, 15985.34, 170368.64, 1278.10, 6358.74, -5260.84, 57857.06, 7537.14, 0.000, 0.000, 0.000, 16:35:24.425
51, -187500.02, -52812.84, 134000.22, 141485.53, -30317.93, -41814.08, -32619.69, -187500.02, 56718.27, 15985.34, 170368.64, 1278.10, 6358.74, -5260.84, 57857.06, 7537.14, 0.000, 0.000, 0.000, 16:35:24.425
52, -187500.02, -52812.84, 134000.22, 141485.53, -30317.93, -41814.08, -32619.69, -187500.02, 56708.07, 15960.80, 170350.13, 1266.03, 6345.66, -5279.08, 57848.91, 7537.59, 0.000, 0.000, 0.000, 16:35:24.426
53, -187500.02, -52830.89, 133988.56, 141485.58, -30309.21, -41821.07, -32608.00, -187500.02, 56708.07, 15960.80, 170350.13, 1266.03, 6345.66, -5279.08, 57848.91, 7537.59, 0.000, 0.000, 0.000, 16:35:24.427
54, -187500.02, -52830.89, 133988.56, 141485.58, -30309.21, -41821.07, -32608.00, -187500.02, 56715.27, 15954.43, 170362.89, 1282.99, 6354.13, -5265.20, 57855.61, 7556.23, 0.000, 0.000, 0.000, 16:35:24.427
55, -187500.02, -52809.21, 133988.20, 141488.59, -30323.40, -41811.89, -32616.29, -187500.02, 56715.27, 15954.43, 170362.89, 1282.99, 6354.13, -5265.20, 57855.61, 7556.23, 0.000, 0.000, 0.000, 16:35:24.427
56, -187500.02, -52809.21, 133988.20, 141488.59, -30323.40, -41811.89, -32616.29, -187500.02, 56724.14, 15979.62, 170369.69, 1283.84, 6358.62, -5270.21, 57852.73, 7574.04, 0.000, 0.000, 0.000, 16:35:24.428
57, -187500.02, -52812.45, 133983.69, 141477.39, -30325.93, -41808.82, -32615.91, -187500.02, 56724.14, 15979.62, 170369.69, 1283.84, 6358.62, -5270.21, 57852.73, 7574.04, 0.020, 0.918, -0.240, 16:35:24.428
58, -187500.02, -52812.45, 133983.69, 141477.39, -30325.93, -41808.82, -32615.91, -187500.02, 56721.17, 15973.00, 170353.50, 1265.67, 6341.46, -5269.13, 57870.81, 7600.91, 0.000, 0.000, 0.000, 16:35:24.429
59, -187500.02, -52809.23, 133984.58, 141481.86, -30333.22, -41818.26, -32602.14, -187500.02, 56721.17, 15973.00, 170353.50, 1265.67, 6341.46, -5269.13, 57870.81, 7600.91, 0.000, 0.000, 0.000, 16:35:24.429
60, -187500.02, -52809.23, 133984.58, 141481.86, -30333.22, -41818.26, -32602.14, -187500.02, 56723.36, 15992.54, 170366.33, 1280.78, 6354.11, -5281.78, 57860.86, 7604.53, 0.000, 0.000, 0.000, 16:35:24.430
61, -187500.02, -52788.47, 133989.09, 141487.08, -30351.39, -41815.33, -32607.82, -187500.02, 56723.36, 15992.54, 170366.33, 1280.78, 6354.11, -5281.78, 57860.86, 7604.53, 0.000, 0.000, 0.000, 16:35:24.430
62, -187500.02, -52788.47, 133989.09, 141487.08, -30351.39, -41815.33, -32607.82, -187500.02, 56724.70, 15976.74, 170368.81, 1289.85, 6358.31, -5286.86, 57857.87, 7601.25, 0.000, 0.000, 0.000, 16:35:24.431
63, -187500.02, -52805.39, 133980.39, 141485.47, -30338.18, -41812.16, -32591.68, -187500.02, 56724.70, 15976.74, 170368.81, 1289.85, 6358.31, -5286.86, 57857.87, 7601.25, 0.000, 0.000, 0.000, 16:35:24.431
64, -187500.02, -52805.39, 133980.39, 141485.47, -30338.18, -41812.16, -32591.68, -187500.02, 56720.95, 15991.26, 170347.09, 1277.29, 6338.93, -5297.45, 57897.99, 7623.11, 0.000, 0.000, 0.000, 16:35:24.432
65, -187500.02, -52759.05, 133976.70, 141482.97, -30330.53, -41822.82, -32573.08, -187500.02, 56720.95, 15991.26, 170347.09, 1277.29, 6338.93, -5297.45, 57897.99, 7623.11, 0.000, 0.000, 0.000, 16:35:24.432
66, -187500.02, -52759.05, 133976.70, 141482.97, -30330.53, -41822.82, -32573.08, -187500.02, 56727.90, 16023.43, 170355.92, 1271.14, 6350.42, -5291.95, 57910.42, 7628.40, 0.000, 0.000, 0.000, 16:35:24.432
67, -187500.02, -52756.66, 133985.61, 141481.13, -30325.77, -41827.96, -32568.46, -187500.02, 56727.90, 16023.43, 170355.92, 1271.14, 6350.42, -5291.95, 57910.42, 7628.40, 0.020, 0.914, -0.242, 16:35:24.433
68, -187500.02, -52756.66, 133985.61, 141481.13, -30325.77, -41827.96, -32568.46, -187500.02, 56730.60, 15995.22, 170366.00, 1281.96, 6364.64, -5272.96, 57923.89, 7621.77, 0.000, 0.000, 0.000, 16:35:24.433
69, -187500.02, -52776.13, 133989.14, 141485.11, -30335.03, -41826.93, -32579.50, -187500.02, 56730.60, 15995.22, 170366.00, 1281.96, 6364.64, -5272.96, 57923.89, 7621.77, 0.000, 0.000, 0.000, 16:35:24.434
70, -187500.02, -52776.13, 133989.14, 141485.11, -30335.03, -41826.93, -32579.50, -187500.02, 56727.36, 16005.55, 170365.97, 1294.12, 6362.87, -5292.96, 57928.97, 7607.51, 0.000, 0.000, 0.000, 16:35:24.434
71, -187500.02, -52742.25, 133987.45, 141490.36, -30340.23, -41825.66, -32582.14, -187500.02, 56727.36, 16005.55, 170365.97, 1294.12, 6362.87, -5292.96, 57928.97, 7607.51, 0.000, 0.000, 0.000, 16:35:24.435
72, -187500.02, -52742.25, 133987.45, 141490.36, -30340.23, -41825.66, -32582.14, -187500.02, 56729.64, 16010.80, 170368.95, 1300.80, 6364.79, -5295.40, 57953.67, 7613.85, 0.000, 0.000, 0.000, 16:35:24.435
73, -187500.02, -52765.45, 133987.55, 141488.13, -30341.71, -41809.00, -32576.68, -187500.02, 56729.64, 16010.80, 170368.95, 1300.80, 6364.79, -5295.40, 57953.67, 7613.85, 0.000, 0.000, 0.000, 16:35:24.435
74, -187500.02, -52765.45, 133987.55, 141488.13, -30341.71, -41809.00, -32576.68, -187500.02, 56728.88, 16022.20, 170359.36, 1292.06, 6353.30, -5312.76, 57983.13, 7625.19, 0.000, 0.000, 0.000, 16:35:24.436
75, -187500.02, -52729.73, 133989.72, 141488.89, -30341.33, -41808.58, -32572.35, -187500.02, 56728.88, 16022.20, 170359.36, 1292.06, 6353.30, -5312.76, 57983.13, 7625.19, 0.000, 0.000, 0.000, 16:35:24.436
76, -187500.02, -52729.73, 133989.72, 141488.89, -30341.33, -41808.58, -32572.35, -187500.02, 56733.29, 16044.28, 170373.42, 1299.46, 6366.02, -5280.64, 57988.02, 7617.65, 0.000, 0.000, 0.000, 16:35:24.437
77, -187500.02, -52737.44, 133999.19, 141490.45, -30346.45, -41805.98, -32580.55, -187500.02, 56733.29, 16044.28, 170373.42, 1299.46, 6366.02, -5280.64, 57988.02, 7617.65, 0.022, 0.916, -0.248, 16:35:24.437
78, -187500.02, -52737.44, 133999.19, 141490.45, -30346.45, -41805.98, -32580.55, -187500.02, 56725.84, 16002.42, 170382.36, 1296.51, 6368.55, -5309.75, 57986.61, 7593.25, 0.000, 0.000, 0.000, 16:35:24.438
79, -187500.02, -52759.91, 134007.20, 141503.02, -30346.76, -41794.41, -32590.27, -187500.02, 56725.84, 16002.42, 170382.36, 1296.51, 6368.55, -5309.75, 57986.61, 7593.25, 0.000, 0.000, 0.000, 16:35:24.438
80, -187500.02, -52759.91, 134007.20, 141503.02, -30346.76, -41794.41, -32590.27, -187500.02, 56716.34, 16012.97, 170369.38, 1297.36, 6352.77, -5328.90, 57986.05, 7584.73, 0.000, 0.000, 0.000, 16:35:24.439
81, -187500.02, -52706.13, 133990.33, 141488.64, -30321.41, -41798.92, -32565.24, -187500.02, 56716.34, 16012.97, 170369.38, 1297.36, 6352.77, -5328.90, 57986.05, 7584.73, 0.000, 0.000, 0.000, 16:35:24.439
82, -187500.02, -52706.13, 133990.33, 141488.64, -30321.41, -41798.92, -32565.24, -187500.02, 56717.21, 16046.45, 170349.20, 1272.57, 6333.95, -5356.30, 58031.77, 7621.70, 0.000, 0.000, 0.000, 16:35:24.440
83, -187500.02, -52713.68, 133992.38, 141495.86, -30320.45, -41794.03, -32544.05, -187500.02, 56717.21, 16046.45, 170349.20, 1272.57, 6333.95, -5356.30, 58031.77, 7621.70, 0.000, 0.000, 0.000, 16:35:24.440
84, -187500.02, -52713.68, 133992.38, 141495.86, -30320.45, -41794.03, -32544.05, -187500.02, 56726.96, 16021.19, 170390.36, 1306.21, 6370.02, -5320.54, 58014.66, 7601.34, 0.000, 0.000, 0.000, 16:35:24.441
85, -187500.02, -52729.39, 134010.17, 141508.23, -30344.41, -41780.01, -32585.36, -187500.02, 56726.96, 16021.19, 170390.36, 1306.21, 6370.02, -5320.54, 58014.66, 7601.34, 0.000, 0.000, 0.000, 16:35:24.441
86, -187500.02, -52729.39, 134010.17, 141508.23, -30344.41, -41780.01, -32585.36, -187500.02, 56708.14, 16024.46, 170367.78, 1291.19, 6343.78, -5310.62, 58001.64, 7583.66, 0.000, 0.000, 0.000, 16:35:24.441
87, -187500.02, -52718.98, 133996.42, 141499.61, -30344.35, -41787.73, -32573.08, -187500.02, 56708.14, 16024.46, 170367.78, 1291.19, 6343.78, -5310.62, 58001.64, 7583.66, 0.020, 0.922, -0.244, 16:35:24.442
88, -187500.02, -52718.98, 133996.42, 141499.61, -30344.35, -41787.73, -32573.08, -187500.02, 56716.66, 16001.30, 170384.59, 1308.81, 6357.17, -5333.33, 58014.82, 7588.17, 0.000, 0.000, 0.000, 16:35:24.442
89, -187500.02, -52742.58, 133997.88, 141511.06, -30365.25, -41782.00, -32584.82, -187500.02, 56716.66, 16001.30, 170384.59, 1308.81, 6357.17, -5333.33, 58014.82, 7588.17, 0.000, 0.000, 0.000, 16:35:24.443
90, -187500.02, -52742.58, 133997.88, 141511.06, -30365.25, -41782.00, -32584.82, -187500.02, 56719.05, 16019.61, 170383.67, 1318.69, 6359.07, -5338.65, 58018.38, 7592.22, 0.000, 0.000, 0.000, 16:35:24.443
91, -187500.02, -52724.41, 133997.25, 141510.78, -30361.78, -41780.82, -32595.64, -187500.02, 56719.05, 16019.61, 170383.67, 1318.69, 6359.07, -5338.65, 58018.38, 7592.22, 0.000, 0.000, 0.000, 16:35:24.444
92, -187500.02, -52724.41, 133997.25, 141510.78, -30361.78, -41780.82, -32595.64, -187500.02, 56722.47, 16011.25, 170384.09, 1315.40, 6365.11, -5335.92, 58027.21, 7588.55, 0.000, 0.000, 0.000, 16:35:24.444
93, -187500.02, -52761.58, 134004.83, 141513.11, -30357.11, -41770.54, -32596.35, -187500.02, 56722.47, 16011.25, 170384.09, 1315.40, 6365.11, -5335.92, 58027.21, 7588.55, 0.000, 0.000, 0.000, 16:35:24.445
94, -187500.02, -52761.58, 134004.83, 141513.11, -30357.11, -41770.54, -32596.35, -187500.02, 56721.53, 15988.58, 170391.09, 1322.53, 6370.78, -5330.22, 58024.64, 7576.01, 0.000, 0.000, 0.000, 16:35:24.445
95, -187500.02, -52724.52, 134000.72, 141497.13, -30340.73, -41791.14, -32582.85, -187500.02, 56721.53, 15988.58, 170391.09, 1322.53, 6370.78, -5330.22, 58024.64, 7576.01, 0.000, 0.000, 0.000, 16:35:24.445
96, -187500.02, -52724.52, 134000.72, 141497.13, -30340.73, -41791.14, -32582.85, -187500.02, 56716.57, 16056.31, 170354.33, 1294.93, 6333.34, -5379.30, 58074.14, 7618.59, 0.000, 0.000, 0.000, 16:35:24.446
97, -187500.02, -52685.41, 133985.88, 141495.75, -30330.45, -41804.15, -32547.76, -187500.02, 56716.57, 16056.31, 170354.33, 1294.93, 6333.34, -5379.30, 58074.14, 7618.59, 0.026, 0.918, -0.242, 16:35:24.446
98, -187500.02, -52685.41, 133985.88, 141495.75, -30330.45, -41804.15, -32547.76, -187500.02, 56738.16, 16045.15, 170393.53, 1329.71, 6372.42, -5350.63, 58089.72, 7624.18, 0.000, 0.000, 0.000, 16:35:24.447
99, -187500.02, -52719.61, 134006.14, 141521.45, -30351.59, -41781.11, -32570.51, -187500.02, 56738.16, 16045.15, 170393.53, 1329.71, 6372.42, -5350.63, 58089.72, 7624.18, 0.000, 0.000, 0.000, 16:35:24.447
100, -187500.02, -52719.61, 134006.14, 141521.45, -30351.59, -41781.11, -32570.51, -187500.02, 56739.52, 16037.44, 170405.67, 1348.97, 6390.97, -5339.70, 58062.52, 7600.44, 0.000, 0.000, 0.000, 16:35:24.448
101, -187500.02, -52703.07, 134001.55, 141510.70, -30351.57, -41780.33, -32585.06, -187500.02, 56739.52, 16037.44, 170405.67, 1348.97, 6390.97, -5339.70, 58062.52, 7600.44, 0.000, 0.000, 0.000, 16:35:24.448
102, -187500.02, -52703.07, 134001.55, 141510.70, -30351.57, -41780.33, -32585.06, -187500.02, 56738.80, 16040.95, 170388.39, 1331.81, 6378.67, -5367.37, 58077.41, 7615.28, 0.000, 0.000, 0.000, 16:35:24.449
103, -187500.02, -52737.31, 134005.30, 141515.19, -30348.62, -41787.84, -32590.14, -187500.02, 56738.80, 16040.95, 170388.39, 1331.81, 6378.67, -5367.37, 58077.41, 7615.28, 0.000, 0.000, 0.000, 16:35:24.449
104, -187500.02, -52737.31, 134005.30, 141515.19, -30348.62, -41787.84, -32590.14, -187500.02, 56734.40, 16028.68, 170377.66, 1336.84, 6370.49, -5355.08, 58078.97, 7620.74, 0.000, 0.000, 0.000, 16:35:24.449
105, -187500.02, -52674.39, 133978.66, 141491.80, -30326.42, -41799.32, -32551.29, -187500.02, 56734.40, 16028.68, 170377.66, 1336.84, 6370.49, -5355.08, 58078.97, 7620.74, 0.000, 0.000, 0.000, 16:35:24.450
106, -187500.02, -52674.39, 133978.66, 141491.80, -30326.42, -41799.32, -32551.29, -187500.02, 56750.14, 16100.09, 170378.14, 1336.72, 6370.40, -5336.12, 58122.67, 7673.80, 0.028, 0.920, -0.238, 16:35:24.450
107, -187500.02, -52677.63, 133981.72, 141503.56, -30353.29, -41810.16, -32554.82, -187500.02, 56750.14, 16100.09, 170378.14, 1336.72, 6370.40, -5336.12, 58122.67, 7673.80, 0.000, 0.000, 0.000, 16:35:24.451
108, -187500.02, -52677.63, 133981.72, 141503.56, -30353.29, -41810.16, -32554.82, -187500.02, 56759.08, 16064.53, 170402.92, 1362.03, 6393.56, -5352.44, 58114.00, 7659.23, 0.000, 0.000, 0.000, 16:35:24.451
109, -187500.02, -52706.55, 133989.11, 141514.14, -30363.77, -41805.25, -32570.38, -187500.02, 56759.08, 16064.53, 170402.92, 1362.03, 6393.56, -5352.44, 58114.00, 7659.23, 0.000, 0.000, 0.000, 16:35:24.452
110, -187500.02, -52706.55, 133989.11, 141514.14, -30363.77, -41805.25, -32570.38, -187500.02, 56757.43, 16070.66, 170402.78, 1363.21, 6392.80, -5350.43, 58101.82, 7647.07, 0.000, 0.000, 0.000, 16:35:24.452
111, -187500.02, -52693.90, 133988.84, 141516.00, -30371.21, -41801.00, -32589.67, -187500.02, 56757.43, 16070.66, 170402.78, 1363.21, 6392.80, -5350.43, 58101.82, 7647.07, 0.000, 0.000, 0.000, 16:35:24.453
112, -187500.02, -52693.90, 133988.84, 141516.00, -30371.21, -41801.00, -32589.67, -187500.02, 56754.74, 16062.34, 170402.98, 1360.26, 6387.73, -5348.79, 58104.39, 7643.80, 0.000, 0.000, 0.000, 16:35:24.453
113, -187500.02, -52707.78, 133980.42, 141507.09, -30348.97, -41807.91, -32574.76, -187500.02, 56754.74, 16062.34, 170402.98, 1360.26, 6387.73, -5348.79, 58104.39, 7643.80, 0.000, 0.000, 0.000, 16:35:24.454
114, -187500.02, -52707.78, 133980.42, 141507.09, -30348.97, -41807.91, -32574.76, -187500.02, 56753.36, 16082.64, 170382.67, 1349.93, 6372.06, -5373.25, 58142.32, 7675.50, 0.000, 0.000, 0.000, 16:35:24.454
115, -187500.02, -52660.60, 133980.27, 141512.47, -30332.59, -41811.26, -32552.70, -187500.02, 56753.36, 16082.64, 170382.67, 1349.93, 6372.06, -5373.25, 58142.32, 7675.50, 0.000, 0.000, 0.000, 16:35:24.455
116, -187500.02, -52660.60, 133980.27, 141512.47, -30332.59, -41811.26, -32552.70, -187500.02, 56764.96, 16109.97, 170416.84, 1371.44, 6402.99, -5352.62, 58147.50, 7670.40, 0.022, 0.916, -0.236, 16:35:24.455
117, -187500.02, -52682.25, 133998.88, 141528.72, -30350.61, -41800.33, -32567.88, -187500.02, 56764.96, 16109.97, 170416.84, 1371.44, 6402.99, -5352.62, 58147.50, 7670.40, 0.000, 0.000, 0.000, 16:35:24.455
118, -187500.02, -52682.25, 133998.88, 141528.72, -30350.61, -41800.33, -32567.88, -187500.02, 56754.07, 16081.95, 170399.25, 1356.48, 6387.10, -5368.82, 58148.31, 7657.31, 0.000, 0.000, 0.000, 16:35:24.456
119, -187500.02, -52689.27, 133997.03, 141523.06, -30341.58, -41803.91, -32559.23, -187500.02, 56754.07, 16081.95, 170399.25, 1356.48, 6387.10, -5368.82, 58148.31, 7657.31, 0.000, 0.000, 0.000, 16:35:24.456
120, -187500.02, -52689.27, 133997.03, 141523.06, -30341.58, -41803.91, -32559.23, -187500.02, 56760.18, 16111.76, 170402.52, 1365.76, 6393.90, -5359.70, 58151.79, 7654.87, 0.000, 0.000, 0.000, 16:35:24.457
121, -187500.02, -52664.91, 134001.08, 141528.83, -30333.30, -41808.36, -32566.96, -187500.02, 56760.18, 16111.76, 170402.52, 1365.76, 6393.90, -5359.70, 58151.79, 7654.87, 0.000, 0.000, 0.000, 16:35:24.877
122, -187500.02, -52664.91, 134001.08, 141528.83, -30333.30, -41808.36, -32566.96, -187500.02, 56770.10, 16103.60, 170423.58, 1377.63, 6413.23, -5348.35, 58148.96, 7642.93, 0.000, 0.000, 0.000, 16:35:24.878
123, -187500.02, -52711.71, 134009.44, 141532.45, -30340.82, -41800.38, -32584.44, -187500.02, 56770.10, 16103.60, 170423.58, 1377.63, 6413.23, -5348.35, 58148.96, 7642.93, 0.000, 0.000, 0.000, 16:35:24.878
124, -187500.02, -52711.71, 134009.44, 141532.45, -30340.82, -41800.38, -32584.44, -187500.02, 56762.77, 16090.84, 170415.28, 1373.38, 6399.55, -5386.81, 58149.18, 7634.62, 0.000, 0.000, 0.000, 16:35:24.878
125, -187500.02, -52672.00, 134006.28, 141524.73, -30331.67, -41807.46, -32574.29, -187500.02, 56762.77, 16090.84, 170415.28, 1373.38, 6399.55, -5386.81, 58149.18, 7634.62, 0.000, 0.000, 0.000, 16:35:24.879
126, -187500.02, -52672.00, 134006.28, 141524.73, -30331.67, -41807.46, -32574.29, -187500.02, 56765.79, 16122.58, 170424.53, 1372.69, 6402.30, -5385.12, 58155.30, 7632.99, 0.022, 0.916, -0.236, 16:35:24.879
127, -187500.02, -52680.94, 134012.06, 141526.28, -30331.12, -41810.55, -32578.87, -187500.02, 56765.79, 16122.58, 170424.53, 1372.69, 6402.30, -5385.12, 58155.30, 7632.99, 0.000, 0.000, 0.000, 16:35:24.880
128, -187500.02, -52680.94, 134012.06, 141526.28, -30331.12, -41810.55, -32578.87, -187500.02, 56767.48, 16087.85, 170435.91, 1376.51, 6411.66, -5372.22, 58145.76, 7615.80, 0.000, 0.000, 0.000, 16:35:24.881
129, -187500.02, -52709.43, 134015.75, 141529.77, -30338.76, -41805.41, -32592.64, -187500.02, 56767.48, 16087.85, 170435.91, 1376.51, 6411.66, -5372.22, 58145.76, 7615.80, 0.000, 0.000, 0.000, 16:35:24.881
130, -187500.02, -52709.43, 134015.75, 141529.77, -30338.76, -41805.41, -32592.64, -187500.02, 56763.30, 16106.13, 170423.94, 1375.15, 6400.02, -5376.85, 58136.41, 7610.50, 0.000, 0.000, 0.000, 16:35:24.882
131, -187500.02, -52666.12, 134006.19, 141514.33, -30333.71, -41818.04, -32578.52, -187500.02, 56763.30, 16106.13, 170423.94, 1375.15, 6400.02, -5376.85, 58136.41, 7610.50, 0.000, 0.000, 0.000, 16:35:24.882
132, -187500.02, -52666.12, 134006.19, 141514.33, -30333.71, -41818.04, -32578.52, -187500.02, 56774.28, 16118.47, 170435.23, 1388.98, 6409.79, -5389.27, 58151.46, 7624.92, 0.000, 0.000, 0.000, 16:35:24.882
133, -187500.02, -52714.09, 134019.00, 141534.13, -30345.91, -41804.67, -32600.31, -187500.02, 56774.28, 16118.47, 170435.23, 1388.98, 6409.79, -5389.27, 58151.46, 7624.92, 0.000, 0.000, 0.000, 16:35:24.883
134, -187500.02, -52714.09, 134019.00, 141534.13, -30345.91, -41804.67, -32600.31, -187500.02, 56768.58, 16087.13, 170440.36, 1409.81, 6414.59, -5373.02, 58129.60, 7605.83, 0.000, 0.000, 0.000, 16:35:24.883
135, -187500.02, -52703.18, 134020.88, 141536.14, -30333.80, -41799.01, -32613.45, -187500.02, 56768.58, 16087.13, 170440.36, 1409.81, 6414.59, -5373.02, 58129.60, 7605.83, 0.000, 0.000, 0.000, 16:35:24.883
136, -187500.02, -52703.18, 134020.88, 141536.14, -30333.80, -41799.01, -32613.45, -187500.02, 56764.93, 16121.08, 170422.59, 1404.54, 6399.28, -5378.14, 58143.99, 7620.74, 0.016, 0.916, -0.240, 16:35:24.884
137, -187500.02, -52691.38, 134007.38, 141524.47, -30312.65, -41811.33, -32594.88, -187500.02, 56764.93, 16121.08, 170422.59, 1404.54, 6399.28, -5378.14, 58143.99, 7620.74, 0.000, 0.000, 0.000, 16:35:24.884
138, -187500.02, -52691.38, 134007.38, 141524.47, -30312.65, -41811.33, -32594.88, -187500.02, 56781.77, 16106.89, 170442.55, 1424.45, 6416.34, -5373.45, 58160.87, 7633.43, 0.000, 0.000, 0.000, 16:35:24.885
139, -187500.02, -52711.16, 134008.61, 141527.53, -30311.87, -41810.14, -32599.50, -187500.02, 56781.77, 16106.89, 170442.55, 1424.45, 6416.34, -5373.45, 58160.87, 7633.43, 0.000, 0.000, 0.000, 16:35:24.885
140, -187500.02, -52711.16, 134008.61, 141527.53, -30311.87, -41810.14, -32599.50, -187500.02, 56774.75, 16136.22, 170427.39, 1418.69, 6399.77, -5376.15, 58168.74, 7638.26, 0.000, 0.000, 0.000, 16:35:24.885
141, -187500.02, -52665.67, 134010.45, 141525.83, -30305.21, -41811.98, -32589.85, -187500.02, 56774.75, 16136.22, 170427.39, 1418.69, 6399.77, -5376.15, 58168.74, 7638.26, 0.000, 0.000, 0.000, 16:35:24.886
142, -187500.02, -52665.67, 134010.45, 141525.83, -30305.21, -41811.98, -32589.85, -187500.02, 56779.96, 16144.53, 170439.84, 1423.72, 6413.77, -5400.14, 58175.44, 7631.40, 0.000, 0.000, 0.000, 16:35:24.886
143, -187500.02, -52700.98, 134025.39, 141542.50, -30309.30, -41796.42, -32592.44, -187500.02, 56779.96, 16144.53, 170439.84, 1423.72, 6413.77, -5400.14, 58175.44, 7631.40, 0.000, 0.000, 0.000, 16:35:24.886
144, -187500.02, -52700.98, 134025.39, 141542.50, -30309.30, -41796.42, -32592.44, -187500.02, 56776.74, 16123.54, 170446.66, 1431.38, 6421.12, -5386.35, 58162.30, 7614.55, 0.000, 0.000, 0.000, 16:35:24.887
145, -187500.02, -52673.79, 134021.86, 141537.98, -30291.40, -41818.35, -32586.65, -187500.02, 56776.74, 16123.54, 170446.66, 1431.38, 6421.12, -5386.35, 58162.30, 7614.55, 0.000, 0.000, 0.000, 16:35:24.888
146, -187500.02, -52673.79, 134021.86, 141537.98, -30291.40, -41818.35, -32586.65, -187500.02, 56783.84, 16151.42, 170464.34, 1445.20, 6438.06, -5373.45, 58158.37, 7619.80, 0.016, 0.912, -0.246, 16:35:24.888
147, -187500.02, -52694.39, 134035.22, 141550.67, -30289.16, -41799.84, -32603.24, -187500.02, 56783.84, 16151.42, 170464.34, 1445.20, 6438.06, -5373.45, 58158.37, 7619.80, 0.000, 0.000, 0.000, 16:35:24.889
148, -187500.02, -52694.39, 134035.22, 141550.67, -30289.16, -41799.84, -32603.24, -187500.02, 56780.22, 16128.28, 170447.47, 1439.34, 6421.88, -5375.53, 58163.93, 7622.62, 0.000, 0.000, 0.000, 16:35:24.889
149, -187500.02, -52695.06, 134023.73, 141542.64, -30276.29, -41807.89, -32589.31, -187500.02, 56780.22, 16128.28, 170447.47, 1439.34, 6421.88, -5375.53, 58163.93, 7622.62, 0.000, 0.000, 0.000, 16:35:24.890
150, -187500.02, -52695.06, 134023.73, 141542.64, -30276.29, -41807.89, -32589.31, -187500.02, 56792.63, 16146.56, 170466.31, 1456.77, 6440.77, -5364.49, 58159.97, 7617.83, 0.000, 0.000, 0.000, 16:35:24.890
151, -187500.02, -52678.66, 134031.84, 141546.23, -30281.38, -41801.52, -32604.98, -187500.02, 56792.63, 16146.56, 170466.31, 1456.77, 6440.77, -5364.49, 58159.97, 7617.83, 0.000, 0.000, 0.000, 16:35:24.890
152, -187500.02, -52678.66, 134031.84, 141546.23, -30281.38, -41801.52, -32604.98, -187500.02, 56791.18, 16148.24, 170458.78, 1448.39, 6435.51, -5370.99, 58167.71, 7619.42, 0.000, 0.000, 0.000, 16:35:24.891
153, -187500.02, -52709.84, 134030.42, 141542.39, -30282.37, -41807.26, -32603.17, -187500.02, 56791.18, 16148.24, 170458.78, 1448.39, 6435.51, -5370.99, 58167.71, 7619.42, 0.000, 0.000, 0.000, 16:35:24.891
154, -187500.02, -52709.84, 134030.42, 141542.39, -30282.37, -41807.26, -32603.17, -187500.02, 56796.36, 16135.28, 170462.78, 1451.30, 6442.69, -5392.81, 58165.85, 7615.42, 0.000, 0.000, 0.000, 16:35:24.892
155, -187500.02, -52693.95, 134027.78, 141541.50, -30285.56, -41807.24, -32611.46, -187500.02, 56796.36, 16135.28, 170462.78, 1451.30, 6442.69, -5392.81, 58165.85, 7615.42, 0.000, 0.000, 0.000, 16:35:24.892
156, -187500.02, -52693.95, 134027.78, 141541.50, -30285.56, -41807.24, -32611.46, -187500.02, 56793.19, 16173.52, 170443.28, 1440.08, 6426.33, -5403.29, 58184.09, 7632.03, 0.016, 0.914, -0.242, 16:35:24.892
157, -187500.02, -52663.95, 134013.05, 141526.75, -30276.06, -41821.50, -32579.23, -187500.02, 56793.19, 16173.52, 170443.28, 1440.08, 6426.33, -5403.29, 58184.09, 7632.03, 0.000, 0.000, 0.000, 16:35:24.893
158, -187500.02, -52663.95, 134013.05, 141526.75, -30276.06, -41821.50, -32579.23, -187500.02, 56813.10, 16173.77, 170468.86, 1453.02, 6452.73, -5372.40, 58212.28, 7651.29, 0.000, 0.000, 0.000, 16:35:24.893
159, -187500.02, -52706.46, 134029.30, 141546.03, -30307.67, -41804.06, -32606.88, -187500.02, 56813.10, 16173.77, 170468.86, 1453.02, 6452.73, -5372.40, 58212.28, 7651.29, 0.000, 0.000, 0.000, 16:35:24.894
160, -187500.02, -52706.46, 134029.30, 141546.03, -30307.67, -41804.06, -32606.88, -187500.02, 56808.43, 16167.71, 170467.05, 1463.79, 6454.56, -5391.91, 58193.97, 7634.66, 0.000, 0.000, 0.000, 16:35:24.894
161, -187500.02, -52684.20, 134025.97, 141535.59, -30312.25, -41809.41, -32613.54, -187500.02, 56808.43, 16167.71, 170467.05, 1463.79, 6454.56, -5391.91, 58193.97, 7634.66, 0.000, 0.000, 0.000, 16:35:24.894
162, -187500.02, -52684.20, 134025.97, 141535.59, -30312.25, -41809.41, -32613.54, -187500.02, 56813.08, 16163.15, 170472.08, 1468.93, 6458.92, -5378.03, 58203.76, 7638.24, 0.000, 0.000, 0.000, 16:35:24.895
163, -187500.02, -52730.60, 134029.58, 141539.31, -30318.49, -41801.88, -32625.03, -187500.02, 56813.08, 16163.15, 170472.08, 1468.93, 6458.92, -5378.03, 58203.76, 7638.24, 0.000, 0.000, 0.000, 16:35:24.895
164, -187500.02, -52730.60, 134029.58, 141539.31, -30318.49, -41801.88, -32625.03, -187500.02, 56818.73, 16139.48, 170484.02, 1485.54, 6467.37, -5379.93, 58200.14, 7629.43, 0.000, 0.000, 0.000, 16:35:24.896
165, -187500.02, -52709.03, 134020.94, 141531.52, -30304.96, -41810.05, -32627.09, -187500.02, 56818.73, 16139.48, 170484.02, 1485.54, 6467.37, -5379.93, 58200.14, 7629.43, 0.000, 0.000, 0.000, 16:35:24.896
166, -187500.02, -52709.03, 134020.94, 141531.52, -30304.96, -41810.05, -32627.09, -187500.02, 56818.22, 16184.07, 170469.22, 1471.42, 6451.72, -5359.61, 58224.10, 7654.80, 0.020, 0.918, -0.234, 16:35:24.896
167, -187500.02, -52705.14, 134022.67, 141536.61, -30293.45, -41814.70, -32617.50, -187500.02, 56818.22, 16184.07, 170469.22, 1471.42, 6451.72, -5359.61, 58224.10, 7654.80, 0.000, 0.000, 0.000, 16:35:24.897
168, -187500.02, -52705.14, 134022.67, 141536.61, -30293.45, -41814.70, -32617.50, -187500.02, 56824.52, 16169.12, 170468.81, 1469.63, 6456.03, -5400.90, 58245.11, 7664.28, 0.000, 0.000, 0.000, 16:35:24.897
169, -187500.02, -52699.93, 134017.45, 141535.08, -30281.81, -41820.71, -32595.95, -187500.02, 56824.52, 16169.12, 170468.81, 1469.63, 6456.03, -5400.90, 58245.11, 7664.28, 0.000, 0.000, 0.000, 16:35:24.897
170, -187500.02, -52699.93, 134017.45, 141535.08, -30281.81, -41820.71, -32595.95, -187500.02, 56826.04, 16208.84, 170469.55, 1471.26, 6455.05, -5399.82, 58269.27, 7683.77, 0.000, 0.000, 0.000, 16:35:24.898
171, -187500.02, -52667.97, 134028.25, 141544.58, -30289.52, -41819.57, -32596.67, -187500.02, 56826.04, 16208.84, 170469.55, 1471.26, 6455.05, -5399.82, 58269.27, 7683.77, 0.000, 0.000, 0.000, 16:35:24.898
172, -187500.02, -52667.97, 134028.25, 141544.58, -30289.52, -41819.57, -32596.67, -187500.02, 56828.91, 16189.01, 170493.17, 1485.23, 6474.72, -5387.24, 58251.64, 7658.31, 0.000, 0.000, 0.000, 16:35:24.898
173, -187500.02, -52701.25, 134026.52, 141539.84, -30292.80, -41818.93, -32598.90, -187500.02, 56828.91, 16189.01, 170493.17, 1485.23, 6474.72, -5387.24, 58251.64, 7658.31, 0.000, 0.000, 0.000, 16:35:24.899
174, -187500.02, -52701.25, 134026.52, 141539.84, -30292.80, -41818.93, -32598.90, -187500.02, 56817.64, 16196.10, 170467.92, 1470.97, 6447.87, -5407.27, 58272.49, 7670.54, 0.000, 0.000, 0.000, 16:35:24.899
175, -187500.02, -52662.72, 134031.45, 141545.77, -30286.88, -41819.71, -32585.00, -187500.02, 56817.64, 16196.10, 170467.92, 1470.97, 6447.87, -5407.27, 58272.49, 7670.54, 0.000, 0.000, 0.000, 16:35:24.900
176, -187500.02, -52662.72, 134031.45, 141545.77, -30286.88, -41819.71, -32585.00, -187500.02, 56822.27, 16224.73, 170481.67, 1485.01, 6459.16, -5395.85, 58275.42, 7669.13, 0.022, 0.918, -0.242, 16:35:24.900
177, -187500.02, -52662.63, 134033.80, 141547.06, -30294.30, -41818.48, -32583.97, -187500.02, 56822.27, 16224.73, 170481.67, 1485.01, 6459.16, -5395.85, 58275.42, 7669.13, 0.000, 0.000, 0.000, 16:35:24.900
178, -187500.02, -52662.63, 134033.80, 141547.06, -30294.30, -41818.48, -32583.97, -187500.02, 56826.25, 16200.39, 170490.00, 1486.93, 6469.00, -5404.54, 58273.66, 7662.71, 0.000, 0.000, 0.000, 16:35:24.901
179, -187500.02, -52672.00, 134030.02, 141536.09, -30300.18, -41825.50, -32576.66, -187500.02, 56826.25, 16200.39, 170490.00, 1486.93, 6469.00, -5404.54, 58273.66, 7662.71, 0.000, 0.000, 0.000, 16:35:24.901
180, -187500.02, -52672.00, 134030.02, 141536.09, -30300.18, -41825.50, -32576.66, -187500.02, 56826.00, 16240.26, 170475.41, 1475.60, 6457.64, -5410.19, 58289.91, 7680.80, 0.000, 0.000, 0.000, 16:35:24.902
181, -187500.02, -52645.09, 134035.20, 141544.52, -30311.00, -41826.89, -32584.17, -187500.02, 56826.00, 16240.26, 170475.41, 1475.60, 6457.64, -5410.19, 58289.91, 7680.80, 0.000, 0.000, 0.000, 16:35:24.902
182, -187500.02, -52645.09, 134035.20, 141544.52, -30311.00, -41826.89, -32584.17, -187500.02, 56833.36, 16219.68, 170502.63, 1500.32, 6479.39, -5400.05, 58266.82, 7658.02, 0.000, 0.000, 0.000, 16:35:24.902
183, -187500.02, -52690.66, 134037.69, 141550.73, -30307.62, -41818.61, -32595.08, -187500.02, 56833.36, 16219.68, 170502.63, 1500.32, 6479.39, -5400.05, 58266.82, 7658.02, 0.000, 0.000, 0.000, 16:35:24.903
184, -187500.02, -52690.66, 134037.69, 141550.73, -30307.62, -41818.61, -32595.08, -187500.02, 56825.48, 16215.81, 170486.45, 1491.51, 6458.96, -5387.84, 58276.94, 7665.49, 0.000, 0.000, 0.000, 16:35:24.903
185, -187500.02, -52667.50, 134042.92, 141557.64, -30306.93, -41817.92, -32594.07, -187500.02, 56825.48, 16215.81, 170486.45, 1491.51, 6458.96, -5387.84, 58276.94, 7665.49, 0.000, 0.000, 0.000, 16:35:24.904
186, -187500.02, -52667.50, 134042.92, 141557.64, -30306.93, -41817.92, -32594.07, -187500.02, 56828.70, 16236.87, 170500.78, 1501.72, 6476.89, -5398.75, 58275.29, 7657.19, 0.024, 0.918, -0.238, 16:35:24.904
187, -187500.02, -52657.78, 134041.39, 141547.17, -30298.39, -41829.75, -32585.31, -187500.02, 56828.70, 16236.87, 170500.78, 1501.72, 6476.89, -5398.75, 58275.29, 7657.19, 0.000, 0.000, 0.000, 16:35:24.905
188, -187500.02, -52657.78, 134041.39, 141547.17, -30298.39, -41829.75, -32585.31, -187500.02, 56836.55, 16233.16, 170498.23, 1498.93, 6476.24, -5406.91, 58301.91, 7675.97, 0.000, 0.000, 0.000, 16:35:24.905
189, -187500.02, -52675.19, 134044.59, 141549.97, -30299.49, -41831.11, -32592.80, -187500.02, 56836.55, 16233.16, 170498.23, 1498.93, 6476.24, -5406.91, 58301.91, 7675.97, 0.000, 0.000, 0.000, 16:35:24.905
190, -187500.02, -52675.19, 134044.59, 141549.97, -30299.49, -41831.11, -32592.80, -187500.02, 56839.88, 16250.97, 170494.31, 1512.16, 6476.78, -5394.86, 58294.55, 7673.73, 0.000, 0.000, 0.000, 16:35:24.906
191, -187500.02, -52635.43, 134034.83, 141540.16, -30292.74, -41846.96, -32587.88, -187500.02, 56839.88, 16250.97, 170494.31, 1512.16, 6476.78, -5394.86, 58294.55, 7673.73, 0.000, 0.000, 0.000, 16:35:24.906
192, -187500.02, -52635.43, 134034.83, 141540.16, -30292.74, -41846.96, -32587.88, -187500.02, 56850.18, 16265.10, 170506.30, 1523.54, 6491.55, -5378.28, 58306.73, 7688.55, 0.000, 0.000, 0.000, 16:35:24.906
193, -187500.02, -52677.02, 134050.69, 141559.63, -30307.71, -41845.06, -32598.65, -187500.02, 56850.18, 16265.10, 170506.30, 1523.54, 6491.55, -5378.28, 58306.73, 7688.55, 0.000, 0.000, 0.000, 16:35:24.907
194, -187500.02, -52677.02, 134050.69, 141559.63, -30307.71, -41845.06, -32598.65, -187500.02, 56848.66, 16232.84, 170525.97, 1544.10, 6507.31, -5345.67, 58286.57, 7662.54, 0.000, 0.000, 0.000, 16:35:24.907
195, -187500.02, -52676.33, 134055.55, 141561.45, -30318.49, -41842.40, -32617.07, -187500.02, 56848.66, 16232.84, 170525.97, 1544.10, 6507.31, -5345.67, 58286.57, 7662.54, 0.000, 0.000, 0.000, 16:35:24.908
196, -187500.02, -52676.33, 134055.55, 141561.45, -30318.49, -41842.40, -32617.07, -187500.02, 56841.16, 16260.71, 170501.36, 1523.70, 6481.13, -5388.98, 58288.63, 7661.48, 0.020, 0.916, -0.234, 16:35:24.908
197, -187500.02, -52645.46, 134038.00, 141542.28, -30298.12, -41863.05, -32580.19, -187500.02, 56841.16, 16260.71, 170501.36, 1523.70, 6481.13, -5388.98, 58288.63, 7661.48, 0.000, 0.000, 0.000, 16:35:24.908
198, -187500.02, -52645.46, 134038.00, 141542.28, -30298.12, -41863.05, -32580.19, -187500.02, 56855.37, 16261.03, 170523.48, 1534.29, 6496.69, -5377.45, 58315.41, 7677.62, 0.000, 0.000, 0.000, 16:35:24.909
199, -187500.02, -52676.15, 134051.39, 141557.23, -30310.06, -41849.08, -32596.98, -187500.02, 56855.37, 16261.03, 170523.48, 1534.29, 6496.69, -5377.45, 58315.41, 7677.62, 0.000, 0.000, 0.000, 16:35:24.910
200, -187500.02, -52676.15, 134051.39, 141557.23, -30310.06, -41849.08, -32596.98, -187500.02, 56850.81, 16279.02, 170506.88, 1536.44, 6482.25, -5399.33, 58311.25, 7678.27, 0.000, 0.000, 0.000, 16:35:24.910
201, -187500.02, -52622.42, 134038.58, 141541.02, -30286.66, -41861.38, -32576.97, -187500.02, 56850.81, 16279.02, 170506.88, 1536.44, 6482.25, -5399.33, 58311.25, 7678.27, 0.000, 0.000, 0.000, 16:35:24.910
202, -187500.02, -52622.42, 134038.58, 141541.02, -30286.66, -41861.38, -32576.97, -187500.02, 56860.20, 16297.68, 170522.91, 1544.33, 6496.38, -5371.53, 58331.95, 7688.04, 0.000, 0.000, 0.000, 16:35:24.911
203, -187500.02, -52663.97, 134055.05, 141559.98, -30300.20, -41852.86, -32587.50, -187500.02, 56860.20, 16297.68, 170522.91, 1544.33, 6496.38, -5371.53, 58331.95, 7688.04, 0.000, 0.000, 0.000, 16:35:24.912
204, -187500.02, -52663.97, 134055.05, 141559.98, -30300.20, -41852.86, -32587.50, -187500.02, 56856.18, 16261.14, 170533.86, 1563.71, 6505.59, -5360.89, 58312.44, 7646.55, 0.000, 0.000, 0.000, 16:35:24.912
205, -187500.02, -52650.11, 134054.58, 141555.09, -30314.08, -41860.64, -32596.06, -187500.02, 56856.18, 16261.14, 170533.86, 1563.71, 6505.59, -5360.89, 58312.44, 7646.55, 0.018, 0.912, -0.236, 16:35:24.913
206, -187500.02, -52650.11, 134054.58, 141555.09, -30314.08, -41860.64, -32596.06, -187500.02, 56859.26, 16299.96, 170527.23, 1557.69, 6499.98, -5395.93, 58321.67, 7650.13, 0.000, 0.000, 0.000, 16:35:24.913
207, -187500.02, -52663.37, 134067.22, 141562.98, -30338.49, -41847.83, -32606.72, -187500.02, 56859.26, 16299.96, 170527.23, 1557.69, 6499.98, -5395.93, 58321.67, 7650.13, 0.000, 0.000, 0.000, 16:35:24.913
208, -187500.02, -52663.37, 134067.22, 141562.98, -30338.49, -41847.83, -32606.72, -187500.02, 56866.14, 16256.13, 170541.45, 1566.99, 6519.60, -5383.80, 58299.79, 7626.62, 0.000, 0.000, 0.000, 16:35:24.914
209, -187500.02, -52693.03, 134070.45, 141563.50, -30333.44, -41847.05, -32618.28, -187500.02, 56866.14, 16256.13, 170541.45, 1566.99, 6519.60, -5383.80, 58299.79, 7626.62, 0.000, 0.000, 0.000, 16:35:24.914
210, -187500.02, -52693.03, 134070.45, 141563.50, -30333.44, -41847.05, -32618.28, -187500.02, 56860.91, 16269.97, 170536.00, 1569.07, 6510.91, -5378.14, 58291.52, 7627.09, 0.000, 0.000, 0.000, 16:35:24.914
211, -187500.02, -52665.34, 134077.06, 141571.70, -30334.45, -41804.58, -32619.62, -187500.02, 56860.91, 16269.97, 170536.00, 1569.07, 6510.91, -5378.14, 58291.52, 7627.09, 0.000, 0.000, 0.000, 16:35:24.915
212, -187500.02, -52665.34, 134077.06, 141571.70, -30334.45, -41804.58, -32619.62, -187500.02, 56870.97, 16259.11, 170565.64, 1587.20, 6536.23, -5319.27, 58277.86, 7620.07, 0.000, 0.000, 0.000, 16:35:24.915
213, -187500.02, -52738.67, 134100.58, 141593.16, -30351.46, -41776.97, -32650.78, -187500.02, 56870.97, 16259.11, 170565.64, 1587.20, 6536.23, -5319.27, 58277.86, 7620.07, 0.000, 0.000, 0.000, 16:35:24.916
214, -187500.02, -52738.67, 134100.58, 141593.16, -30351.46, -41776.97, -32650.78, -187500.02, 56853.05, 16233.78, 170530.84, 1572.60, 6505.16, -5389.92, 58268.29, 7611.13, 0.000, 0.000, 0.000, 16:35:24.916
215, -187500.02, -52688.56, 134079.53, 141569.91, -30317.28, -41809.56, -32614.19, -187500.02, 56853.05, 16233.78, 170530.84, 1572.60, 6505.16, -5389.92, 58268.29, 7611.13, 0.022, 0.904, -0.240, 16:35:24.917
216, -187500.02, -52688.56, 134079.53, 141569.91, -30317.28, -41809.56, -32614.19, -187500.02, 56866.08, 16288.99, 170540.09, 1578.57, 6513.99, -5386.79, 58296.95, 7642.87, 0.000, 0.000, 0.000, 16:35:24.917
217, -187500.02, -52672.80, 134079.14, 141566.72, -30292.22, -41803.64, -32596.38, -187500.02, 56866.08, 16288.99, 170540.09, 1578.57, 6513.99, -5386.79, 58296.95, 7642.87, 0.000, 0.000, 0.000, 16:35:24.917
218, -187500.02, -52672.80, 134079.14, 141566.72, -30292.22, -41803.64, -32596.38, -187500.02, 56869.72, 16289.39, 170532.50, 1574.93, 6511.98, -5379.62, 58326.09, 7664.95, 0.000, 0.000, 0.000, 16:35:24.918
219, -187500.02, -52681.61, 134080.05, 141573.17, -30281.52, -41798.21, -32588.37, -187500.02, 56869.72, 16289.39, 170532.50, 1574.93, 6511.98, -5379.62, 58326.09, 7664.95, 0.000, 0.000, 0.000, 16:35:24.918
220, -187500.02, -52681.61, 134080.05, 141573.17, -30281.52, -41798.21, -32588.37, -187500.02, 56880.00, 16293.75, 170560.97, 1601.32, 6542.22, -5334.62, 58312.04, 7647.05, 0.000, 0.000, 0.000, 16:35:24.918
221, -187500.02, -52699.00, 134092.80, 141589.16, -30300.36, -41779.63, -32629.48, -187500.02, 56880.00, 16293.75, 170560.97, 1601.32, 6542.22, -5334.62, 58312.04, 7647.05, 0.000, 0.000, 0.000, 16:35:24.919
222, -187500.02, -52699.00, 134092.80, 141589.16, -30300.36, -41779.63, -32629.48, -187500.02, 56873.92, 16263.51, 170557.06, 1601.46, 6538.58, -5327.02, 58292.39, 7622.24, 0.000, 0.000, 0.000, 16:35:24.919
223, -187500.02, -52727.88, 134081.50, 141574.42, -30280.98, -41793.92, -32617.23, -187500.02, 56873.92, 16263.51, 170557.06, 1601.46, 6538.58, -5327.02, 58292.39, 7622.24, 0.000, 0.000, 0.000, 16:35:24.921
224, -187500.02, -52727.88, 134081.50, 141574.42, -30280.98, -41793.92, -32617.23, -187500.02, 56875.62, 16275.49, 170545.50, 1596.18, 6524.05, -5376.96, 58327.01, 7645.68, 0.000, 0.000, 0.000, 16:35:24.922
225, -187500.02, -52707.09, 134089.03, 141581.91, -30277.76, -41794.48, -32614.41, -187500.02, 56875.62, 16275.49, 170545.50, 1596.18, 6524.05, -5376.96, 58327.01, 7645.68, 0.016, 0.912, -0.238, 16:35:24.922
226, -187500.02, -52707.09, 134089.03, 141581.91, -30277.76, -41794.48, -32614.41, -187500.02, 56876.27, 16293.42, 170561.03, 1612.50, 6536.12, -5359.17, 58323.90, 7644.72, 0.000, 0.000, 0.000, 16:35:24.923
227, -187500.02, -52705.12, 134087.23, 141572.64, -30265.85, -41802.12, -32605.99, -187500.02, 56876.27, 16293.42, 170561.03, 1612.50, 6536.12, -5359.17, 58323.90, 7644.72, 0.000, 0.000, 0.000, 16:35:24.923
228, -187500.02, -52705.12, 134087.23, 141572.64, -30265.85, -41802.12, -32605.99, -187500.02, 56878.75, 16290.35, 170540.81, 1594.75, 6516.61, -5357.18, 58353.09, 7674.61, 0.000, 0.000, 0.000, 16:35:24.924
229, -187500.02, -52715.61, 134096.17, 141576.59, -30261.22, -41807.53, -32593.25, -187500.02, 56878.75, 16290.35, 170540.81, 1594.75, 6516.61, -5357.18, 58353.09, 7674.61, 0.000, 0.000, 0.000, 16:35:24.924
230, -187500.02, -52715.61, 134096.17, 141576.59, -30261.22, -41807.53, -32593.25, -187500.02, 56880.61, 16304.59, 170550.80, 1605.68, 6527.65, -5319.89, 58345.41, 7667.65, 0.000, 0.000, 0.000, 16:35:24.925
231, -187500.02, -52671.73, 134089.98, 141562.83, -30249.33, -41819.80, -32576.30, -187500.02, 56880.61, 16304.59, 170550.80, 1605.68, 6527.65, -5319.89, 58345.41, 7667.65, 0.000, 0.000, 0.000, 16:35:24.925
232, -187500.02, -52671.73, 134089.98, 141562.83, -30249.33, -41819.80, -32576.30, -187500.02, 56895.00, 16332.73, 170560.44, 1603.85, 6537.80, -5357.96, 58376.21, 7692.15, 0.000, 0.000, 0.000, 16:35:24.927
233, -187500.02, -52698.24, 134097.45, 141566.56, -30245.06, -41816.20, -32571.94, -187500.02, 56895.00, 16332.73, 170560.44, 1603.85, 6537.80, -5357.96, 58376.21, 7692.15, 0.000, 0.000, 0.000, 16:35:24.927
234, -187500.02, -52698.24, 134097.45, 141566.56, -30245.06, -41816.20, -32571.94, -187500.02, 56895.85, 16336.62, 170563.70, 1614.47, 6541.17, -5364.71, 58388.77, 7703.04, 0.000, 0.000, 0.000, 16:35:24.928
235, -187500.02, -52658.03, 134094.06, 141560.48, -30227.83, -41827.73, -32553.59, -187500.02, 56895.85, 16336.62, 170563.70, 1614.47, 6541.17, -5364.71, 58388.77, 7703.04, 0.020, 0.912, -0.238, 16:35:24.929
236, -187500.02, -52658.03, 134094.06, 141560.48, -30227.83, -41827.73, -32553.59, -187500.02, 56908.97, 16371.80, 170584.27, 1634.65, 6562.14, -5350.25, 58394.09, 7708.62, 0.000, 0.000, 0.000, 16:35:24.929
237, -187500.02, -52687.57, 134103.56, 141570.80, -30251.41, -41822.10, -32584.75, -187500.02, 56908.97, 16371.80, 170584.27, 1634.65, 6562.14, -5350.25, 58394.09, 7708.62, 0.000, 0.000, 0.000, 16:35:24.930
238, -187500.02, -52687.57, 134103.56, 141570.80, -30251.41, -41822.10, -32584.75, -187500.02, 56904.05, 16320.93, 170582.77, 1640.31, 6563.57, -5335.47, 58371.29, 7682.03, 0.000, 0.000, 0.000, 16:35:24.930
239, -187500.02, -52699.82, 134094.81, 141562.48, -30250.27, -41830.73, -32578.78, -187500.02, 56904.05, 16320.93, 170582.77, 1640.31, 6563.57, -5335.47, 58371.29, 7682.03, 0.000, 0.000, 0.000, 16:35:24.930
240, -187500.02, -52699.82, 134094.81, 141562.48, -30250.27, -41830.73, -32578.78, -187500.02, 56897.79, 16361.92, 170558.52, 1624.90, 6538.82, -5331.92, 58391.63, 7699.10, 0.000, 0.000, 0.000, 16:35:24.931
241, -187500.02, -52638.60, 134088.67, 141554.52, -30249.40, -41843.07, -32551.29, -187500.02, 56897.79, 16361.92, 170558.52, 1624.90, 6538.82, -5331.92, 58391.63, 7699.10, 0.000, 0.000, 0.000, 16:35:25.357
242, -187500.02, -52638.60, 134088.67, 141554.52, -30249.40, -41843.07, -32551.29, -187500.02, 56915.99, 16369.21, 170597.66, 1642.79, 6579.03, -5327.74, 58392.72, 7695.77, 0.000, 0.000, 0.000, 16:35:25.357
243, -187500.02, -52714.00, 134114.80, 141579.41, -30295.04, -41816.87, -32595.35, -187500.02, 56915.99, 16369.21, 170597.66, 1642.79, 6579.03, -5327.74, 58392.72, 7695.77, 0.000, 0.000, 0.000, 16:35:25.358
244, -187500.02, -52714.00, 134114.80, 141579.41, -30295.04, -41816.87, -32595.35, -187500.02, 56903.76, 16313.60, 170586.70, 1647.75, 6573.49, -5328.50, 58347.35, 7658.53, 0.000, 0.000, 0.000, 16:35:25.358
245, -187500.02, -52674.77, 134100.88, 141555.38, -30266.68, -41834.39, -32572.99, -187500.02, 56903.76, 16313.60, 170586.70, 1647.75, 6573.49, -5328.50, 58347.35, 7658.53, 0.022, 0.910, -0.238, 16:35:25.358
246, -187500.02, -52674.77, 134100.88, 141555.38, -30266.68, -41834.39, -32572.99, -187500.02, 56902.73, 16374.78, 170572.44, 1638.05, 6557.96, -5360.33, 58378.46, 7689.80, 0.000, 0.000, 0.000, 16:35:25.359
247, -187500.02, -52670.59, 134105.95, 141561.44, -30260.46, -41827.06, -32568.77, -187500.02, 56902.73, 16374.78, 170572.44, 1638.05, 6557.96, -5360.33, 58378.46, 7689.80, 0.000, 0.000, 0.000, 16:35:25.359
248, -187500.02, -52670.59, 134105.95, 141561.44, -30260.46, -41827.06, -32568.77, -187500.02, 56915.25, 16343.33, 170585.45, 1653.60, 6575.35, -5335.50, 58369.61, 7676.42, 0.000, 0.000, 0.000, 16:35:25.359
249, -187500.02, -52698.10, 134104.86, 141553.97, -30266.23, -41826.28, -32575.59, -187500.02, 56915.25, 16343.33, 170585.45, 1653.60, 6575.35, -5335.50, 58369.61, 7676.42, 0.000, 0.000, 0.000, 16:35:25.360
250, -187500.02, -52698.10, 134104.86, 141553.97, -30266.23, -41826.28, -32575.59, -187500.02, 56914.60, 16369.28, 170579.67, 1654.48, 6574.77, -5319.16, 58375.56, 7681.18, 0.000, 0.000, 0.000, 16:35:25.360
251, -187500.02, -52674.97, 134114.66, 141563.86, -30268.64, -41829.10, -32578.63, -187500.02, 56914.60, 16369.28, 170579.67, 1654.48, 6574.77, -5319.16, 58375.56, 7681.18, 0.000, 0.000, 0.000, 16:35:25.361
252, -187500.02, -52674.97, 134114.66, 141563.86, -30268.64, -41829.10, -32578.63, -187500.02, 56910.31, 16358.30, 170576.55, 1653.49, 6575.39, -5333.69, 58360.76, 7667.43, 0.000, 0.000, 0.000, 16:35:25.361
253, -187500.02, -52684.51, 134094.95, 141542.16, -30242.91, -41843.61, -32552.32, -187500.02, 56910.31, 16358.30, 170576.55, 1653.49, 6575.39, -5333.69, 58360.76, 7667.43, 0.000, 0.000, 0.000, 16:35:25.361
254, -187500.02, -52684.51, 134094.95, 141542.16, -30242.91, -41843.61, -32552.32, -187500.02, 56914.11, 16377.50, 170557.02, 1637.53, 6558.74, -5352.88, 58397.20, 7699.53, 0.000, 0.000, 0.000, 16:35:25.362
255, -187500.02, -52634.80, 134091.42, 141545.95, -30222.60, -41843.05, -32523.53, -187500.02, 56914.11, 16377.50, 170557.02, 1637.53, 6558.74, -5352.88, 58397.20, 7699.53, 0.026, 0.908, -0.240, 16:35:25.362
0, -187500.02, -52634.80, 134091.42, 141545.95, -30222.60, -41843.05, -32523.53, -187500.02, 56923.19, 16427.79, 170569.53, 1649.07, 6567.97, -5324.05, 58417.02, 7714.53, 0.000, 0.000, 0.000, 16:35:25.362
1, -187500.02, -52629.55, 134098.30, 141553.14, -30223.51, -41842.57, -32521.94, -187500.02, 56923.19, 16427.79, 170569.53, 1649.07, 6567.97, -5324.05, 58417.02, 7714.53, 0.000, 0.000, 0.000, 16:35:25.363
2, -187500.02, -52629.55, 134098.30, 141553.14, -30223.51, -41842.57, -32521.94, -187500.02, 56931.75, 16390.58, 170595.09, 1662.21, 6593.32, -5309.23, 58405.29, 7692.40, 0.000, 0.000, 0.000, 16:35:25.363
3, -187500.02, -52677.58, 134108.86, 141566.38, -30236.75, -41830.28, -32548.70, -187500.02, 56931.75, 16390.58, 170595.09, 1662.21, 6593.32, -5309.23, 58405.29, 7692.40, 0.000, 0.000, 0.000, 16:35:25.363
4, -187500.02, -52677.58, 134108.86, 141566.38, -30236.75, -41830.28, -32548.70, -187500.02, 56928.82, 16388.16, 170582.86, 1664.13, 6586.43, -5314.19, 58388.21, 7678.41, 0.000, 0.000, 0.000, 16:35:25.364
5, -187500.02, -52647.34, 134103.20, 141560.55, -30225.93, -41837.61, -32552.45, -187500.02, 56928.82, 16388.16, 170582.86, 1664.13, 6586.43, -5314.19, 58388.21, 7678.41, 0.000, 0.000, 0.000, 16:35:25.364
6, -187500.02, -52647.34, 134103.20, 141560.55, -30225.93, -41837.61, -32552.45, -187500.02, 56931.46, 16400.01, 170578.31, 1657.36, 6580.15, -5349.06, 58406.07, 7696.73, 0.000, 0.000, 0.000, 16:35:25.364
7, -187500.02, -52677.00, 134112.86, 141570.25, -30247.94, -41831.13, -32553.10, -187500.02, 56931.46, 16400.01, 170578.31, 1657.36, 6580.15, -5349.06, 58406.07, 7696.73, 0.000, 0.000, 0.000, 16:35:25.365
8, -187500.02, -52677.00, 134112.86, 141570.25, -30247.94, -41831.13, -32553.10, -187500.02, 56937.42, 16367.44, 170603.97, 1677.65, 6600.96, -5322.42, 58390.67, 7682.43, 0.000, 0.000, 0.000, 16:35:25.365
9, -187500.02, -52669.54, 134120.66, 141572.22, -30258.27, -41836.88, -32560.01, -187500.02, 56937.42, 16367.44, 170603.97, 1677.65, 6600.96, -5322.42, 58390.67, 7682.43, 0.026, 0.914, -0.236, 16:35:25.365
10, -187500.02, -52669.54, 134120.66, 141572.22, -30258.27, -41836.88, -32560.01, -187500.02, 56931.70, 16397.22, 170589.48, 1675.02, 6585.38, -5327.25, 58396.52, 7693.13, 0.000, 0.000, 0.000, 16:35:25.366
11, -187500.02, -52668.33, 134122.91, 141576.95, -30253.29, -41830.39, -32559.76, -187500.02, 56931.70, 16397.22, 170589.48, 1675.02, 6585.38, -5327.25, 58396.52, 7693.13, 0.000, 0.000, 0.000, 16:35:25.366
12, -187500.02, -52668.33, 134122.91, 141576.95, -30253.29, -41830.39, -32559.76, -187500.02, 56935.12, 16367.69, 170600.80, 1691.16, 6593.74, -5313.34, 58390.78, 7700.11, 0.000, 0.000, 0.000, 16:35:25.366
13, -187500.02, -52681.83, 134122.42, 141572.69, -30250.71, -41833.05, -32556.37, -187500.02, 56935.12, 16367.69, 170600.80, 1691.16, 6593.74, -5313.34, 58390.78, 7700.11, 0.000, 0.000, 0.000, 16:35:25.367
14, -187500.02, -52681.83, 134122.42, 141572.69, -30250.71, -41833.05, -32556.37, -187500.02, 56935.37, 16387.40, 170600.84, 1692.27, 6592.07, -5306.93, 58385.82, 7719.76, 0.000, 0.000, 0.000, 16:35:25.367
15, -187500.02, -52655.86, 134123.56, 141574.95, -30262.90, -41828.90, -32565.66, -187500.02, 56935.37, 16387.40, 170600.84, 1692.27, 6592.07, -5306.93, 58385.82, 7719.76, 0.000, 0.000, 0.000, 16:35:25.367
16, -187500.02, -52655.86, 134123.56, 141574.95, -30262.90, -41828.90, -32565.66, -187500.02, 56933.47, 16395.85, 170596.73, 1685.84, 6585.63, -5328.25, 58388.32, 7735.83, 0.000, 0.000, 0.000, 16:35:25.367
17, -187500.02, -52677.27, 134122.67, 141580.38, -30256.19, -41832.07, -32554.20, -187500.02, 56933.47, 16395.85, 170596.73, 1685.84, 6585.63, -5328.25, 58388.32, 7735.83, 0.000, 0.000, 0.000, 16:35:25.368
18, -187500.02, -52677.27, 134122.67, 141580.38, -30256.19, -41832.07, -32554.20, -187500.02, 56932.73, 16395.59, 170591.70, 1687.18, 6580.47, -5316.79, 58401.89, 7752.43, 0.000, 0.000, 0.000, 16:35:25.368
19, -187500.02, -52638.54, 134120.30, 141574.67, -30254.29, -41838.06, -32535.36, -187500.02, 56932.73, 16395.59, 170591.70, 1687.18, 6580.47, -5316.79, 58401.89, 7752.43, 0.026, 0.914, -0.238, 16:35:25.368
20, -187500.02, -52638.54, 134120.30, 141574.67, -30254.29, -41838.06, -32535.36, -187500.02, 56943.91, 16432.15, 170614.28, 1703.61, 6603.49, -5304.14, 58405.66, 7759.48, 0.000, 0.000, 0.000, 16:35:25.369
21, -187500.02, -52653.42, 134133.42, 141585.47, -30270.25, -41818.59, -32551.04, -187500.02, 56943.91, 16432.15, 170614.28, 1703.61, 6603.49, -5304.14, 58405.66, 7759.48, 0.000, 0.000, 0.000, 16:35:25.369
22, -187500.02, -52653.42, 134133.42, 141585.47, -30270.25, -41818.59, -32551.04, -187500.02, 56942.79, 16403.36, 170611.83, 1709.30, 6602.62, -5308.14, 58405.46, 7749.04, 0.000, 0.000, 0.000, 16:35:25.369
23, -187500.02, -52655.63, 134125.02, 141575.72, -30246.65, -41836.21, -32534.84, -187500.02, 56942.79, 16403.36, 170611.83, 1709.30, 6602.62, -5308.14, 58405.46, 7749.04, 0.000, 0.000, 0.000, 16:35:25.370
24, -187500.02, -52655.63, 134125.02, 141575.72, -30246.65, -41836.21, -32534.84, -187500.02, 56946.59, 16441.76, 170607.50, 1711.18, 6600.85, -5315.62, 58430.61, 7760.93, 0.000, 0.000, 0.000, 16:35:25.370
25, -187500.02, -52628.23, 134133.86, 141588.69, -30247.47, -41827.40, -32540.58, -187500.02, 56946.59, 16441.76, 170607.50, 1711.18, 6600.85, -5315.62, 58430.61, 7760.93, 0.000, 0.000, 0.000, 16:35:25.370
26, -187500.02, -52628.23, 134133.86, 141588.69, -30247.47, -41827.40, -32540.58, -187500.02, 56951.55, 16429.52, 170635.00, 1728.48, 6623.54, -5292.80, 58429.38, 7742.93, 0.000, 0.000, 0.000, 16:35:25.371
27, -187500.02, -52667.68, 134141.33, 141590.63, -30256.59, -41825.93, -32548.30, -187500.02, 56951.55, 16429.52, 170635.00, 1728.48, 6623.54, -5292.80, 58429.38, 7742.93, 0.000, 0.000, 0.000, 16:35:25.371
28, -187500.02, -52667.68, 134141.33, 141590.63, -30256.59, -41825.93, -32548.30, -187500.02, 56946.07, 16423.23, 170615.83, 1719.16, 6602.66, -5303.69, 58441.09, 7744.95, 0.000, 0.000, 0.000, 16:35:25.371
29, -187500.02, -52621.88, 134123.88, 141575.28, -30244.70, -41839.58, -32522.86, -187500.02, 56946.07, 16423.23, 170615.83, 1719.16, 6602.66, -5303.69, 58441.09, 7744.95, 0.022, 0.924, -0.236, 16:35:25.372
30, -187500.02, -52621.88, 134123.88, 141575.28, -30244.70, -41839.58, -32522.86, -187500.02, 56955.55, 16480.03, 170617.66, 1716.84, 6603.31, -5271.01, 58465.12, 7766.23, 0.000, 0.000, 0.000, 16:35:25.372
31, -187500.02, -52612.81, 134127.78, 141583.34, -30253.71, -41836.88, -32517.81, -187500.02, 56955.55, 16480.03, 170617.66, 1716.84, 6603.31, -5271.01, 58465.12, 7766.23, 0.000, 0.000, 0.000, 16:35:25.372
32, -187500.02, -52612.81, 134127.78, 141583.34, -30253.71, -41836.88, -32517.81, -187500.02, 56967.44, 16449.77, 170645.70, 1742.79, 6634.78, -5291.86, 58460.70, 7753.04, 0.000, 0.000, 0.000, 16:35:25.373
33, -187500.02, -52656.21, 134145.16, 141602.41, -30278.16, -41828.07, -32538.28, -187500.02, 56967.44, 16449.77, 170645.70, 1742.79, 6634.78, -5291.86, 58460.70, 7753.04, 0.000, 0.000, 0.000, 16:35:25.373
34, -187500.02, -52656.21, 134145.16, 141602.41, -30278.16, -41828.07, -32538.28, -187500.02, 56956.82, 16457.21, 170631.84, 1741.92, 6618.33, -5296.27, 58446.05, 7742.02, 0.000, 0.000, 0.000, 16:35:25.374
35, -187500.02, -52613.08, 134135.56, 141595.45, -30269.58, -41849.50, -32527.80, -187500.02, 56956.82, 16457.21, 170631.84, 1741.92, 6618.33, -5296.27, 58446.05, 7742.02, 0.000, 0.000, 0.000, 16:35:25.374
36, -187500.02, -52613.08, 134135.56, 141595.45, -30269.58, -41849.50, -32527.80, -187500.02, 56965.61, 16465.19, 170647.31, 1753.63, 6630.82, -5275.06, 58448.76, 7745.75, 0.000, 0.000, 0.000, 16:35:25.375
37, -187500.02, -52640.52, 134133.48, 141597.22, -30262.00, -41840.14, -32528.07, -187500.02, 56965.61, 16465.19, 170647.31, 1753.63, 6630.82, -5275.06, 58448.76, 7745.75, 0.000, 0.000, 0.000, 16:35:25.376
38, -187500.02, -52640.52, 134133.48, 141597.22, -30262.00, -41840.14, -32528.07, -187500.02, 56953.96, 16471.67, 170618.66, 1734.81, 6600.05, -5293.97, 58469.90, 7766.07, 0.022, 0.920, -0.230, 16:35:25.377
39, -187500.02, -52586.59, 134117.75, 141583.97, -30250.60, -41849.89, -32494.94, -187500.02, 56953.96, 16471.67, 170618.66, 1734.81, 6600.05, -5293.97, 58469.90, 7766.07, 0.000, 0.000, 0.000, 16:35:25.377
40, -187500.02, -52586.59, 134117.75, 141583.97, -30250.60, -41849.89, -32494.94, -187500.02, 56971.33, 16518.18, 170640.97, 1746.34, 6618.11, -5262.29, 58489.08, 7779.01, 0.000, 0.000, 0.000, 16:35:25.377
41, -187500.02, -52591.98, 134127.69, 141595.88, -30261.29, -41838.82, -32507.44, -187500.02, 56971.33, 16518.18, 170640.97, 1746.34, 6618.11, -5262.29, 58489.08, 7779.01, 0.000, 0.000, 0.000, 16:35:25.378
42, -187500.02, -52591.98, 134127.69, 141595.88, -30261.29, -41838.82, -32507.44, -187500.02, 56968.85, 16480.30, 170649.02, 1752.76, 6627.85, -5288.69, 58475.00, 7756.52, 0.000, 0.000, 0.000, 16:35:25.378
43, -187500.02, -52599.93, 134128.72, 141588.38, -30260.86, -41841.12, -32495.46, -187500.02, 56968.85, 16480.30, 170649.02, 1752.76, 6627.85, -5288.69, 58475.00, 7756.52, 0.000, 0.000, 0.000, 16:35:25.378
44, -187500.02, -52599.93, 134128.72, 141588.38, -30260.86, -41841.12, -32495.46, -187500.02, 56965.72, 16519.39, 170636.92, 1746.43, 6614.13, -5299.60, 58485.93, 7773.47, 0.000, 0.000, 0.000, 16:35:25.379
45, -187500.02, -52564.48, 134124.86, 141591.36, -30273.22, -41839.47, -32497.45, -187500.02, 56965.72, 16519.39, 170636.92, 1746.43, 6614.13, -5299.60, 58485.93, 7773.47, 0.000, 0.000, 0.000, 16:35:25.379
46, -187500.02, -52564.48, 134124.86, 141591.36, -30273.22, -41839.47, -32497.45, -187500.02, 56971.11, 16527.57, 170643.81, 1746.83, 6623.54, -5264.95, 58484.32, 7769.98, 0.000, 0.000, 0.000, 16:35:25.379
47, -187500.02, -52587.64, 134127.22, 141600.00, -30274.19, -41841.84, -32493.89, -187500.02, 56971.11, 16527.57, 170643.81, 1746.83, 6623.54, -5264.95, 58484.32, 7769.98, 0.000, 0.000, 0.000, 16:35:25.380
48, -187500.02, -52587.64, 134127.22, 141600.00, -30274.19, -41841.84, -32493.89, -187500.02, 56971.84, 16516.60, 170650.41, 1754.99, 6629.24, -5271.10, 58481.66, 7762.09, 0.026, 0.920, -0.232, 16:35:25.380
49, -187500.02, -52550.80, 134120.66, 141594.50, -30277.22, -41852.81, -32482.43, -187500.02, 56971.84, 16516.60, 170650.41, 1754.99, 6629.24, -5271.10, 58481.66, 7762.09, 0.000, 0.000, 0.000, 16:35:25.380
50, -187500.02, -52550.80, 134120.66, 141594.50, -30277.22, -41852.81, -32482.43, -187500.02, 56976.14, 16567.02, 170649.45, 1749.14, 6626.82, -5294.23, 58505.55, 7781.60, 0.000, 0.000, 0.000, 16:35:25.381
51, -187500.02, -52548.01, 134126.95, 141604.58, -30286.46, -41848.28, -32487.25, -187500.02, 56976.14, 16567.02, 170649.45, 1749.14, 6626.82, -5294.23, 58505.55, 7781.60, 0.000, 0.000, 0.000, 16:35:25.381
52, -187500.02, -52548.01, 134126.95, 141604.58, -30286.46, -41848.28, -32487.25, -187500.02, 56974.37, 16541.61, 170647.30, 1749.23, 6625.62, -5299.78, 58505.31, 7772.19, 0.000, 0.000, 0.000, 16:35:25.381
53, -187500.02, -52569.51, 134126.08, 141614.08, -30274.12, -41840.07, -32489.22, -187500.02, 56974.37, 16541.61, 170647.30, 1749.23, 6625.62, -5299.78, 58505.31, 7772.19, 0.000, 0.000, 0.000, 16:35:25.382
54, -187500.02, -52569.51, 134126.08, 141614.08, -30274.12, -41840.07, -32489.22, -187500.02, 56986.39, 16534.61, 170678.05, 1780.67, 6654.94, -5262.74, 58478.24, 7749.39, 0.000, 0.000, 0.000, 16:35:25.382
55, -187500.02, -52570.65, 134135.09, 141626.80, -30272.13, -41827.40, -32522.70, -187500.02, 56986.39, 16534.61, 170678.05, 1780.67, 6654.94, -5262.74, 58478.24, 7749.39, 0.000, 0.000, 0.000, 16:35:25.382
56, -187500.02, -52570.65, 134135.09, 141626.80, -30272.13, -41827.40, -32522.70, -187500.02, 56973.01, 16533.96, 170648.59, 1761.25, 6624.77, -5268.57, 58475.29, 7753.06, 0.000, 0.000, 0.000, 16:35:25.383
57, -187500.02, -52572.66, 134124.95, 141614.36, -30247.52, -41831.40, -32501.42, -187500.02, 56973.01, 16533.96, 170648.59, 1761.25, 6624.77, -5268.57, 58475.29, 7753.06, 0.000, 0.000, 0.000, 16:35:25.383
58, -187500.02, -52572.66, 134124.95, 141614.36, -30247.52, -41831.40, -32501.42, -187500.02, 56982.21, 16533.18, 170657.50, 1761.68, 6635.72, -5273.04, 58509.15, 7767.77, 0.028, 0.920, -0.232, 16:35:25.384
59, -187500.02, -52552.05, 134120.55, 141607.39, -30238.18, -41848.43, -32500.33, -187500.02, 56982.21, 16533.18, 170657.50, 1761.68, 6635.72, -5273.04, 58509.15, 7767.77, 0.000, 0.000, 0.000, 16:35:25.385
60, -187500.02, -52552.05, 134120.55, 141607.39, -30238.18, -41848.43, -32500.33, -187500.02, 56982.95, 16566.44, 170650.83, 1753.94, 6631.87, -5308.02, 58540.56, 7776.91, 0.000, 0.000, 0.000, 16:35:25.385
61, -187500.02, -52532.54, 134113.64, 141601.00, -30226.17, -41855.81, -32482.49, -187500.02, 56982.95, 16566.44, 170650.83, 1753.94, 6631.87, -5308.02, 58540.56, 7776.91, 0.000, 0.000, 0.000, 16:35:25.386
62, -187500.02, -52532.54, 134113.64, 141601.00, -30226.17, -41855.81, -32482.49, -187500.02, 56990.62, 16551.76, 170664.09, 1757.32, 6645.31, -5292.54, 58568.97, 7780.91, 0.000, 0.000, 0.000, 16:35:25.386
63, -187500.02, -52552.55, 134116.70, 141609.41, -30234.00, -41852.88, -32484.88, -187500.02, 56990.62, 16551.76, 170664.09, 1757.32, 6645.31, -5292.54, 58568.97, 7780.91, 0.000, 0.000, 0.000, 16:35:25.387
64, -187500.02, -52552.55, 134116.70, 141609.41, -30234.00, -41852.88, -32484.88, -187500.02, 56994.67, 16565.82, 170670.98, 1769.70, 6651.83, -5264.57, 58579.45, 7783.41, 0.000, 0.000, 0.000, 16:35:25.387
65, -187500.02, -52539.74, 134126.31, 141620.22, -30254.56, -41838.55, -32506.92, -187500.02, 56994.67, 16565.82, 170670.98, 1769.70, 6651.83, -5264.57, 58579.45, 7783.41, 0.000, 0.000, 0.000, 16:35:25.388
66, -187500.02, -52539.74, 134126.31, 141620.22, -30254.56, -41838.55, -32506.92, -187500.02, 56987.49, 16556.34, 170664.84, 1763.37, 6646.00, -5296.63, 58580.25, 7778.94, 0.000, 0.000, 0.000, 16:35:25.388
67, -187500.02, -52553.02, 134121.22, 141610.25, -30242.27, -41849.19, -32492.28, -187500.02, 56987.49, 16556.34, 170664.84, 1763.37, 6646.00, -5296.63, 58580.25, 7778.94, 0.000, 0.000, 0.000, 16:35:25.388
68, -187500.02, -52553.02, 134121.22, 141610.25, -30242.27, -41849.19, -32492.28, -187500.02, 56994.35, 16546.97, 170678.97, 1771.33, 6657.33, -5285.11, 58603.84, 7787.79, 0.024, 0.914, -0.234, 16:35:25.389
69, -187500.02, -52547.72, 134128.33, 141617.56, -30248.12, -41847.29, -32509.45, -187500.02, 56994.35, 16546.97, 170678.97, 1771.33, 6657.33, -5285.11, 58603.84, 7787.79, 0.000, 0.000, 0.000, 16:35:25.389
70, -187500.02, -52547.72, 134128.33, 141617.56, -30248.12, -41847.29, -32509.45, -187500.02, 56991.98, 16567.22, 170680.58, 1775.87, 6658.43, -5275.23, 58612.13, 7785.87, 0.000, 0.000, 0.000, 16:35:25.389
71, -187500.02, -52544.75, 134130.11, 141617.70, -30248.62, -41844.14, -32513.88, -187500.02, 56991.98, 16567.22, 170680.58, 1775.87, 6658.43, -5275.23, 58612.13, 7785.87, 0.000, 0.000, 0.000, 16:35:25.390
72, -187500.02, -52544.75, 134130.11, 141617.70, -30248.62, -41844.14, -32513.88, -187500.02, 56998.87, 16545.32, 170690.30, 1781.01, 6667.93, -5253.26, 58629.70, 7792.22, 0.000, 0.000, 0.000, 16:35:25.390
73, -187500.02, -52583.39, 134144.33, 141633.13, -30263.43, -41822.28, -32528.69, -187500.02, 56998.87, 16545.32, 170690.30, 1781.01, 6667.93, -5253.26, 58629.70, 7792.22, 0.000, 0.000, 0.000, 16:35:25.391
74, -187500.02, -52583.39, 134144.33, 141633.13, -30263.43, -41822.28, -32528.69, -187500.02, 56992.81, 16552.94, 170679.02, 1779.44, 6655.86, -5272.06, 58634.95, 7796.53, 0.000, 0.000, 0.000, 16:35:25.391
75, -187500.02, -52542.22, 134136.95, 141624.25, -30271.50, -41842.11, -32518.93, -187500.02, 56992.81, 16552.94, 170679.02, 1779.44, 6655.86, -5272.06, 58634.95, 7796.53, 0.000, 0.000, 0.000, 16:35:25.391
76, -187500.02, -52542.22, 134136.95, 141624.25, -30271.50, -41842.11, -32518.93, -187500.02, 56997.44, 16568.48, 170682.91, 1770.66, 6660.95, -5303.87, 58656.09, 7810.82, 0.000, 0.000, 0.000, 16:35:25.392
77, -187500.02, -52555.97, 134136.64, 141621.08, -30270.27, -41841.64, -32505.52, -187500.02, 56997.44, 16568.48, 170682.91, 1770.66, 6660.95, -5303.87, 58656.09, 7810.82, 0.000, 0.000, 0.000, 16:35:25.392
78, -187500.02, -52555.97, 134136.64, 141621.08, -30270.27, -41841.64, -32505.52, -187500.02, 57002.58, 16555.11, 170699.58, 1783.49, 6673.96, -5282.75, 58667.34, 7811.67, 0.020, 0.918, -0.230, 16:35:25.392
79, -187500.02, -52573.47, 134152.39, 141642.78, -30300.76, -41817.56, -32536.20, -187500.02, 57002.58, 16555.11, 170699.58, 1783.49, 6673.96, -5282.75, 58667.34, 7811.67, 0.000, 0.000, 0.000, 16:35:25.393
80, -187500.02, -52573.47, 134152.39, 141642.78, -30300.76, -41817.56, -32536.20, -187500.02, 56998.20, 16562.04, 170693.19, 1788.14, 6668.04, -5257.98, 58651.71, 7799.64, 0.000, 0.000, 0.000, 16:35:25.393
81, -187500.02, -52561.78, 134131.86, 141626.73, -30296.78, -41830.15, -32525.79, -187500.02, 56998.20, 16562.04, 170693.19, 1788.14, 6668.04, -5257.98, 58651.71, 7799.64, 0.000, 0.000, 0.000, 16:35:25.393
82, -187500.02, -52561.78, 134131.86, 141626.73, -30296.78, -41830.15, -32525.79, -187500.02, 57010.92, 16555.94, 170695.58, 1791.83, 6674.86, -5276.91, 58674.58, 7818.77, 0.000, 0.000, 0.000, 16:35:25.394
83, -187500.02, -52584.73, 134126.53, 141625.14, -30299.91, -41836.88, -32528.85, -187500.02, 57010.92, 16555.94, 170695.58, 1791.83, 6674.86, -5276.91, 58674.58, 7818.77, 0.000, 0.000, 0.000, 16:35:25.394
84, -187500.02, -52584.73, 134126.53, 141625.14, -30299.91, -41836.88, -32528.85, -187500.02, 57016.75, 16567.87, 170699.22, 1798.64, 6681.41, -5263.48, 58674.64, 7820.09, 0.000, 0.000, 0.000, 16:35:25.394
85, -187500.02, -52543.03, 134122.47, 141621.50, -30291.37, -41838.84, -32521.25, -187500.02, 57016.75, 16567.87, 170699.22, 1798.64, 6681.41, -5263.48, 58674.64, 7820.09, 0.000, 0.000, 0.000, 16:35:25.394
86, -187500.02, -52543.03, 134122.47, 141621.50, -30291.37, -41838.84, -32521.25, -187500.02, 57014.85, 16597.44, 170693.27, 1790.80, 6671.32, -5288.00, 58706.90, 7850.76, 0.000, 0.000, 0.000, 16:35:25.395
87, -187500.02, -52553.15, 134128.66, 141628.94, -30282.79, -41836.59, -32503.46, -187500.02, 57014.85, 16597.44, 170693.27, 1790.80, 6671.32, -5288.00, 58706.90, 7850.76, 0.000, 0.000, 0.000, 16:35:25.395
88, -187500.02, -52553.15, 134128.66, 141628.94, -30282.79, -41836.59, -32503.46, -187500.02, 57025.73, 16585.98, 170718.73, 1815.19, 6692.85, -5252.01, 58710.14, 7851.41, 0.018, 0.918, -0.222, 16:35:25.395
89, -187500.02, -52555.43, 134141.69, 141647.41, -30290.28, -41818.68, -32519.91, -187500.02, 57025.73, 16585.98, 170718.73, 1815.19, 6692.85, -5252.01, 58710.14, 7851.41, 0.000, 0.000, 0.000, 16:35:25.396
90, -187500.02, -52555.43, 134141.69, 141647.41, -30290.28, -41818.68, -32519.91, -187500.02, 57023.88, 16608.33, 170715.59, 1824.06, 6689.27, -5246.31, 58702.72, 7849.06, 0.000, 0.000, 0.000, 16:35:25.396
91, -187500.02, -52544.77, 134130.75, 141642.38, -30283.69, -41819.20, -32511.24, -187500.02, 57023.88, 16608.33, 170715.59, 1824.06, 6689.27, -5246.31, 58702.72, 7849.06, 0.000, 0.000, 0.000, 16:35:25.396
92, -187500.02, -52544.77, 134130.75, 141642.38, -30283.69, -41819.20, -32511.24, -187500.02, 57027.23, 16596.15, 170715.63, 1820.26, 6693.05, -5270.32, 58716.73, 7859.23, 0.000, 0.000, 0.000, 16:35:25.397
93, -187500.02, -52562.16, 134129.34, 141642.59, -30287.19, -41823.27, -32504.76, -187500.02, 57027.23, 16596.15, 170715.63, 1820.26, 6693.05, -5270.32, 58716.73, 7859.23, 0.000, 0.000, 0.000, 16:35:25.397
94, -187500.02, -52562.16, 134129.34, 141642.59, -30287.19, -41823.27, -32504.76, -187500.02, 57032.69, 16620.53, 170717.36, 1827.84, 6693.65, -5269.76, 58722.12, 7867.88, 0.000, 0.000, 0.000, 16:35:25.397
95, -187500.02, -52525.43, 134129.70, 141647.14, -30277.85, -41814.05, -32498.23, -187500.02, 57032.69, 16620.53, 170717.36, 1827.84, 6693.65, -5269.76, 58722.12, 7867.88, 0.000, 0.000, 0.000, 16:35:25.398
96, -187500.02, -52525.43, 134129.70, 141647.14, -30277.85, -41814.05, -32498.23, -187500.02, 57037.61, 16634.39, 170728.52, 1835.79, 6703.00, -5254.47, 58733.39, 7877.31, 0.000, 0.000, 0.000, 16:35:25.398
97, -187500.02, -52552.04, 134133.66, 141650.23, -30264.02, -41806.99, -32495.84, -187500.02, 57037.61, 16634.39, 170728.52, 1835.79, 6703.00, -5254.47, 58733.39, 7877.31, 0.000, 0.000, 0.000, 16:35:25.398
98, -187500.02, -52552.04, 134133.66, 141650.23, -30264.02, -41806.99, -32495.84, -187500.02, 57040.11, 16627.02, 170732.55, 1839.12, 6704.96, -5223.24, 58742.21, 7885.49, 0.018, 0.914, -0.228, 16:35:25.399
99, -187500.02, -52537.75, 134138.94, 141652.72, -30258.52, -41810.86, -32501.02, -187500.02, 57040.11, 16627.02, 170732.55, 1839.12, 6704.96, -5223.24, 58742.21, 7885.49, 0.000, 0.000, 0.000, 16:35:25.399
100, -187500.02, -52537.75, 134138.94, 141652.72, -30258.52, -41810.86, -32501.02, -187500.02, 57042.54, 16650.37, 170740.77, 1847.68, 6714.49, -5225.57, 58731.53, 7883.35, 0.000, 0.000, 0.000, 16:35:25.402
101, -187500.02, -52545.53, 134144.30, 141657.47, -30266.25, -41803.68, -32516.80, -187500.02, 57042.54, 16650.37, 170740.77, 1847.68, 6714.49, -5225.57, 58731.53, 7883.35, 0.000, 0.000, 0.000, 16:35:25.402
102, -187500.02, -52545.53, 134144.30, 141657.47, -30266.25, -41803.68, -32516.80, -187500.02, 57045.79, 16619.57, 170750.30, 1855.60, 6724.21, -5259.32, 58728.69, 7880.42, 0.000, 0.000, 0.000, 16:35:25.402
103, -187500.02, -52560.44, 134141.63, 141657.13, -30254.38, -41815.71, -32513.76, -187500.02, 57045.79, 16619.57, 170750.30, 1855.60, 6724.21, -5259.32, 58728.69, 7880.42, 0.000, 0.000, 0.000, 16:35:25.403
104, -187500.02, -52560.44, 134141.63, 141657.13, -30254.38, -41815.71, -32513.76, -187500.02, 57045.76, 16641.30, 170749.00, 1860.31, 6720.25, -5260.21, 58741.81, 7893.09, 0.000, 0.000, 0.000, 16:35:25.403
105, -187500.02, -52529.01, 134129.34, 141647.81, -30248.44, -41826.57, -32514.93, -187500.02, 57045.76, 16641.30, 170749.00, 1860.31, 6720.25, -5260.21, 58741.81, 7893.09, 0.000, 0.000, 0.000, 16:35:25.838
106, -187500.02, -52529.01, 134129.34, 141647.81, -30248.44, -41826.57, -32514.93, -187500.02, 57054.95, 16655.60, 170753.86, 1858.19, 6728.12, -5252.95, 58754.17, 7899.84, 0.000, 0.000, 0.000, 16:35:25.839
107, -187500.02, -52555.57, 134128.25, 141647.53, -30241.69, -41826.41, -32512.69, -187500.02, 57054.95, 16655.60, 170753.86, 1858.19, 6728.12, -5252.95, 58754.17, 7899.84, 0.000, 0.000, 0.000, 16:35:25.839
108, -187500.02, -52555.57, 134128.25, 141647.53, -30241.69, -41826.41, -32512.69, -187500.02, 57050.41, 16655.80, 170739.58, 1848.09, 6712.52, -5238.44, 58772.10, 7917.99, 0.016, 0.914, -0.230, 16:35:25.840
109, -187500.02, -52521.01, 134130.98, 141646.75, -30227.92, -41830.42, -32500.31, -187500.02, 57050.41, 16655.80, 170739.58, 1848.09, 6712.52, -5238.44, 58772.10, 7917.99, 0.000, 0.000, 0.000, 16:35:25.840
110, -187500.02, -52521.01, 134130.98, 141646.75, -30227.92, -41830.42, -32500.31, -187500.02, 57060.98, 16693.11, 170761.31, 1863.62, 6731.32, -5246.47, 58778.47, 7920.03, 0.000, 0.000, 0.000, 16:35:25.840
111, -187500.02, -52537.48, 134148.33, 141664.53, -30237.46, -41818.88, -32523.26, -187500.02, 57060.98, 16693.11, 170761.31, 1863.62, 6731.32, -5246.47, 58778.47, 7920.03, 0.000, 0.000, 0.000, 16:35:25.841
112, -187500.02, -52537.48, 134148.33, 141664.53, -30237.46, -41818.88, -32523.26, -187500.02, 57056.78, 16649.46, 170768.91, 1869.14, 6738.04, -5249.82, 58769.15, 7900.60, 0.000, 0.000, 0.000, 16:35:25.841
113, -187500.02, -52560.41, 134153.00, 141671.03, -30240.37, -41810.95, -32522.53, -187500.02, 57056.78, 16649.46, 170768.91, 1869.14, 6738.04, -5249.82, 58769.15, 7900.60, 0.000, 0.000, 0.000, 16:35:25.842
114, -187500.02, -52560.41, 134153.00, 141671.03, -30240.37, -41810.95, -32522.53, -187500.02, 57054.21, 16656.79, 170776.23, 1882.71, 6739.68, -5250.96, 58767.03, 7900.92, 0.000, 0.000, 0.000, 16:35:25.842
115, -187500.02, -52535.45, 134154.31, 141673.80, -30250.63, -41825.19, -32525.14, -187500.02, 57054.21, 16656.79, 170776.23, 1882.71, 6739.68, -5250.96, 58767.03, 7900.92, 0.000, 0.000, 0.000, 16:35:25.842
116, -187500.02, -52535.45, 134154.31, 141673.80, -30250.63, -41825.19, -32525.14, -187500.02, 57052.11, 16673.73, 170763.81, 1871.31, 6723.36, -5241.91, 58786.05, 7916.21, 0.000, 0.000, 0.000, 16:35:25.842
117, -187500.02, -52538.38, 134139.03, 141665.00, -30237.64, -41828.83, -32493.98, -187500.02, 57052.11, 16673.73, 170763.81, 1871.31, 6723.36, -5241.91, 58786.05, 7916.21, 0.000, 0.000, 0.000, 16:35:25.843
118, -187500.02, -52538.38, 134139.03, 141665.00, -30237.64, -41828.83, -32493.98, -187500.02, 57061.48, 16683.56, 170765.95, 1871.87, 6729.86, -5255.90, 58813.52, 7937.75, 0.020, 0.914, -0.232, 16:35:25.843
119, -187500.02, -52531.49, 134146.52, 141672.75, -30244.81, -41824.83, -32505.74, -187500.02, 57061.48, 16683.56, 170765.95, 1871.87, 6729.86, -5255.90, 58813.52, 7937.75, 0.000, 0.000, 0.000, 16:35:25.843
120, -187500.02, -52531.49, 134146.52, 141672.75, -30244.81, -41824.83, -32505.74, -187500.02, 57071.71, 16689.69, 170790.14, 1888.61, 6754.34, -5243.29, 58795.43, 7918.02, 0.000, 0.000, 0.000, 16:35:25.844
121, -187500.02, -52561.55, 134155.36, 141687.53, -30255.79, -41811.60, -32535.56, -187500.02, 57071.71, 16689.69, 170790.14, 1888.61, 6754.34, -5243.29, 58795.43, 7918.02, 0.000, 0.000, 0.000, 16:35:25.844
122, -187500.02, -52561.55, 134155.36, 141687.53, -30255.79, -41811.60, -32535.56, -187500.02, 57063.75, 16647.65, 170775.84, 1880.77, 6745.91, -5249.87, 58787.48, 7903.76, 0.000, 0.000, 0.000, 16:35:25.844
123, -187500.02, -52551.45, 134130.53, 141667.36, -30226.13, -41825.77, -32501.76, -187500.02, 57063.75, 16647.65, 170775.84, 1880.77, 6745.91, -5249.87, 58787.48, 7903.76, 0.000, 0.000, 0.000, 16:35:25.845
124, -187500.02, -52551.45, 134130.53, 141667.36, -30226.13, -41825.77, -32501.76, -187500.02, 57073.52, 16697.58, 170773.98, 1878.19, 6745.40, -5230.87, 58824.63, 7939.76, 0.000, 0.000, 0.000, 16:35:25.845
125, -187500.02, -52537.84, 134136.28, 141676.59, -30249.58, -41828.14, -32520.80, -187500.02, 57073.52, 16697.58, 170773.98, 1878.19, 6745.40, -5230.87, 58824.63, 7939.76, 0.000, 0.000, 0.000, 16:35:25.845
126, -187500.02, -52537.84, 134136.28, 141676.59, -30249.58, -41828.14, -32520.80, -187500.02, 57078.84, 16695.03, 170781.42, 1892.32, 6751.61, -5222.86, 58820.60, 7932.79, 0.000, 0.000, 0.000, 16:35:25.846
127, -187500.02, -52571.93, 134133.73, 141676.48, -30245.69, -41828.58, -32519.31, -187500.02, 57078.84, 16695.03, 170781.42, 1892.32, 6751.61, -5222.86, 58820.60, 7932.79, 0.014, 0.916, -0.234, 16:35:25.846
128, -187500.02, -52571.93, 134133.73, 141676.48, -30245.69, -41828.58, -32519.31, -187500.02, 57083.78, 16677.78, 170780.38, 1899.99, 6752.86, -5243.09, 58822.86, 7930.04, 0.000, 0.000, 0.000, 16:35:25.846
129, -187500.02, -52552.32, 134122.95, 141663.92, -30227.87, -41836.23, -32511.93, -187500.02, 57083.78, 16677.78, 170780.38, 1899.99, 6752.86, -5243.09, 58822.86, 7930.04, 0.000, 0.000, 0.000, 16:35:25.847
130, -187500.02, -52552.32, 134122.95, 141663.92, -30227.87, -41836.23, -32511.93, -187500.02, 57095.23, 16723.42, 170786.13, 1901.33, 6763.26, -5233.79, 58839.22, 7942.04, 0.000, 0.000, 0.000, 16:35:25.847
131, -187500.02, -52564.06, 134136.75, 141679.95, -30234.31, -41822.44, -32532.78, -187500.02, 57095.23, 16723.42, 170786.13, 1901.33, 6763.26, -5233.79, 58839.22, 7942.04, 0.000, 0.000, 0.000, 16:35:25.847
132, -187500.02, -52564.06, 134136.75, 141679.95, -30234.31, -41822.44, -32532.78, -187500.02, 57095.41, 16686.49, 170795.66, 1915.25, 6770.23, -5215.82, 58829.25, 7921.68, 0.000, 0.000, 0.000, 16:35:25.848
133, -187500.02, -52588.94, 134136.19, 141680.70, -30220.05, -41824.40, -32536.99, -187500.02, 57095.41, 16686.49, 170795.66, 1915.25, 6770.23, -5215.82, 58829.25, 7921.68, 0.000, 0.000, 0.000, 16:35:25.848
134, -187500.02, -52588.94, 134136.19, 141680.70, -30220.05, -41824.40, -32536.99, -187500.02, 57101.57, 16704.13, 170800.92, 1932.35, 6774.75, -5218.82, 58831.06, 7919.00, 0.000, 0.000, 0.000, 16:35:25.848
135, -187500.02, -52571.73, 134139.55, 141688.33, -30211.91, -41816.45, -32549.15, -187500.02, 57101.57, 16704.13, 170800.92, 1932.35, 6774.75, -5218.82, 58831.06, 7919.00, 0.000, 0.000, 0.000, 16:35:25.848
136, -187500.02, -52571.73, 134139.55, 141688.33, -30211.91, -41816.45, -32549.15, -187500.02, 57105.87, 16710.10, 170798.97, 1931.93, 6773.25, -5212.11, 58835.69, 7920.18, 0.000, 0.000, 0.000, 16:35:25.849
137, -187500.02, -52586.19, 134129.17, 141677.36, -30187.95, -41828.74, -32533.14, -187500.02, 57105.87, 16710.10, 170798.97, 1931.93, 6773.25, -5212.11, 58835.69, 7920.18, 0.014, 0.922, -0.232, 16:35:25.849
138, -187500.02, -52586.19, 134129.17, 141677.36, -30187.95, -41828.74, -32533.14, -187500.02, 57109.80, 16716.98, 170797.91, 1933.20, 6768.24, -5212.65, 58864.75, 7941.17, 0.000, 0.000, 0.000, 16:35:25.849
139, -187500.02, -52568.21, 134129.33, 141678.06, -30187.68, -41829.39, -32531.33, -187500.02, 57109.80, 16716.98, 170797.91, 1933.20, 6768.24, -5212.65, 58864.75, 7941.17, 0.000, 0.000, 0.000, 16:35:25.850
140, -187500.02, -52568.21, 134129.33, 141678.06, -30187.68, -41829.39, -32531.33, -187500.02, 57109.69, 16750.75, 170798.97, 1938.43, 6770.30, -5204.25, 58871.68, 7947.52, 0.000, 0.000, 0.000, 16:35:25.850
141, -187500.02, -52550.80, 134130.06, 141677.78, -30185.43, -41832.47, -32523.80, -187500.02, 57109.69, 16750.75, 170798.97, 1938.43, 6770.30, -5204.25, 58871.68, 7947.52, 0.000, 0.000, 0.000, 16:35:25.850
142, -187500.02, -52550.80, 134130.06, 141677.78, -30185.43, -41832.47, -32523.80, -187500.02, 57113.38, 16734.33, 170808.05, 1942.84, 6779.98, -5225.66, 58881.00, 7956.71, 0.000, 0.000, 0.000, 16:35:25.851
143, -187500.02, -52571.37, 134140.44, 141683.19, -30194.10, -41834.75, -32517.92, -187500.02, 57113.38, 16734.33, 170808.05, 1942.84, 6779.98, -5225.66, 58881.00, 7956.71, 0.000, 0.000, 0.000, 16:35:25.851
144, -187500.02, -52571.37, 134140.44, 141683.19, -30194.10, -41834.75, -32517.92, -187500.02, 57115.72, 16755.29, 170812.77, 1947.57, 6783.71, -5225.39, 58882.16, 7960.06, 0.000, 0.000, 0.000, 16:35:25.852
145, -187500.02, -52546.25, 134145.73, 141691.84, -30200.22, -41825.68, -32526.41, -187500.02, 57115.72, 16755.29, 170812.77, 1947.57, 6783.71, -5225.39, 58882.16, 7960.06, 0.000, 0.000, 0.000, 16:35:25.852
146, -187500.02, -52546.25, 134145.73, 141691.84, -30200.22, -41825.68, -32526.41, -187500.02, 57121.94, 16757.33, 170822.80, 1958.19, 6792.58, -5215.73, 58872.28, 7957.98, 0.000, 0.000, 0.000, 16:35:25.852
147, -187500.02, -52593.65, 134154.98, 141701.52, -30207.42, -41821.83, -32546.98, -187500.02, 57121.94, 16757.33, 170822.80, 1958.19, 6792.58, -5215.73, 58872.28, 7957.98, 0.012, 0.922, -0.236, 16:35:25.853
148, -187500.02, -52593.65, 134154.98, 141701.52, -30207.42, -41821.83, -32546.98, -187500.02, 57114.29, 16719.80, 170820.05, 1967.83, 6789.97, -5210.12, 58847.67, 7941.17, 0.000, 0.000, 0.000, 16:35:25.853
149, -187500.02, -52545.24, 134137.83, 141677.95, -30166.79, -41836.54, -32518.43, -187500.02, 57114.29, 16719.80, 170820.05, 1967.83, 6789.97, -5210.12, 58847.67, 7941.17, 0.000, 0.000, 0.000, 16:35:25.853
150, -187500.02, -52545.24, 134137.83, 141677.95, -30166.79, -41836.54, -32518.43, -187500.02, 57123.66, 16788.19, 170817.25, 1963.20, 6788.96, -5201.56, 58882.76, 7984.51, 0.000, 0.000, 0.000, 16:35:25.853
151, -187500.02, -52542.78, 134155.20, 141696.80, -30173.07, -41820.58, -32525.74, -187500.02, 57123.66, 16788.19, 170817.25, 1963.20, 6788.96, -5201.56, 58882.76, 7984.51, 0.000, 0.000, 0.000, 16:35:25.854
152, -187500.02, -52542.78, 134155.20, 141696.80, -30173.07, -41820.58, -32525.74, -187500.02, 57130.70, 16757.50, 170836.67, 1981.75, 6807.98, -5193.79, 58872.21, 7972.73, 0.000, 0.000, 0.000, 16:35:25.854
153, -187500.02, -52580.96, 134161.31, 141701.69, -30173.29, -41815.48, -32540.29, -187500.02, 57130.70, 16757.50, 170836.67, 1981.75, 6807.98, -5193.79, 58872.21, 7972.73, 0.000, 0.000, 0.000, 16:35:25.855
154, -187500.02, -52580.96, 134161.31, 141701.69, -30173.29, -41815.48, -32540.29, -187500.02, 57132.60, 16761.55, 170843.67, 1993.13, 6815.65, -5177.96, 58856.63, 7965.31, 0.000, 0.000, 0.000, 16:35:25.855
155, -187500.02, -52567.05, 134163.70, 141702.97, -30171.12, -41813.96, -32555.11, -187500.02, 57132.60, 16761.55, 170843.67, 1993.13, 6815.65, -5177.96, 58856.63, 7965.31, 0.000, 0.000, 0.000, 16:35:25.856
156, -187500.02, -52567.05, 134163.70, 141702.97, -30171.12, -41813.96, -32555.11, -187500.02, 57134.19, 16752.07, 170851.98, 1995.18, 6824.34, -5191.44, 58840.21, 7956.86, 0.000, 0.000, 0.000, 16:35:25.856
157, -187500.02, -52606.04, 134162.52, 141697.98, -30169.56, -41816.65, -32557.59, -187500.02, 57134.19, 16752.07, 170851.98, 1995.18, 6824.34, -5191.44, 58840.21, 7956.86, 0.014, 0.918, -0.236, 16:35:25.856
158, -187500.02, -52606.04, 134162.52, 141697.98, -30169.56, -41816.65, -32557.59, -187500.02, 57123.79, 16750.84, 170823.31, 1979.60, 6796.36, -5192.87, 58854.62, 7977.23, 0.000, 0.000, 0.000, 16:35:25.857
159, -187500.02, -52563.61, 134151.48, 141688.63, -30161.49, -41827.29, -32529.59, -187500.02, 57123.79, 16750.84, 170823.31, 1979.60, 6796.36, -5192.87, 58854.62, 7977.23, 0.000, 0.000, 0.000, 16:35:25.857
160, -187500.02, -52563.61, 134151.48, 141688.63, -30161.49, -41827.29, -32529.59, -187500.02, 57137.88, 16801.09, 170837.73, 1994.80, 6812.63, -5202.77, 58870.85, 8001.72, 0.000, 0.000, 0.000, 16:35:25.857
161, -187500.02, -52563.68, 134155.50, 141696.91, -30173.69, -41821.95, -32536.81, -187500.02, 57137.88, 16801.09, 170837.73, 1994.80, 6812.63, -5202.77, 58870.85, 8001.72, 0.000, 0.000, 0.000, 16:35:25.858
162, -187500.02, -52563.68, 134155.50, 141696.91, -30173.69, -41821.95, -32536.81, -187500.02, 57145.43, 16777.24, 170843.41, 2000.97, 6820.59, -5186.10, 58871.01, 7997.16, 0.000, 0.000, 0.000, 16:35:25.858
163, -187500.02, -52585.72, 134156.34, 141696.70, -30179.84, -41822.41, -32533.68, -187500.02, 57145.43, 16777.24, 170843.41, 2000.97, 6820.59, -5186.10, 58871.01, 7997.16, 0.000, 0.000, 0.000, 16:35:25.858
164, -187500.02, -52585.72, 134156.34, 141696.70, -30179.84, -41822.41, -32533.68, -187500.02, 57142.01, 16796.29, 170840.55, 2001.33, 6815.07, -5191.59, 58870.92, 8001.48, 0.000, 0.000, 0.000, 16:35:25.858
165, -187500.02, -52554.87, 134159.19, 141703.64, -30176.57, -41820.27, -32537.03, -187500.02, 57142.01, 16796.29, 170840.55, 2001.33, 6815.07, -5191.59, 58870.92, 8001.48, 0.000, 0.000, 0.000, 16:35:25.859
166, -187500.02, -52554.87, 134159.19, 141703.64, -30176.57, -41820.27, -32537.03, -187500.02, 57150.57, 16800.20, 170848.75, 2003.03, 6826.87, -5178.21, 58871.97, 7999.91, 0.000, 0.000, 0.000, 16:35:25.859
167, -187500.02, -52576.51, 134153.05, 141700.52, -30164.73, -41836.12, -32529.32, -187500.02, 57150.57, 16800.20, 170848.75, 2003.03, 6826.87, -5178.21, 58871.97, 7999.91, 0.012, 0.920, -0.236, 16:35:25.859
168, -187500.02, -52576.51, 134153.05, 141700.52, -30164.73, -41836.12, -32529.32, -187500.02, 57151.78, 16802.19, 170847.34, 2000.73, 6825.75, -5169.06, 58894.99, 8021.46, 0.000, 0.000, 0.000, 16:35:25.860
169, -187500.02, -52565.04, 134162.70, 141715.05, -30170.36, -41827.91, -32530.93, -187500.02, 57151.78, 16802.19, 170847.34, 2000.73, 6825.75, -5169.06, 58894.99, 8021.46, 0.000, 0.000, 0.000, 16:35:25.860
170, -187500.02, -52565.04, 134162.70, 141715.05, -30170.36, -41827.91, -32530.93, -187500.02, 57147.80, 16824.18, 170846.16, 2005.09, 6823.18, -5190.28, 58888.44, 8021.39, 0.000, 0.000, 0.000, 16:35:25.860
171, -187500.02, -52556.79, 134158.81, 141710.97, -30172.71, -41832.00, -32529.03, -187500.02, 57147.80, 16824.18, 170846.16, 2005.09, 6823.18, -5190.28, 58888.44, 8021.39, 0.000, 0.000, 0.000, 16:35:25.860
172, -187500.02, -52556.79, 134158.81, 141710.97, -30172.71, -41832.00, -32529.03, -187500.02, 57149.54, 16807.86, 170843.19, 1998.72, 6824.34, -5188.94, 58898.39, 8025.42, 0.000, 0.000, 0.000, 16:35:25.861
173, -187500.02, -52569.00, 134152.59, 141704.95, -30172.08, -41831.20, -32521.23, -187500.02, 57149.54, 16807.86, 170843.19, 1998.72, 6824.34, -5188.94, 58898.39, 8025.42, 0.000, 0.000, 0.000, 16:35:25.861
174, -187500.02, -52569.00, 134152.59, 141704.95, -30172.08, -41831.20, -32521.23, -187500.02, 57147.53, 16842.29, 170827.78, 1993.04, 6807.22, -5202.30, 58910.57, 8037.58, 0.000, 0.000, 0.000, 16:35:25.861
175, -187500.02, -52504.89, 134142.52, 141699.53, -30159.32, -41842.49, -32495.95, -187500.02, 57147.53, 16842.29, 170827.78, 1993.04, 6807.22, -5202.30, 58910.57, 8037.58, 0.000, 0.000, 0.000, 16:35:25.862
176, -187500.02, -52504.89, 134142.52, 141699.53, -30159.32, -41842.49, -32495.95, -187500.02, 57161.79, 16864.86, 170858.66, 2013.24, 6832.19, -5169.47, 58916.96, 8048.42, 0.000, 0.000, 0.000, 16:35:25.862
177, -187500.02, -52535.18, 134153.44, 141707.73, -30161.11, -41843.43, -32498.36, -187500.02, 57161.79, 16864.86, 170858.66, 2013.24, 6832.19, -5169.47, 58916.96, 8048.42, 0.012, 0.914, -0.240, 16:35:25.862
178, -187500.02, -52535.18, 134153.44, 141707.73, -30161.11, -41843.43, -32498.36, -187500.02, 57166.44, 16841.53, 170872.58, 2022.86, 6847.21, -5172.89, 58901.89, 8033.91, 0.000, 0.000, 0.000, 16:35:25.862
179, -187500.02, -52545.71, 134166.52, 141717.75, -30169.76, -41831.02, -32522.46, -187500.02, 57166.44, 16841.53, 170872.58, 2022.86, 6847.21, -5172.89, 58901.89, 8033.91, 0.000, 0.000, 0.000, 16:35:25.863
180, -187500.02, -52545.71, 134166.52, 141717.75, -30169.76, -41831.02, -32522.46, -187500.02, 57158.37, 16861.96, 170859.48, 2014.94, 6833.15, -5180.60, 58887.73, 8028.97, 0.000, 0.000, 0.000, 16:35:25.863
181, -187500.02, -52535.29, 134167.95, 141721.36, -30170.72, -41830.42, -32519.44, -187500.02, 57158.37, 16861.96, 170859.48, 2014.94, 6833.15, -5180.60, 58887.73, 8028.97, 0.000, 0.000, 0.000, 16:35:25.863
182, -187500.02, -52535.29, 134167.95, 141721.36, -30170.72, -41830.42, -32519.44, -187500.02, 57158.50, 16842.96, 170862.98, 2014.52, 6835.57, -5203.71, 58893.36, 8028.32, 0.000, 0.000, 0.000, 16:35:25.864
183, -187500.02, -52548.30, 134175.14, 141726.59, -30171.50, -41834.64, -32513.12, -187500.02, 57158.50, 16842.96, 170862.98, 2014.52, 6835.57, -5203.71, 58893.36, 8028.32, 0.000, 0.000, 0.000, 16:35:25.864
184, -187500.02, -52548.30, 134175.14, 141726.59, -30171.50, -41834.64, -32513.12, -187500.02, 57164.34, 16855.90, 170881.34, 2035.44, 6851.14, -5187.62, 58894.05, 8020.01, 0.000, 0.000, 0.000, 16:35:25.864
185, -187500.02, -52528.36, 134181.47, 141737.92, -30182.10, -41831.31, -32525.52, -187500.02, 57164.34, 16855.90, 170881.34, 2035.44, 6851.14, -5187.62, 58894.05, 8020.01, 0.000, 0.000, 0.000, 16:35:25.865
186, -187500.02, -52528.36, 134181.47, 141737.92, -30182.10, -41831.31, -32525.52, -187500.02, 57161.34, 16859.85, 170876.33, 2027.77, 6843.59, -5162.72, 58892.87, 8012.63, 0.000, 0.000, 0.000, 16:35:25.865
187, -187500.02, -52562.74, 134182.28, 141741.89, -30178.30, -41820.43, -32527.46, -187500.02, 57161.34, 16859.85, 170876.33, 2027.77, 6843.59, -5162.72, 58892.87, 8012.63, 0.016, 0.918, -0.232, 16:35:25.865
188, -187500.02, -52562.74, 134182.28, 141741.89, -30178.30, -41820.43, -32527.46, -187500.02, 57167.25, 16825.99, 170889.55, 2039.10, 6860.11, -5173.31, 58872.55, 7995.93, 0.000, 0.000, 0.000, 16:35:25.866
189, -187500.02, -52574.07, 134184.94, 141749.78, -30177.42, -41813.63, -32550.78, -187500.02, 57167.25, 16825.99, 170889.55, 2039.10, 6860.11, -5173.31, 58872.55, 7995.93, 0.000, 0.000, 0.000, 16:35:25.866
190, -187500.02, -52574.07, 134184.94, 141749.78, -30177.42, -41813.63, -32550.78, -187500.02, 57156.79, 16845.71, 170866.67, 2033.65, 6836.82, -5175.77, 58861.02, 7993.30, 0.000, 0.000, 0.000, 16:35:25.866
191, -187500.02, -52528.12, 134166.19, 141726.91, -30151.29, -41835.00, -32507.57, -187500.02, 57156.79, 16845.71, 170866.67, 2033.65, 6836.82, -5175.77, 58861.02, 7993.30, 0.000, 0.000, 0.000, 16:35:25.867
192, -187500.02, -52528.12, 134166.19, 141726.91, -30151.29, -41835.00, -32507.57, -187500.02, 57168.77, 16861.60, 170883.08, 2028.40, 6850.81, -5191.68, 58898.45, 8021.95, 0.000, 0.000, 0.000, 16:35:25.867
193, -187500.02, -52569.40, 134193.14, 141752.50, -30164.46, -41818.23, -32521.65, -187500.02, 57168.77, 16861.60, 170883.08, 2028.40, 6850.81, -5191.68, 58898.45, 8021.95, 0.000, 0.000, 0.000, 16:35:25.867
194, -187500.02, -52569.40, 134193.14, 141752.50, -30164.46, -41818.23, -32521.65, -187500.02, 57161.81, 16850.31, 170885.92, 2041.63, 6854.21, -5171.46, 58870.02, 7997.99, 0.000, 0.000, 0.000, 16:35:25.867
195, -187500.02, -52538.54, 134186.28, 141747.42, -30155.27, -41820.80, -32521.54, -187500.02, 57161.81, 16850.31, 170885.92, 2041.63, 6854.21, -5171.46, 58870.02, 7997.99, 0.000, 0.000, 0.000, 16:35:25.868
196, -187500.02, -52538.54, 134186.28, 141747.42, -30155.27, -41820.80, -32521.54, -187500.02, 57165.05, 16862.49, 170886.08, 2032.76, 6854.56, -5156.82, 58864.73, 8004.65, 0.000, 0.000, 0.000, 16:35:25.868
197, -187500.02, -52561.87, 134189.45, 141743.63, -30150.40, -41818.35, -32513.27, -187500.02, 57165.05, 16862.49, 170886.08, 2032.76, 6854.56, -5156.82, 58864.73, 8004.65, 0.018, 0.918, -0.230, 16:35:25.868
198, -187500.02, -52561.87, 134189.45, 141743.63, -30150.40, -41818.35, -32513.27, -187500.02, 57162.77, 16851.16, 170880.80, 2032.38, 6849.92, -5200.98, 58864.23, 8010.78, 0.000, 0.000, 0.000, 16:35:25.869
199, -187500.02, -52539.38, 134185.00, 141734.34, -30148.35, -41833.08, -32504.17, -187500.02, 57162.77, 16851.16, 170880.80, 2032.38, 6849.92, -5200.98, 58864.23, 8010.78, 0.000, 0.000, 0.000, 16:35:25.869
200, -187500.02, -52539.38, 134185.00, 141734.34, -30148.35, -41833.08, -32504.17, -187500.02, 57171.29, 16881.42, 170894.45, 2043.53, 6864.98, -5187.73, 58852.01, 8012.63, 0.000, 0.000, 0.000, 16:35:25.869
201, -187500.02, -52549.93, 134192.53, 141744.00, -30156.68, -41820.98, -32527.29, -187500.02, 57171.29, 16881.42, 170894.45, 2043.53, 6864.98, -5187.73, 58852.01, 8012.63, 0.000, 0.000, 0.000, 16:35:25.870
202, -187500.02, -52549.93, 134192.53, 141744.00, -30156.68, -41820.98, -32527.29, -187500.02, 57174.13, 16847.38, 170896.61, 2043.80, 6870.84, -5187.30, 58831.62, 8003.51, 0.000, 0.000, 0.000, 16:35:25.870
203, -187500.02, -52578.72, 134190.84, 141742.67, -30140.61, -41817.77, -32532.05, -187500.02, 57174.13, 16847.38, 170896.61, 2043.80, 6870.84, -5187.30, 58831.62, 8003.51, 0.000, 0.000, 0.000, 16:35:25.870
204, -187500.02, -52578.72, 134190.84, 141742.67, -30140.61, -41817.77, -32532.05, -187500.02, 57177.39, 16861.80, 170896.05, 2049.90, 6874.39, -5175.66, 58825.99, 8009.95, 0.000, 0.000, 0.000, 16:35:25.870
205, -187500.02, -52572.29, 134201.61, 141755.61, -30144.01, -41809.14, -32553.13, -187500.02, 57177.39, 16861.80, 170896.05, 2049.90, 6874.39, -5175.66, 58825.99, 8009.95, 0.000, 0.000, 0.000, 16:35:25.871
206, -187500.02, -52572.29, 134201.61, 141755.61, -30144.01, -41809.14, -32553.13, -187500.02, 57181.15, 16849.10, 170898.73, 2053.28, 6882.17, -5142.60, 58806.81, 7991.78, 0.000, 0.000, 0.000, 16:35:25.871
207, -187500.02, -52584.09, 134189.91, 141740.67, -30111.35, -41816.71, -32529.68, -187500.02, 57181.15, 16849.10, 170898.73, 2053.28, 6882.17, -5142.60, 58806.81, 7991.78, 0.018, 0.924, -0.232, 16:35:25.872
208, -187500.02, -52584.09, 134189.91, 141740.67, -30111.35, -41816.71, -32529.68, -187500.02, 57185.71, 16862.31, 170890.95, 2048.63, 6875.24, -5169.60, 58839.85, 8021.35, 0.000, 0.000, 0.000, 16:35:25.872
209, -187500.02, -52575.19, 134202.31, 141753.22, -30118.71, -41806.86, -32536.27, -187500.02, 57185.71, 16862.31, 170890.95, 2048.63, 6875.24, -5169.60, 58839.85, 8021.35, 0.000, 0.000, 0.000, 16:35:25.872
210, -187500.02, -52575.19, 134202.31, 141753.22, -30118.71, -41806.86, -32536.27, -187500.02, 57191.03, 16884.17, 170905.91, 2061.08, 6889.90, -5152.90, 58830.10, 8009.59, 0.000, 0.000, 0.000, 16:35:25.873
211, -187500.02, -52578.92, 134217.13, 141759.86, -30128.74, -41809.54, -32547.74, -187500.02, 57191.03, 16884.17, 170905.91, 2061.08, 6889.90, -5152.90, 58830.10, 8009.59, 0.000, 0.000, 0.000, 16:35:25.873
212, -187500.02, -52578.92, 134217.13, 141759.86, -30128.74, -41809.54, -32547.74, -187500.02, 57190.51, 16855.47, 170908.42, 2059.78, 6885.75, -5171.86, 58825.68, 7998.95, 0.000, 0.000, 0.000, 16:35:25.873
213, -187500.02, -52591.37, 134211.58, 141755.73, -30120.92, -41809.74, -32535.51, -187500.02, 57190.51, 16855.47, 170908.42, 2059.78, 6885.75, -5171.86, 58825.68, 7998.95, 0.000, 0.000, 0.000, 16:35:25.874
214, -187500.02, -52591.37, 134211.58, 141755.73, -30120.92, -41809.74, -32535.51, -187500.02, 57199.14, 16872.04, 170927.92, 2071.43, 6900.59, -5140.77, 58825.05, 7998.28, 0.000, 0.000, 0.000, 16:35:25.874
215, -187500.02, -52582.50, 134218.41, 141766.38, -30139.96, -41795.46, -32557.21, -187500.02, 57199.14, 16872.04, 170927.92, 2071.43, 6900.59, -5140.77, 58825.05, 7998.28, 0.000, 0.000, 0.000, 16:35:25.874
216, -187500.02, -52582.50, 134218.41, 141766.38, -30139.96, -41795.46, -32557.21, -187500.02, 57197.26, 16868.88, 170928.88, 2070.44, 6901.28, -5154.45, 58817.03, 7988.36, 0.000, 0.000, 0.000, 16:35:25.875
217, -187500.02, -52607.71, 134212.92, 141762.38, -30145.89, -41801.85, -32547.16, -187500.02, 57197.26, 16868.88, 170928.88, 2070.44, 6901.28, -5154.45, 58817.03, 7988.36, 0.020, 0.924, -0.230, 16:35:25.875
218, -187500.02, -52607.71, 134212.92, 141762.38, -30145.89, -41801.85, -32547.16, -187500.02, 57189.33, 16863.68, 170914.38, 2065.06, 6881.16, -5165.87, 58832.61, 7998.08, 0.000, 0.000, 0.000, 16:35:25.876
219, -187500.02, -52574.03, 134211.42, 141757.31, -30140.77, -41811.98, -32518.32, -187500.02, 57189.33, 16863.68, 170914.38, 2065.06, 6881.16, -5165.87, 58832.61, 7998.08, 0.000, 0.000, 0.000, 16:35:25.876
220, -187500.02, -52574.03, 134211.42, 141757.31, -30140.77, -41811.98, -32518.32, -187500.02, 57195.07, 16894.61, 170929.08, 2084.26, 6897.50, -5146.11, 58831.00, 7992.42, 0.000, 0.000, 0.000, 16:35:25.876
221, -187500.02, -52576.04, 134212.88, 141755.27, -30144.43, -41812.73, -32522.90, -187500.02, 57195.07, 16894.61, 170929.08, 2084.26, 6897.50, -5146.11, 58831.00, 7992.42, 0.000, 0.000, 0.000, 16:35:25.877
222, -187500.02, -52576.04, 134212.88, 141755.27, -30144.43, -41812.73, -32522.90, -187500.02, 57197.80, 16874.78, 170922.00, 2079.36, 6895.69, -5119.35, 58836.59, 7989.79, 0.000, 0.000, 0.000, 16:35:25.877
223, -187500.02, -52575.55, 134197.02, 141737.70, -30121.52, -41828.94, -32494.99, -187500.02, 57197.80, 16874.78, 170922.00, 2079.36, 6895.69, -5119.35, 58836.59, 7989.79, 0.000, 0.000, 0.000, 16:35:25.877
224, -187500.02, -52575.55, 134197.02, 141737.70, -30121.52, -41828.94, -32494.99, -187500.02, 57201.75, 16921.97, 170912.72, 2079.63, 6889.90, -5155.94, 58873.96, 8015.18, 0.000, 0.000, 0.000, 16:35:25.878
225, -187500.02, -52531.58, 134206.31, 141744.23, -30136.19, -41822.59, -32484.21, -187500.02, 57201.75, 16921.97, 170912.72, 2079.63, 6889.90, -5155.94, 58873.96, 8015.18, 0.000, 0.000, 0.000, 16:35:25.878
226, -187500.02, -52531.58, 134206.31, 141744.23, -30136.19, -41822.59, -32484.21, -187500.02, 57204.48, 16923.94, 170935.16, 2095.34, 6910.58, -5151.27, 58862.67, 7996.76, 0.022, 0.914, -0.232, 16:35:26.318
227, -187500.02, -52560.91, 134222.22, 141745.69, -30151.34, -41817.32, -32484.19, -187500.02, 57204.48, 16923.94, 170935.16, 2095.34, 6910.58, -5151.27, 58862.67, 7996.76, 0.000, 0.000, 0.000, 16:35:26.319
228, -187500.02, -52560.91, 134222.22, 141745.69, -30151.34, -41817.32, -32484.19, -187500.02, 57200.84, 16902.52, 170934.80, 2098.11, 6908.88, -5140.88, 58853.19, 7985.81, 0.000, 0.000, 0.000, 16:35:26.319
229, -187500.02, -52557.55, 134226.63, 141752.34, -30154.85, -41817.00, -32489.18, -187500.02, 57200.84, 16902.52, 170934.80, 2098.11, 6908.88, -5140.88, 58853.19, 7985.81, 0.000, 0.000, 0.000, 16:35:26.319
230, -187500.02, -52557.55, 134226.63, 141752.34, -30154.85, -41817.00, -32489.18, -187500.02, 57205.06, 16929.86, 170927.77, 2100.73, 6906.82, -5123.33, 58850.33, 7986.84, 0.000, 0.000, 0.000, 16:35:26.319
231, -187500.02, -52548.79, 134220.41, 141753.42, -30143.70, -41811.57, -32483.05, -187500.02, 57205.06, 16929.86, 170927.77, 2100.73, 6906.82, -5123.33, 58850.33, 7986.84, 0.000, 0.000, 0.000, 16:35:26.320
232, -187500.02, -52548.79, 134220.41, 141753.42, -30143.70, -41811.57, -32483.05, -187500.02, 57210.05, 16924.14, 170924.91, 2094.45, 6903.25, -5115.96, 58869.15, 7998.42, 0.000, 0.000, 0.000, 16:35:26.320
233, -187500.02, -52559.90, 134219.52, 141750.69, -30137.66, -41819.60, -32466.53, -187500.02, 57210.05, 16924.14, 170924.91, 2094.45, 6903.25, -5115.96, 58869.15, 7998.42, 0.000, 0.000, 0.000, 16:35:26.320
234, -187500.02, -52559.90, 134219.52, 141750.69, -30137.66, -41819.60, -32466.53, -187500.02, 57209.76, 16950.91, 170912.11, 2093.17, 6894.04, -5144.59, 58873.82, 8006.71, 0.000, 0.000, 0.000, 16:35:26.320
235, -187500.02, -52495.37, 134205.34, 141736.50, -30131.98, -41828.38, -32432.94, -187500.02, 57209.76, 16950.91, 170912.11, 2093.17, 6894.04, -5144.59, 58873.82, 8006.71, 0.000, 0.000, 0.000, 16:35:26.320
236, -187500.02, -52495.37, 134205.34, 141736.50, -30131.98, -41828.38, -32432.94, -187500.02, 57226.30, 16986.43, 170929.81, 2106.52, 6914.33, -5115.96, 58888.91, 8028.72, 0.018, 0.912, -0.228, 16:35:26.320
237, -187500.02, -52522.64, 134212.13, 141745.66, -30162.02, -41827.89, -32434.17, -187500.02, 57226.30, 16986.43, 170929.81, 2106.52, 6914.33, -5115.96, 58888.91, 8028.72, 0.000, 0.000, 0.000, 16:35:26.321
238, -187500.02, -52522.64, 134212.13, 141745.66, -30162.02, -41827.89, -32434.17, -187500.02, 57221.38, 16958.89, 170932.77, 2113.83, 6913.60, -5125.90, 58874.31, 8015.07, 0.000, 0.000, 0.000, 16:35:26.321
239, -187500.02, -52509.54, 134219.81, 141756.77, -30176.78, -41828.70, -32435.11, -187500.02, 57221.38, 16958.89, 170932.77, 2113.83, 6913.60, -5125.90, 58874.31, 8015.07, 0.000, 0.000, 0.000, 16:35:26.321
240, -187500.02, -52509.54, 134219.81, 141756.77, -30176.78, -41828.70, -32435.11, -187500.02, 57219.01, 16983.46, 170937.53, 2120.58, 6911.20, -5123.02, 58868.30, 8004.54, 0.000, 0.000, 0.000, 16:35:26.321
241, -187500.02, -52499.02, 134226.05, 141765.67, -30181.58, -41819.29, -32436.22, -187500.02, 57219.01, 16983.46, 170937.53, 2120.58, 6911.20, -5123.02, 58868.30, 8004.54, 0.000, 0.000, 0.000, 16:35:26.322
242, -187500.02, -52499.02, 134226.05, 141765.67, -30181.58, -41819.29, -32436.22, -187500.02, 57220.73, 16954.69, 170943.56, 2125.38, 6916.32, -5120.92, 58856.70, 7984.15, 0.000, 0.000, 0.000, 16:35:26.322
243, -187500.02, -52517.10, 134225.16, 141763.66, -30172.48, -41828.32, -32428.20, -187500.02, 57220.73, 16954.69, 170943.56, 2125.38, 6916.32, -5120.92, 58856.70, 7984.15, 0.000, 0.000, 0.000, 16:35:26.322
244, -187500.02, -52517.10, 134225.16, 141763.66, -30172.48, -41828.32, -32428.20, -187500.02, 57223.14, 16969.13, 170950.45, 2131.71, 6920.28, -5132.59, 58852.19, 7966.25, 0.000, 0.000, 0.000, 16:35:26.323
245, -187500.02, -52503.02, 134234.11, 141770.27, -30179.82, -41819.13, -32442.04, -187500.02, 57223.14, 16969.13, 170950.45, 2131.71, 6920.28, -5132.59, 58852.19, 7966.25, 0.000, 0.000, 0.000, 16:35:26.323
246, -187500.02, -52503.02, 134234.11, 141770.27, -30179.82, -41819.13, -32442.04, -187500.02, 57220.73, 16975.84, 170938.69, 2123.51, 6913.66, -5130.04, 58845.73, 7939.52, 0.018, 0.920, -0.232, 16:35:26.323
247, -187500.02, -52503.51, 134219.06, 141749.80, -30159.36, -41839.58, -32414.74, -187500.02, 57220.73, 16975.84, 170938.69, 2123.51, 6913.66, -5130.04, 58845.73, 7939.52, 0.000, 0.000, 0.000, 16:35:26.324
248, -187500.02, -52503.51, 134219.06, 141749.80, -30159.36, -41839.58, -32414.74, -187500.02, 57236.27, 16979.14, 170956.19, 2135.75, 6932.62, -5095.62, 58865.38, 7933.75, 0.000, 0.000, 0.000, 16:35:26.324
249, -187500.02, -52521.32, 134241.22, 141774.39, -30180.89, -41811.04, -32443.69, -187500.02, 57236.27, 16979.14, 170956.19, 2135.75, 6932.62, -5095.62, 58865.38, 7933.75, 0.000, 0.000, 0.000, 16:35:26.324
250, -187500.02, -52521.32, 134241.22, 141774.39, -30180.89, -41811.04, -32443.69, -187500.02, 57229.92, 16989.34, 170944.66, 2134.88, 6926.47, -5124.36, 58839.64, 7900.81, 0.000, 0.000, 0.000, 16:35:26.325
251, -187500.02, -52484.00, 134222.41, 141752.20, -30156.03, -41827.06, -32417.87, -187500.02, 57229.92, 16989.34, 170944.66, 2134.88, 6926.47, -5124.36, 58839.64, 7900.81, 0.000, 0.000, 0.000, 16:35:26.325
252, -187500.02, -52484.00, 134222.41, 141752.20, -30156.03, -41827.06, -32417.87, -187500.02, 57241.90, 16992.33, 170954.00, 2130.95, 6935.05, -5128.21, 58862.00, 7910.08, 0.000, 0.000, 0.000, 16:35:26.325
253, -187500.02, -52523.56, 134234.20, 141770.45, -30168.77, -41807.04, -32436.78, -187500.02, 57241.90, 16992.33, 170954.00, 2130.95, 6935.05, -5128.21, 58862.00, 7910.08, 0.000, 0.000, 0.000, 16:35:26.325
254, -187500.02, -52523.56, 134234.20, 141770.45, -30168.77, -41807.04, -32436.78, -187500.02, 57234.79, 16972.57, 170960.34, 2142.48, 6941.87, -5121.81, 58823.53, 7875.21, 0.000, 0.000, 0.000, 16:35:26.326
255, -187500.02, -52491.53, 134226.61, 141759.44, -30152.81, -41822.08, -32433.32, -187500.02, 57234.79, 16972.57, 170960.34, 2142.48, 6941.87, -5121.81, 58823.53, 7875.21, 0.000, 0.000, 0.000, 16:35:26.326
0, -187500.02, -52491.53, 134226.61, 141759.44, -30152.81, -41822.08, -32433.32, -187500.02, 57237.18, 16995.06, 170954.97, 2128.65, 6937.71, -5120.00, 58832.29, 7885.36, 0.016, 0.918, -0.232, 16:35:26.326
1, -187500.02, -52521.39, 134239.91, 141773.63, -30147.50, -41814.95, -32435.69, -187500.02, 57237.18, 16995.06, 170954.97, 2128.65, 6937.71, -5120.00, 58832.29, 7885.36, 0.000, 0.000, 0.000, 16:35:26.327
2, -187500.02, -52521.39, 134239.91, 141773.63, -30147.50, -41814.95, -32435.69, -187500.02, 57237.03, 16962.72, 170962.66, 2144.52, 6946.79, -5100.60, 58820.60, 7868.93, 0.000, 0.000, 0.000, 16:35:26.327
3, -187500.02, -52515.38, 134240.55, 141775.95, -30150.87, -41811.57, -32437.14, -187500.02, 57237.03, 16962.72, 170962.66, 2144.52, 6946.79, -5100.60, 58820.60, 7868.93, 0.000, 0.000, 0.000, 16:35:26.327
4, -187500.02, -52515.38, 134240.55, 141775.95, -30150.87, -41811.57, -32437.14, -187500.02, 57234.84, 16999.93, 170949.17, 2136.56, 6930.78, -5133.75, 58829.86, 7876.84, 0.000, 0.000, 0.000, 16:35:26.328
5, -187500.02, -52486.75, 134231.39, 141770.36, -30146.20, -41820.96, -32420.76, -187500.02, 57234.84, 16999.93, 170949.17, 2136.56, 6930.78, -5133.75, 58829.86, 7876.84, 0.000, 0.000, 0.000, 16:35:26.328
6, -187500.02, -52486.75, 134231.39, 141770.36, -30146.20, -41820.96, -32420.76, -187500.02, 57247.13, 16989.38, 170969.84, 2144.00, 6952.53, -5106.55, 58844.96, 7876.08, 0.000, 0.000, 0.000, 16:35:26.328
7, -187500.02, -52528.09, 134240.73, 141778.88, -30156.77, -41808.38, -32432.13, -187500.02, 57247.13, 16989.38, 170969.84, 2144.00, 6952.53, -5106.55, 58844.96, 7876.08, 0.000, 0.000, 0.000, 16:35:26.329
8, -187500.02, -52528.09, 134240.73, 141778.88, -30156.77, -41808.38, -32432.13, -187500.02, 57240.54, 16992.67, 170962.08, 2145.81, 6945.38, -5116.36, 58837.52, 7867.23, 0.000, 0.000, 0.000, 16:35:26.329
9, -187500.02, -52500.00, 134239.59, 141781.20, -30158.52, -41815.20, -32435.15, -187500.02, 57240.54, 16992.67, 170962.08, 2145.81, 6945.38, -5116.36, 58837.52, 7867.23, 0.000, 0.000, 0.000, 16:35:26.330
10, -187500.02, -52500.00, 134239.59, 141781.20, -30158.52, -41815.20, -32435.15, -187500.02, 57247.49, 16983.55, 170985.98, 2159.60, 6967.57, -5066.25, 58821.72, 7858.38, 0.016, 0.916, -0.224, 16:35:26.330
11, -187500.02, -52554.54, 134239.61, 141788.59, -30167.48, -41805.92, -32457.82, -187500.02, 57247.49, 16983.55, 170985.98, 2159.60, 6967.57, -5066.25, 58821.72, 7858.38, 0.000, 0.000, 0.000, 16:35:26.330
12, -187500.02, -52554.54, 134239.61, 141788.59, -30167.48, -41805.92, -32457.82, -187500.02, 57244.67, 16956.64, 170975.13, 2157.26, 6950.65, -5107.10, 58820.60, 7861.58, 0.000, 0.000, 0.000, 16:35:26.331
13, -187500.02, -52543.32, 134238.69, 141793.30, -30155.21, -41811.44, -32449.37, -187500.02, 57244.67, 16956.64, 170975.13, 2157.26, 6950.65, -5107.10, 58820.60, 7861.58, 0.000, 0.000, 0.000, 16:35:26.331
14, -187500.02, -52543.32, 134238.69, 141793.30, -30155.21, -41811.44, -32449.37, -187500.02, 57241.32, 16990.63, 170970.72, 2158.22, 6942.92, -5104.69, 58829.50, 7877.31, 0.000, 0.000, 0.000, 16:35:26.331
15, -187500.02, -52518.24, 134233.23, 141788.17, -30151.68, -41819.06, -32430.53, -187500.02, 57241.32, 16990.63, 170970.72, 2158.22, 6942.92, -5104.69, 58829.50, 7877.31, 0.000, 0.000, 0.000, 16:35:26.331
16, -187500.02, -52518.24, 134233.23, 141788.17, -30151.68, -41819.06, -32430.53, -187500.02, 57249.92, 16980.75, 170978.59, 2158.11, 6953.72, -5106.86, 58848.16, 7886.90, 0.000, 0.000, 0.000, 16:35:26.331
17, -187500.02, -52539.90, 134232.86, 141785.09, -30150.80, -41812.82, -32421.34, -187500.02, 57249.92, 16980.75, 170978.59, 2158.11, 6953.72, -5106.86, 58848.16, 7886.90, 0.000, 0.000, 0.000, 16:35:26.332
18, -187500.02, -52539.90, 134232.86, 141785.09, -30150.80, -41812.82, -32421.34, -187500.02, 57249.43, 16999.98, 170970.92, 2156.52, 6951.39, -5094.54, 58859.43, 7895.84, 0.000, 0.000, 0.000, 16:35:26.332
19, -187500.02, -52510.28, 134235.50, 141782.59, -30164.21, -41828.85, -32424.82, -187500.02, 57249.43, 16999.98, 170970.92, 2156.52, 6951.39, -5094.54, 58859.43, 7895.84, 0.000, 0.000, 0.000, 16:35:26.332
20, -187500.02, -52510.28, 134235.50, 141782.59, -30164.21, -41828.85, -32424.82, -187500.02, 57257.16, 17003.49, 170985.92, 2157.93, 6963.04, -5078.58, 58856.84, 7896.69, 0.014, 0.918, -0.224, 16:35:26.333
21, -187500.02, -52534.91, 134228.33, 141772.13, -30158.09, -41828.45, -32419.84, -187500.02, 57257.16, 17003.49, 170985.92, 2157.93, 6963.04, -5078.58, 58856.84, 7896.69, 0.000, 0.000, 0.000, 16:35:26.333
22, -187500.02, -52534.91, 134228.33, 141772.13, -30158.09, -41828.45, -32419.84, -187500.02, 57250.95, 17009.50, 170960.31, 2133.07, 6936.35, -5133.06, 58894.92, 7925.35, 0.000, 0.000, 0.000, 16:35:26.333
23, -187500.02, -52500.13, 134227.77, 141776.64, -30143.83, -41835.09, -32398.56, -187500.02, 57250.95, 17009.50, 170960.31, 2133.07, 6936.35, -5133.06, 58894.92, 7925.35, 0.000, 0.000, 0.000, 16:35:26.334
24, -187500.02, -52500.13, 134227.77, 141776.64, -30143.83, -41835.09, -32398.56, -187500.02, 57255.89, 17034.49, 170984.16, 2153.61, 6960.18, -5103.82, 58896.49, 7920.12, 0.000, 0.000, 0.000, 16:35:26.334
25, -187500.02, -52491.26, 134233.39, 141788.20, -30141.64, -41832.47, -32399.68, -187500.02, 57255.89, 17034.49, 170984.16, 2153.61, 6960.18, -5103.82, 58896.49, 7920.12, 0.000, 0.000, 0.000, 16:35:26.334
26, -187500.02, -52491.26, 134233.39, 141788.20, -30141.64, -41832.47, -32399.68, -187500.02, 57255.27, 17006.26, 170995.84, 2156.23, 6963.17, -5105.83, 58898.88, 7914.22, 0.000, 0.000, 0.000, 16:35:26.334
27, -187500.02, -52517.48, 134237.98, 141795.91, -30131.94, -41828.72, -32400.46, -187500.02, 57255.27, 17006.26, 170995.84, 2156.23, 6963.17, -5105.83, 58898.88, 7914.22, 0.000, 0.000, 0.000, 16:35:26.335
28, -187500.02, -52517.48, 134237.98, 141795.91, -30131.94, -41828.72, -32400.46, -187500.02, 57246.93, 17026.22, 170978.80, 2149.39, 6945.11, -5118.44, 58915.73, 7923.65, 0.000, 0.000, 0.000, 16:35:26.335
29, -187500.02, -52471.10, 134235.47, 141796.27, -30126.57, -41832.12, -32387.97, -187500.02, 57246.93, 17026.22, 170978.80, 2149.39, 6945.11, -5118.44, 58915.73, 7923.65, 0.000, 0.000, 0.000, 16:35:26.335
30, -187500.02, -52471.10, 134235.47, 141796.27, -30126.57, -41832.12, -32387.97, -187500.02, 57256.29, 17043.29, 170991.22, 2159.20, 6957.94, -5100.73, 58923.98, 7923.16, 0.024, 0.920, -0.218, 16:35:26.336
31, -187500.02, -52487.97, 134230.56, 141797.09, -30110.15, -41835.29, -32377.95, -187500.02, 57256.29, 17043.29, 170991.22, 2159.20, 6957.94, -5100.73, 58923.98, 7923.16, 0.000, 0.000, 0.000, 16:35:26.336
32, -187500.02, -52487.97, 134230.56, 141797.09, -30110.15, -41835.29, -32377.95, -187500.02, 57256.18, 17043.43, 170981.98, 2156.43, 6951.75, -5108.98, 58945.95, 7932.32, 0.000, 0.000, 0.000, 16:35:26.336
33, -187500.02, -52474.56, 134230.73, 141805.36, -30113.97, -41843.29, -32373.84, -187500.02, 57256.18, 17043.43, 170981.98, 2156.43, 6951.75, -5108.98, 58945.95, 7932.32, 0.000, 0.000, 0.000, 16:35:26.336
34, -187500.02, -52474.56, 134230.73, 141805.36, -30113.97, -41843.29, -32373.84, -187500.02, 57263.78, 17060.24, 171003.98, 2174.29, 6970.86, -5080.62, 58933.34, 7917.26, 0.000, 0.000, 0.000, 16:35:26.337
35, -187500.02, -52491.17, 134247.88, 141815.47, -30139.07, -41831.11, -32398.12, -187500.02, 57263.78, 17060.24, 171003.98, 2174.29, 6970.86, -5080.62, 58933.34, 7917.26, 0.000, 0.000, 0.000, 16:35:26.337
36, -187500.02, -52491.17, 134247.88, 141815.47, -30139.07, -41831.11, -32398.12, -187500.02, 57262.30, 17012.34, 171014.75, 2178.74, 6982.62, -5094.03, 58912.76, 7893.47, 0.000, 0.000, 0.000, 16:35:26.337
37, -187500.02, -52529.70, 134247.45, 141810.28, -30139.00, -41837.19, -32403.93, -187500.02, 57262.30, 17012.34, 171014.75, 2178.74, 6982.62, -5094.03, 58912.76, 7893.47, 0.000, 0.000, 0.000, 16:35:26.338
38, -187500.02, -52529.70, 134247.45, 141810.28, -30139.00, -41837.19, -32403.93, -187500.02, 57258.46, 17021.43, 171001.30, 2176.99, 6971.46, -5095.48, 58916.52, 7903.62, 0.000, 0.000, 0.000, 16:35:26.338
39, -187500.02, -52495.28, 134248.47, 141809.41, -30133.55, -41835.76, -32395.75, -187500.02, 57258.46, 17021.43, 171001.30, 2176.99, 6971.46, -5095.48, 58916.52, 7903.62, 0.000, 0.000, 0.000, 16:35:26.338
40, -187500.02, -52495.28, 134248.47, 141809.41, -30133.55, -41835.76, -32395.75, -187500.02, 57260.07, 17046.76, 170989.75, 2169.26, 6961.25, -5104.71, 58938.38, 7927.36, 0.016, 0.924, -0.222, 16:35:26.338
41, -187500.02, -52505.23, 134243.86, 141805.36, -30125.90, -41843.00, -32375.25, -187500.02, 57260.07, 17046.76, 170989.75, 2169.26, 6961.25, -5104.71, 58938.38, 7927.36, 0.000, 0.000, 0.000, 16:35:26.339
42, -187500.02, -52505.23, 134243.86, 141805.36, -30125.90, -41843.00, -32375.25, -187500.02, 57272.63, 17031.83, 171014.42, 2185.24, 6981.70, -5057.57, 58945.97, 7926.58, 0.000, 0.000, 0.000, 16:35:26.339
43, -187500.02, -52498.41, 134246.39, 141807.70, -30137.97, -41840.96, -32380.12, -187500.02, 57272.63, 17031.83, 171014.42, 2185.24, 6981.70, -5057.57, 58945.97, 7926.58, 0.000, 0.000, 0.000, 16:35:26.339
44, -187500.02, -52498.41, 134246.39, 141807.70, -30137.97, -41840.96, -32380.12, -187500.02, 57269.73, 17072.69, 171005.08, 2182.58, 6970.19, -5074.65, 58957.24, 7934.85, 0.000, 0.000, 0.000, 16:35:26.340
45, -187500.02, -52480.57, 134246.14, 141814.59, -30140.30, -41839.96, -32376.28, -187500.02, 57269.73, 17072.69, 171005.08, 2182.58, 6970.19, -5074.65, 58957.24, 7934.85, 0.000, 0.000, 0.000, 16:35:26.341
46, -187500.02, -52480.57, 134246.14, 141814.59, -30140.30, -41839.96, -32376.28, -187500.02, 57267.29, 17058.87, 171004.25, 2175.61, 6968.42, -5091.28, 58966.89, 7936.41, 0.000, 0.000, 0.000, 16:35:26.341
47, -187500.02, -52491.28, 134247.13, 141818.27, -30125.93, -41843.67, -32359.98, -187500.02, 57267.29, 17058.87, 171004.25, 2175.61, 6968.42, -5091.28, 58966.89, 7936.41, 0.000, 0.000, 0.000, 16:35:26.341
48, -187500.02, -52491.28, 134247.13, 141818.27, -30125.93, -41843.67, -32359.98, -187500.02, 57270.31, 17068.04, 171019.25, 2181.31, 6982.28, -5084.95, 58969.78, 7933.91, 0.000, 0.000, 0.000, 16:35:26.342
49, -187500.02, -52463.32, 134249.83, 141823.80, -30129.01, -41827.91, -32367.18, -187500.02, 57270.31, 17068.04, 171019.25, 2181.31, 6982.28, -5084.95, 58969.78, 7933.91, 0.000, 0.000, 0.000, 16:35:26.342
50, -187500.02, -52463.32, 134249.83, 141823.80, -30129.01, -41827.91, -32367.18, -187500.02, 57266.08, 17088.80, 171000.52, 2166.11, 6964.71, -5083.64, 58979.48, 7949.76, 0.020, 0.924, -0.228, 16:35:26.342
51, -187500.02, -52473.60, 134243.36, 141815.91, -30117.14, -41820.13, -32351.73, -187500.02, 57266.08, 17088.80, 171000.52, 2166.11, 6964.71, -5083.64, 58979.48, 7949.76, 0.000, 0.000, 0.000, 16:35:26.343
52, -187500.02, -52473.60, 134243.36, 141815.91, -30117.14, -41820.13, -32351.73, -187500.02, 57278.24, 17071.19, 171022.80, 2170.38, 6989.73, -5073.18, 58983.35, 7955.77, 0.000, 0.000, 0.000, 16:35:26.343
53, -187500.02, -52472.80, 134248.63, 141811.53, -30113.45, -41830.42, -32362.40, -187500.02, 57278.24, 17071.19, 171022.80, 2170.38, 6989.73, -5073.18, 58983.35, 7955.77, 0.000, 0.000, 0.000, 16:35:26.343
54, -187500.02, -52472.80, 134248.63, 141811.53, -30113.45, -41830.42, -32362.40, -187500.02, 57275.96, 17101.68, 171006.95, 2161.50, 6980.94, -5076.68, 58986.88, 7971.68, 0.000, 0.000, 0.000, 16:35:26.344
55, -187500.02, -52456.35, 134247.70, 141807.84, -30111.69, -41830.04, -32359.16, -187500.02, 57275.96, 17101.68, 171006.95, 2161.50, 6980.94, -5076.68, 58986.88, 7971.68, 0.000, 0.000, 0.000, 16:35:26.344
56, -187500.02, -52456.35, 134247.70, 141807.84, -30111.69, -41830.04, -32359.16, -187500.02, 57281.51, 17096.89, 170998.89, 2149.43, 6980.85, -5099.95, 59006.64, 7994.03, 0.000, 0.000, 0.000, 16:35:26.344
57, -187500.02, -52464.55, 134237.33, 141795.64, -30118.06, -41840.92, -32345.03, -187500.02, 57281.51, 17096.89, 170998.89, 2149.43, 6980.85, -5099.95, 59006.64, 7994.03, 0.000, 0.000, 0.000, 16:35:26.344
58, -187500.02, -52464.55, 134237.33, 141795.64, -30118.06, -41840.92, -32345.03, -187500.02, 57295.34, 17117.32, 171018.58, 2159.22, 7003.72, -5077.67, 59015.22, 8007.33, 0.000, 0.000, 0.000, 16:35:26.345
59, -187500.02, -52447.41, 134247.97, 141801.14, -30134.20, -41836.86, -32366.06, -187500.02, 57295.34, 17117.32, 171018.58, 2159.22, 7003.72, -5077.67, 59015.22, 8007.33, 0.016, 0.920, -0.232, 16:35:26.345
60, -187500.02, -52447.41, 134247.97, 141801.14, -30134.20, -41836.86, -32366.06, -187500.02, 57293.96, 17116.25, 171032.75, 2165.08, 7010.60, -5068.39, 59003.11, 8003.82, 0.000, 0.000, 0.000, 16:35:26.345
61, -187500.02, -52486.36, 134260.02, 141814.92, -30138.20, -41819.98, -32380.12, -187500.02, 57293.96, 17116.25, 171032.75, 2165.08, 7010.60, -5068.39, 59003.11, 8003.82, 0.000, 0.000, 0.000, 16:35:26.346
62, -187500.02, -52486.36, 134260.02, 141814.92, -30138.20, -41819.98, -32380.12, -187500.02, 57283.63, 17086.34, 171023.55, 2160.83, 6994.37, -5082.43, 58999.95, 8010.55, 0.000, 0.000, 0.000, 16:35:26.346
63, -187500.02, -52453.82, 134252.84, 141811.75, -30106.41, -41833.86, -32358.06, -187500.02, 57283.63, 17086.34, 171023.55, 2160.83, 6994.37, -5082.43, 58999.95, 8010.55, 0.000, 0.000, 0.000, 16:35:26.346
64, -187500.02, -52453.82, 134252.84, 141811.75, -30106.41, -41833.86, -32358.06, -187500.02, 57282.45, 17141.46, 171016.36, 2154.57, 6978.97, -5075.97, 59028.56, 8048.75, 0.000, 0.000, 0.000, 16:35:26.346
65, -187500.02, -52436.16, 134264.23, 141831.69, -30112.76, -41826.97, -32356.27, -187500.02, 57282.45, 17141.46, 171016.36, 2154.57, 6978.97, -5075.97, 59028.56, 8048.75, 0.000, 0.000, 0.000, 16:35:26.346
66, -187500.02, -52436.16, 134264.23, 141831.69, -30112.76, -41826.97, -32356.27, -187500.02, 57294.63, 17109.37, 171048.28, 2176.28, 7010.69, -5050.13, 59016.49, 8041.51, 0.000, 0.000, 0.000, 16:35:26.346
67, -187500.02, -52484.33, 134274.13, 141840.98, -30128.52, -41815.84, -32378.31, -187500.02, 57294.63, 17109.37, 171048.28, 2176.28, 7010.69, -5050.13, 59016.49, 8041.51, 0.000, 0.000, 0.000, 16:35:26.347
