%OpenBCI Raw EEG Data
%
%Sample Rate = 250.0 Hz
%First Column = SampleIndex
%Last Column = Timestamp 
%Other Columns = EEG data in microvolts followed by Accel Data (in G) interleaved with Aux Data
0, 0.00, 0.00, 0.00, 0.00, 0.00, 0.00, 0.00, 0.00, -24770.76, -40328.54, -32483.05, -17739.57, -27287.97, -48294.52, -28223.79, -44118.14, 0.022, 0.970, -0.082, 14:59:27.456
1, -45311.30, 29087.91, 33618.59, 18726.38, 64218.01, 35045.39, 60123.44, 73298.07, -24770.76, -40328.54, -32483.05, -17739.57, -27287.97, -48294.52, -28223.79, -44118.14, 0.000, 0.000, 0.000, 14:59:27.942
2, -45311.30, 29087.91, 33618.59, 18726.38, 64218.01, 35045.39, 60123.44, 73298.07, -36739.25, -81003.30, -65075.58, -29236.66, -61957.67, -99433.72, -56484.91, -77949.54, 0.000, 0.000, 0.000, 14:59:27.942
3, -91249.23, 58232.55, 67304.14, 36861.71, 128501.72, 70081.43, 120234.86, 146436.42, -36739.25, -81003.30, -65075.58, -29236.66, -61957.67, -99433.72, -56484.91, -77949.54, 0.000, 0.000, 0.000, 14:59:27.943
4, -91249.23, 58232.55, 67304.14, 36861.71, 128501.72, 70081.43, 120234.86, 146436.42, -36761.89, -80961.01, -65822.38, -29654.13, -62112.12, -99394.25, -56684.65, -78280.12, 0.000, 0.000, 0.000, 14:59:27.943
5, -91407.34, 58205.08, 67265.09, 36841.08, 128457.62, 70109.87, 120264.88, 146539.58, -36761.89, -80961.01, -65822.38, -29654.13, -62112.12, -99394.25, -56684.65, -78280.12, 0.000, 0.000, 0.000, 14:59:27.943
6, -91407.34, 58205.08, 67265.09, 36841.08, 128457.62, 70109.87, 120264.88, 146539.58, -36687.30, -81025.79, -64963.67, -29055.01, -61779.37, -99457.39, -56422.98, -77938.56, 0.000, 0.000, 0.000, 14:59:27.943
7, -90746.41, 58191.65, 67266.92, 37333.74, 128466.40, 70062.52, 120240.06, 146520.94, -36687.30, -81025.79, -64963.67, -29055.01, -61779.37, -99457.39, -56422.98, -77938.56, 0.000, 0.000, 0.000, 14:59:27.943
8, -90746.41, 58191.65, 67266.92, 37333.74, 128466.40, 70062.52, 120240.06, 146520.94, -36775.97, -80945.56, -65649.17, -29636.11, -62170.32, -99388.48, -56672.71, -78180.23, 0.040, 0.956, -0.108, 14:59:27.944
9, -91654.63, 58202.60, 67304.77, 36588.48, 128505.38, 70108.37, 120272.56, 146454.77, -36775.97, -80945.56, -65649.17, -29636.11, -62170.32, -99388.48, -56672.71, -78180.23, 0.000, 0.000, 0.000, 14:59:27.944
10, -91654.63, 58202.60, 67304.77, 36588.48, 128505.38, 70108.37, 120272.56, 146454.77, -36694.81, -81000.15, -65384.53, -29306.33, -61878.52, -99432.24, -56529.97, -78130.27, 0.000, 0.000, 0.000, 14:59:27.944
11, -90911.98, 58157.83, 67248.71, 37249.05, 128456.08, 70093.77, 120273.46, 146568.70, -36694.81, -81000.15, -65384.53, -29306.33, -61878.52, -99432.24, -56529.97, -78130.27, 0.000, 0.000, 0.000, 14:59:27.944
12, -90911.98, 58157.83, 67248.71, 37249.05, 128456.08, 70093.77, 120273.46, 146568.70, -36727.09, -81000.04, -65053.74, -29232.95, -61945.36, -99439.40, -56479.21, -77942.61, 0.000, 0.000, 0.000, 14:59:27.944
13, -91262.17, 58193.77, 67300.67, 36875.62, 128521.32, 70076.23, 120253.23, 146423.28, -36727.09, -81000.04, -65053.74, -29232.95, -61945.36, -99439.40, -56479.21, -77942.61, 0.000, 0.000, 0.000, 14:59:27.944
14, -91262.17, 58193.77, 67300.67, 36875.62, 128521.32, 70076.23, 120253.23, 146423.28, -36758.18, -80968.39, -65808.07, -29669.12, -62111.74, -99412.60, -56679.82, -78279.90, 0.000, 0.000, 0.000, 14:59:27.945
15, -91412.33, 58148.35, 67253.27, 36860.06, 128471.56, 70100.59, 120277.39, 146521.36, -36758.18, -80968.39, -65808.07, -29669.12, -62111.74, -99412.60, -56679.82, -78279.90, 0.000, 0.000, 0.000, 14:59:27.945
16, -91412.33, 58148.35, 67253.27, 36860.06, 128471.56, 70100.59, 120277.39, 146521.36, -36692.93, -81033.61, -64964.34, -29093.46, -61795.71, -99469.98, -56425.50, -77947.84, 0.000, 0.000, 0.000, 14:59:27.945
17, -90749.04, 58144.71, 67251.48, 37353.61, 128471.97, 70067.09, 120244.16, 146498.00, -36692.93, -81033.61, -64964.34, -29093.46, -61795.71, -99469.98, -56425.50, -77947.84, 0.030, 0.950, -0.114, 14:59:27.946
18, -90749.04, 58144.71, 67251.48, 37353.61, 128471.97, 70067.09, 120244.16, 146498.00, -36785.70, -80952.63, -65652.26, -29650.19, -62179.98, -99391.09, -56683.78, -78185.38, 0.000, 0.000, 0.000, 14:59:27.946
19, -91667.72, 58189.28, 67304.70, 36596.27, 128519.06, 70120.30, 120278.42, 146424.64, -36785.70, -80952.63, -65652.26, -29650.19, -62179.98, -99391.09, -56683.78, -78185.38, 0.000, 0.000, 0.000, 14:59:27.946
20, -91667.72, 58189.28, 67304.70, 36596.27, 128519.06, 70120.30, 120278.42, 146424.64, -36688.62, -80994.54, -65396.64, -29304.99, -61879.59, -99426.16, -56549.53, -78162.41, 0.000, 0.000, 0.000, 14:59:27.946
21, -90932.99, 58145.56, 67240.48, 37252.18, 128444.63, 70089.99, 120254.41, 146534.14, -36688.62, -80994.54, -65396.64, -29304.99, -61879.59, -99426.16, -56549.53, -78162.41, 0.000, 0.000, 0.000, 14:59:27.946
22, -90932.99, 58145.56, 67240.48, 37252.18, 128444.63, 70089.99, 120254.41, 146534.14, -36722.75, -81001.24, -65054.14, -29219.54, -61951.57, -99440.38, -56503.87, -77963.55, 0.000, 0.000, 0.000, 14:59:27.946
23, -91284.79, 58193.59, 67301.28, 36883.59, 128502.05, 70070.52, 120228.11, 146379.95, -36722.75, -81001.24, -65054.14, -29219.54, -61951.57, -99440.38, -56503.87, -77963.55, 0.000, 0.000, 0.000, 14:59:27.947
24, -91284.79, 58193.59, 67301.28, 36883.59, 128502.05, 70070.52, 120228.11, 146379.95, -36745.53, -80952.70, -65808.72, -29634.66, -62102.26, -99385.91, -56705.52, -78304.41, 0.000, 0.000, 0.000, 14:59:27.947
25, -91449.01, 58167.64, 67266.52, 36859.10, 128462.96, 70113.60, 120259.55, 146489.55, -36745.53, -80952.70, -65808.72, -29634.66, -62102.26, -99385.91, -56705.52, -78304.41, 0.000, 0.000, 0.000, 14:59:27.947
26, -91449.01, 58167.64, 67266.52, 36859.10, 128462.96, 70113.60, 120259.55, 146489.55, -36673.96, -81020.84, -64946.12, -29049.13, -61773.92, -99453.01, -56440.32, -77960.63, 0.000, 0.000, 0.000, 14:59:27.947
27, -90782.37, 58152.35, 67256.15, 37360.98, 128463.25, 70070.48, 120226.68, 146477.89, -36673.96, -81020.84, -64946.12, -29049.13, -61773.92, -99453.01, -56440.32, -77960.63, 0.038, 0.962, -0.110, 14:59:27.947
28, -90782.37, 58152.35, 67256.15, 37360.98, 128463.25, 70070.48, 120226.68, 146477.89, -36776.84, -80946.93, -65632.43, -29631.80, -62179.36, -99383.36, -56698.59, -78188.41, 0.000, 0.000, 0.000, 14:59:27.947
29, -91702.66, 58192.38, 67305.34, 36604.98, 128515.93, 70126.95, 120273.23, 146401.31, -36776.84, -80946.93, -65632.43, -29631.80, -62179.36, -99383.36, -56698.59, -78188.41, 0.000, 0.000, 0.000, 14:59:27.948
30, -91702.66, 58192.38, 67305.34, 36604.98, 128515.93, 70126.95, 120273.23, 146401.31, -36692.96, -81008.11, -65368.86, -29284.88, -61884.02, -99436.76, -56548.82, -78137.72, 0.000, 0.000, 0.000, 14:59:27.948
31, -90946.07, 58138.96, 67239.27, 37277.14, 128456.05, 70087.55, 120262.41, 146518.88, -36692.96, -81008.11, -65368.86, -29284.88, -61884.02, -99436.76, -56548.82, -78137.72, 0.000, 0.000, 0.000, 14:59:27.948
32, -90946.07, 58138.96, 67239.27, 37277.14, 128456.05, 70087.55, 120262.41, 146518.88, -36718.93, -81005.78, -65048.71, -29217.51, -61960.51, -99442.53, -56498.48, -77949.80, 0.000, 0.000, 0.000, 14:59:27.948
33, -91302.85, 58182.44, 67296.32, 36902.62, 128519.64, 70064.73, 120253.21, 146382.44, -36718.93, -81005.78, -65048.71, -29217.51, -61960.51, -99442.53, -56498.48, -77949.80, 0.000, 0.000, 0.000, 14:59:27.948
34, -91302.85, 58182.44, 67296.32, 36902.62, 128519.64, 70064.73, 120253.21, 146382.44, -36747.29, -80969.51, -65789.79, -29632.06, -62126.20, -99407.08, -56687.62, -78269.59, 0.000, 0.000, 0.000, 14:59:27.948
35, -91458.82, 58167.15, 67262.05, 36883.11, 128476.68, 70101.30, 120289.93, 146480.94, -36747.29, -80969.51, -65789.79, -29632.06, -62126.20, -99407.08, -56687.62, -78269.59, 0.000, 0.000, 0.000, 14:59:27.949
36, -91458.82, 58167.15, 67262.05, 36883.11, 128476.68, 70101.30, 120289.93, 146480.94, -36675.10, -81034.05, -64934.92, -29046.63, -61792.31, -99465.73, -56425.43, -77935.05, 0.000, 0.000, 0.000, 14:59:27.949
37, -90778.61, 58143.39, 67240.86, 37393.73, 128460.32, 70053.67, 120248.38, 146476.78, -36675.10, -81034.05, -64934.92, -29046.63, -61792.31, -99465.73, -56425.43, -77935.05, 0.028, 0.970, -0.110, 14:59:27.949
38, -90778.61, 58143.39, 67240.86, 37393.73, 128460.32, 70053.67, 120248.38, 146476.78, -36785.49, -80972.21, -65611.98, -29626.92, -62198.71, -99416.71, -56684.63, -78150.66, 0.000, 0.000, 0.000, 14:59:27.949
39, -91672.64, 58173.83, 67281.50, 36656.84, 128502.09, 70096.32, 120278.84, 146390.52, -36785.49, -80972.21, -65611.98, -29626.92, -62198.71, -99416.71, -56684.63, -78150.66, 0.000, 0.000, 0.000, 14:59:27.950
40, -91672.64, 58173.83, 67281.50, 36656.84, 128502.09, 70096.32, 120278.84, 146390.52, -36693.07, -81016.69, -65362.36, -29302.80, -61903.31, -99454.11, -56560.75, -78114.13, 0.000, 0.000, 0.000, 14:59:27.950
41, -90913.88, 58120.46, 67209.15, 37331.77, 128425.27, 70072.18, 120252.58, 146497.03, -36693.07, -81016.69, -65362.36, -29302.80, -61903.31, -99454.11, -56560.75, -78114.13, 0.000, 0.000, 0.000, 14:59:27.950
42, -90913.88, 58120.46, 67209.15, 37331.77, 128425.27, 70072.18, 120252.58, 146497.03, -36739.20, -81032.40, -65029.47, -29240.95, -61988.74, -99475.36, -56525.61, -77907.56, 0.000, 0.000, 0.000, 14:59:27.950
43, -91269.14, 58180.70, 67277.52, 36951.19, 128495.62, 70062.77, 120235.69, 146336.48, -36739.20, -81032.40, -65029.47, -29240.95, -61988.74, -99475.36, -56525.61, -77907.56, 0.000, 0.000, 0.000, 14:59:27.951
44, -91269.14, 58180.70, 67277.52, 36951.19, 128495.62, 70062.77, 120235.69, 146336.48, -36751.32, -80976.16, -65799.04, -29676.83, -62139.43, -99418.21, -56730.04, -78270.71, 0.000, 0.000, 0.000, 14:59:27.951
45, -91436.65, 58153.07, 67243.74, 36921.75, 128449.81, 70101.77, 120266.06, 146444.67, -36751.32, -80976.16, -65799.04, -29676.83, -62139.43, -99418.21, -56730.04, -78270.71, 0.000, 0.000, 0.000, 14:59:27.951
46, -91436.65, 58153.07, 67243.74, 36921.75, 128449.81, 70101.77, 120266.06, 146444.67, -36673.71, -81037.70, -64938.05, -29080.09, -61808.11, -99473.89, -56461.84, -77934.85, 0.000, 0.000, 0.000, 14:59:27.951
47, -90782.59, 58164.89, 67253.29, 37409.35, 128463.25, 70062.28, 120242.77, 146428.03, -36673.71, -81037.70, -64938.05, -29080.09, -61808.11, -99473.89, -56461.84, -77934.85, 0.032, 0.974, -0.106, 14:59:27.951
48, -90782.59, 58164.89, 67253.29, 37409.35, 128463.25, 70062.28, 120242.77, 146428.03, -36764.17, -80946.51, -65625.23, -29643.82, -62192.96, -99397.06, -56710.33, -78184.16, 0.000, 0.000, 0.000, 14:59:27.952
49, -91698.05, 58200.70, 67298.38, 36657.44, 128508.09, 70107.63, 120279.74, 146364.02, -36764.17, -80946.51, -65625.23, -29643.82, -62192.96, -99397.06, -56710.33, -78184.16, 0.000, 0.000, 0.000, 14:59:27.952
50, -91698.05, 58200.70, 67298.38, 36657.44, 128508.09, 70107.63, 120279.74, 146364.02, -36709.61, -81005.34, -65350.62, -29293.41, -61904.52, -99448.45, -56558.76, -78127.75, 0.000, 0.000, 0.000, 14:59:27.952
51, -90931.50, 58134.47, 67225.48, 37341.98, 128438.13, 70080.07, 120260.83, 146481.55, -36709.61, -81005.34, -65350.62, -29293.41, -61904.52, -99448.45, -56558.76, -78127.75, 0.000, 0.000, 0.000, 14:59:27.952
52, -90931.50, 58134.47, 67225.48, 37341.98, 128438.13, 70080.07, 120260.83, 146481.55, -36809.45, -80991.77, -65045.77, -29244.51, -61974.81, -99437.59, -56521.86, -77947.41, 0.000, 0.000, 0.000, 14:59:27.953
53, -91318.41, 58198.31, 67300.99, 36936.84, 128517.99, 70090.13, 120265.57, 146340.16, -36809.45, -80991.77, -65045.77, -29244.51, -61974.81, -99437.59, -56521.86, -77947.41, 0.000, 0.000, 0.000, 14:59:27.953
54, -91318.41, 58198.31, 67300.99, 36936.84, 128517.99, 70090.13, 120265.57, 146340.16, -36895.55, -80971.60, -65771.84, -29650.37, -62120.66, -99413.20, -56703.51, -78263.06, 0.000, 0.000, 0.000, 14:59:27.954
55, -91431.93, 58142.25, 67245.89, 36953.51, 128454.04, 70100.88, 120273.44, 146444.52, -36895.55, -80971.60, -65771.84, -29650.37, -62120.66, -99413.20, -56703.51, -78263.06, 0.000, 0.000, 0.000, 14:59:27.954
56, -91431.93, 58142.25, 67245.89, 36953.51, 128454.04, 70100.88, 120273.44, 146444.52, -36855.99, -81037.37, -64915.63, -29081.76, -61809.90, -99478.00, -56445.46, -77915.97, 0.000, 0.000, 0.000, 14:59:27.954
57, -90781.48, 58152.51, 67256.62, 37431.62, 128470.73, 70062.79, 120256.67, 146421.63, -36855.99, -81037.37, -64915.63, -29081.76, -61809.90, -99478.00, -56445.46, -77915.97, 0.032, 0.968, -0.106, 14:59:27.954
58, -90781.48, 58152.51, 67256.62, 37431.62, 128470.73, 70062.79, 120256.67, 146421.63, -36969.05, -80958.69, -65613.41, -29649.16, -62193.30, -99408.84, -56707.29, -78171.87, 0.000, 0.000, 0.000, 14:59:27.955
59, -91684.66, 58173.14, 67286.66, 36688.29, 128503.95, 70091.85, 120282.24, 146352.33, -36969.05, -80958.69, -65613.41, -29649.16, -62193.30, -99408.84, -56707.29, -78171.87, 0.000, 0.000, 0.000, 14:59:27.955
60, -91684.66, 58173.14, 67286.66, 36688.29, 128503.95, 70091.85, 120282.24, 146352.33, -36901.84, -81011.39, -65356.36, -29317.33, -61904.29, -99456.84, -56576.42, -78130.48, 0.000, 0.000, 0.000, 14:59:27.955
61, -90953.18, 58134.43, 67224.86, 37337.83, 128452.25, 70072.09, 120281.69, 146462.77, -36901.84, -81011.39, -65356.36, -29317.33, -61904.29, -99456.84, -56576.42, -78130.48, 0.000, 0.000, 0.000, 14:59:27.955
62, -90953.18, 58134.43, 67224.86, 37337.83, 128452.25, 70072.09, 120281.69, 146462.77, -36941.62, -81016.60, -65043.86, -29245.65, -61979.78, -99467.18, -56536.03, -77947.73, 0.000, 0.000, 0.000, 14:59:27.955
63, -91315.23, 58179.09, 67273.49, 36953.24, 128513.27, 70059.48, 120257.92, 146317.44, -36941.62, -81016.60, -65043.86, -29245.65, -61979.78, -99467.18, -56536.03, -77947.73, 0.000, 0.000, 0.000, 14:59:27.956
64, -91315.23, 58179.09, 67273.49, 36953.24, 128513.27, 70059.48, 120257.92, 146317.44, -36959.77, -80964.19, -65797.74, -29655.62, -62140.95, -99411.10, -56738.02, -78294.36, 0.000, 0.000, 0.000, 14:59:27.956
65, -91482.78, 58182.77, 67240.15, 36920.79, 128466.71, 70101.46, 120287.23, 146411.92, -36959.77, -80964.19, -65797.74, -29655.62, -62140.95, -99411.10, -56738.02, -78294.36, 0.000, 0.000, 0.000, 14:59:27.956
66, -91482.78, 58182.77, 67240.15, 36920.79, 128466.71, 70101.46, 120287.23, 146411.92, -36884.20, -81026.61, -64938.27, -29060.37, -61823.85, -99469.91, -56483.93, -77963.35, 0.030, 0.968, -0.104, 14:59:27.957
67, -90830.45, 58187.22, 67237.87, 37404.48, 128463.96, 70063.69, 120253.95, 146397.81, -36884.20, -81026.61, -64938.27, -29060.37, -61823.85, -99469.91, -56483.93, -77963.35, 0.000, 0.000, 0.000, 14:59:27.957
68, -90830.45, 58187.22, 67237.87, 37404.48, 128463.96, 70063.69, 120253.95, 146397.81, -36988.00, -80954.04, -65613.34, -29627.44, -62217.55, -99406.34, -56735.61, -78190.80, 0.000, 0.000, 0.000, 14:59:27.957
69, -91728.61, 58207.98, 67280.67, 36667.03, 128496.35, 70100.21, 120276.48, 146331.77, -36988.00, -80954.04, -65613.34, -29627.44, -62217.55, -99406.34, -56735.61, -78190.80, 0.000, 0.000, 0.000, 14:59:27.957
70, -91728.61, 58207.98, 67280.67, 36667.03, 128496.35, 70100.21, 120276.48, 146331.77, -36918.71, -81017.77, -65333.79, -29283.69, -61926.38, -99465.77, -56589.16, -78122.18, 0.000, 0.000, 0.000, 14:59:27.958
71, -90951.01, 58145.60, 67212.84, 37360.29, 128424.02, 70064.16, 120250.52, 146442.75, -36918.71, -81017.77, -65333.79, -29283.69, -61926.38, -99465.77, -56589.16, -78122.18, 0.000, 0.000, 0.000, 14:59:27.958
72, -90951.01, 58145.60, 67212.84, 37360.29, 128424.02, 70064.16, 120250.52, 146442.75, -36962.21, -81024.80, -65005.62, -29215.81, -61994.75, -99486.45, -56545.66, -77905.30, 0.000, 0.000, 0.000, 14:59:27.958
73, -91297.35, 58198.55, 67282.10, 36989.52, 128496.38, 70044.44, 120237.59, 146287.89, -36962.21, -81024.80, -65005.62, -29215.81, -61994.75, -99486.45, -56545.66, -77905.30, 0.000, 0.000, 0.000, 14:59:27.958
74, -91297.35, 58198.55, 67282.10, 36989.52, 128496.38, 70044.44, 120237.59, 146287.89, -36969.25, -80967.05, -65760.59, -29635.01, -62140.86, -99420.04, -56743.97, -78250.80, 0.000, 0.000, 0.000, 14:59:27.958
75, -91461.46, 58185.61, 67262.81, 36959.19, 128464.84, 70097.08, 120280.61, 146390.95, -36969.25, -80967.05, -65760.59, -29635.01, -62140.86, -99420.04, -56743.97, -78250.80, 0.000, 0.000, 0.000, 14:59:27.959
76, -91461.46, 58185.61, 67262.81, 36959.19, 128464.84, 70097.08, 120280.61, 146390.95, -36881.99, -81021.23, -64902.16, -29039.30, -61810.42, -99469.02, -56475.97, -77927.05, 0.030, 0.962, -0.100, 14:59:27.959
77, -90819.34, 58191.18, 67268.80, 37429.61, 128471.68, 70060.34, 120256.60, 146374.97, -36881.99, -81021.23, -64902.16, -29039.30, -61810.42, -99469.02, -56475.97, -77927.05, 0.000, 0.000, 0.000, 14:59:27.959
78, -90819.34, 58191.18, 67268.80, 37429.61, 128471.68, 70060.34, 120256.60, 146374.97, -36980.27, -80947.80, -65583.16, -29606.76, -62196.34, -99401.76, -56722.80, -78163.87, 0.000, 0.000, 0.000, 14:59:27.959
79, -91710.84, 58212.70, 67305.48, 36696.45, 128508.55, 70106.09, 120289.10, 146316.64, -36980.27, -80947.80, -65583.16, -29606.76, -62196.34, -99401.76, -56722.80, -78163.87, 0.000, 0.000, 0.000, 14:59:27.959
80, -91710.84, 58212.70, 67305.48, 36696.45, 128508.55, 70106.09, 120289.10, 146316.64, -36908.29, -81005.76, -65298.29, -29261.05, -61908.14, -99451.87, -56569.78, -78088.30, 0.000, 0.000, 0.000, 14:59:27.959
81, -90923.25, 58160.91, 67238.45, 37396.14, 128443.70, 70084.07, 120274.77, 146433.33, -36908.29, -81005.76, -65298.29, -29261.05, -61908.14, -99451.87, -56569.78, -78088.30, 0.000, 0.000, 0.000, 14:59:27.960
82, -90923.25, 58160.91, 67238.45, 37396.14, 128443.70, 70084.07, 120274.77, 146433.33, -36933.51, -80996.02, -64982.98, -29198.73, -61986.64, -99449.41, -56531.16, -77896.63, 0.000, 0.000, 0.000, 14:59:27.960
83, -91302.05, 58214.47, 67307.94, 36993.07, 128523.55, 70070.21, 120264.59, 146283.02, -36933.51, -80996.02, -64982.98, -29198.73, -61986.64, -99449.41, -56531.16, -77896.63, 0.000, 0.000, 0.000, 14:59:27.960
84, -91302.05, 58214.47, 67307.94, 36993.07, 128523.55, 70070.21, 120264.59, 146283.02, -36955.25, -80960.30, -65729.08, -29604.79, -62134.99, -99415.26, -56722.38, -78237.25, 0.000, 0.000, 0.000, 14:59:27.960
85, -91445.48, 58181.93, 67266.74, 36984.13, 128478.65, 70095.09, 120294.73, 146387.42, -36955.25, -80960.30, -65729.08, -29604.79, -62134.99, -99415.26, -56722.38, -78237.25, 0.000, 0.000, 0.000, 14:59:27.960
86, -91445.48, 58181.93, 67266.74, 36984.13, 128478.65, 70095.09, 120294.73, 146387.42, -36868.60, -81019.26, -64872.58, -29018.71, -61804.85, -99470.45, -56462.98, -77899.78, 0.034, 0.964, -0.100, 14:59:27.961
87, -90784.31, 58182.84, 67257.83, 37472.54, 128478.91, 70060.36, 120266.80, 146368.98, -36868.60, -81019.26, -64872.58, -29018.71, -61804.85, -99470.45, -56462.98, -77899.78, 0.000, 0.000, 0.000, 14:59:27.961
88, -90784.31, 58182.84, 67257.83, 37472.54, 128478.91, 70060.36, 120266.80, 146368.98, -36955.70, -80941.77, -65562.25, -29591.07, -62206.85, -99403.73, -56723.54, -78135.57, 0.000, 0.000, 0.000, 14:59:27.961
89, -91694.79, 58220.50, 67294.77, 36722.48, 128515.06, 70099.12, 120298.05, 146299.66, -36955.70, -80941.77, -65562.25, -29591.07, -62206.85, -99403.73, -56723.54, -78135.57, 0.000, 0.000, 0.000, 14:59:27.961
90, -91694.79, 58220.50, 67294.77, 36722.48, 128515.06, 70099.12, 120298.05, 146299.66, -36802.88, -80988.68, -65297.98, -29248.33, -61913.97, -99440.83, -56594.21, -78094.35, 0.000, 0.000, 0.000, 14:59:27.961
91, -90933.69, 58167.71, 67223.98, 37395.16, 128435.65, 70080.92, 120271.38, 146415.56, -36802.88, -80988.68, -65297.98, -29248.33, -61913.97, -99440.83, -56594.21, -78094.35, 0.000, 0.000, 0.000, 14:59:27.962
92, -90933.69, 58167.71, 67223.98, 37395.16, 128435.65, 70080.92, 120271.38, 146415.56, -36766.94, -80983.52, -64980.52, -29180.98, -61993.34, -99435.02, -56562.70, -77906.73, 0.000, 0.000, 0.000, 14:59:27.962
93, -91328.58, 58227.21, 67302.48, 36981.14, 128515.93, 70080.41, 120262.02, 146266.44, -36766.94, -80983.52, -64980.52, -29180.98, -61993.34, -99435.02, -56562.70, -77906.73, 0.000, 0.000, 0.000, 14:59:27.962
94, -91328.58, 58227.21, 67302.48, 36981.14, 128515.93, 70080.41, 120262.02, 146266.44, -36790.48, -80935.17, -65738.49, -29596.50, -62139.77, -99391.88, -56761.58, -78262.22, 0.000, 0.000, 0.000, 14:59:27.963
95, -91488.57, 58184.14, 67253.85, 36957.74, 128457.95, 70089.23, 120277.17, 146374.19, -36790.48, -80935.17, -65738.49, -29596.50, -62139.77, -99391.88, -56761.58, -78262.22, 0.000, 0.000, 0.000, 14:59:27.963
96, -91488.57, 58184.14, 67253.85, 36957.74, 128457.95, 70089.23, 120277.17, 146374.19, -36732.39, -81015.73, -64857.59, -28990.73, -61814.39, -99471.96, -56490.03, -77896.84, 0.038, 0.956, -0.104, 14:59:27.963
97, -90796.54, 58170.84, 67247.61, 37472.63, 128454.40, 70021.09, 120234.50, 146351.91, -36732.39, -81015.73, -64857.59, -28990.73, -61814.39, -99471.96, -56490.03, -77896.84, 0.000, 0.000, 0.000, 14:59:27.964
98, -90796.54, 58170.84, 67247.61, 37472.63, 128454.40, 70021.09, 120234.50, 146351.91, -36824.36, -80935.51, -65553.06, -29577.30, -62211.99, -99403.16, -56751.39, -78126.07, 0.000, 0.000, 0.000, 14:59:27.964
99, -91712.65, 58223.92, 67302.44, 36715.85, 128506.79, 70056.58, 120280.68, 146271.52, -36824.36, -80935.51, -65553.06, -29577.30, -62211.99, -99403.16, -56751.39, -78126.07, 0.000, 0.000, 0.000, 14:59:27.964
100, -91712.65, 58223.92, 67302.44, 36715.85, 128506.79, 70056.58, 120280.68, 146271.52, -36731.65, -80976.92, -65293.24, -29237.87, -61913.48, -99434.75, -56606.11, -78092.30, 0.000, 0.000, 0.000, 14:59:27.964
101, -90957.80, 58173.59, 67235.77, 37382.13, 128438.80, 70022.11, 120268.54, 146389.73, -36731.65, -80976.92, -65293.24, -29237.87, -61913.48, -99434.75, -56606.11, -78092.30, 0.000, 0.000, 0.000, 14:59:27.964
102, -90957.80, 58173.59, 67235.77, 37382.13, 128438.80, 70022.11, 120268.54, 146389.73, -36766.79, -80986.89, -64968.05, -29173.16, -61993.23, -99448.23, -56562.68, -77895.94, 0.000, 0.000, 0.000, 14:59:27.964
103, -91332.00, 58222.85, 67300.23, 36982.86, 128516.78, 69991.42, 120263.36, 146238.78, -36766.79, -80986.89, -64968.05, -29173.16, -61993.23, -99448.23, -56562.68, -77895.94, 0.000, 0.000, 0.000, 14:59:27.965
104, -91332.00, 58222.85, 67300.23, 36982.86, 128516.78, 69991.42, 120263.36, 146238.78, -36786.41, -80958.10, -65718.13, -29594.42, -62145.11, -99416.82, -56752.06, -78238.16, 0.000, 0.000, 0.000, 14:59:27.965
105, -91464.74, 58179.60, 67256.71, 36983.17, 128472.26, 70025.78, 120292.52, 146348.02, -36786.41, -80958.10, -65718.13, -29594.42, -62145.11, -99416.82, -56752.06, -78238.16, 0.000, 0.000, 0.000, 14:59:27.965
106, -91464.74, 58179.60, 67256.71, 36983.17, 128472.26, 70025.78, 120292.52, 146348.02, -36701.90, -81022.16, -64860.27, -29006.10, -61825.68, -99463.36, -56489.11, -77895.24, 0.042, 0.958, -0.104, 14:59:27.965
107, -90807.85, 58180.25, 67253.94, 37467.98, 128478.27, 69984.31, 120269.23, 146330.61, -36701.90, -81022.16, -64860.27, -29006.10, -61825.68, -99463.36, -56489.11, -77895.24, 0.000, 0.000, 0.000, 14:59:27.966
108, -90807.85, 58180.25, 67253.94, 37467.98, 128478.27, 69984.31, 120269.23, 146330.61, -36807.36, -80965.30, -65552.12, -29586.78, -62229.51, -99408.89, -56745.58, -78128.91, 0.000, 0.000, 0.000, 14:59:27.966
109, -91715.09, 58205.89, 67289.63, 36720.74, 128516.65, 70036.66, 120303.90, 146260.36, -36807.36, -80965.30, -65552.12, -29586.78, -62229.51, -99408.89, -56745.58, -78128.91, 0.000, 0.000, 0.000, 14:59:27.967
110, -91715.09, 58205.89, 67289.63, 36720.74, 128516.65, 70036.66, 120303.90, 146260.36, -36707.69, -81016.16, -65290.23, -29244.66, -61933.17, -99444.30, -56604.90, -78090.29, 0.000, 0.000, 0.000, 14:59:27.967
111, -90953.49, 58156.38, 67221.59, 37398.07, 128443.22, 70014.20, 120291.41, 146384.97, -36707.69, -81016.16, -65290.23, -29244.66, -61933.17, -99444.30, -56604.90, -78090.29, 0.000, 0.000, 0.000, 14:59:27.967
112, -90953.49, 58156.38, 67221.59, 37398.07, 128443.22, 70014.20, 120291.41, 146384.97, -36703.93, -81016.24, -64970.35, -29170.48, -62008.07, -99443.87, -56563.19, -77894.98, 0.000, 0.000, 0.000, 14:59:27.967
113, -91347.91, 58228.28, 67303.18, 36984.89, 128522.39, 70008.61, 120282.27, 146231.95, -36703.93, -81016.24, -64970.35, -29170.48, -62008.07, -99443.87, -56563.19, -77894.98, 0.000, 0.000, 0.000, 14:59:27.968
114, -91347.91, 58228.28, 67303.18, 36984.89, 128522.39, 70008.61, 120282.27, 146231.95, -36695.37, -80968.19, -65709.09, -29568.16, -62143.77, -99389.94, -56754.27, -78239.44, 0.000, 0.000, 0.000, 14:59:27.968
115, -91493.31, 58193.73, 67262.30, 36974.30, 128460.03, 70046.92, 120298.38, 146339.09, -36695.37, -80968.19, -65709.09, -29568.16, -62143.77, -99389.94, -56754.27, -78239.44, 0.030, 0.964, -0.104, 14:59:27.968
116, -91493.31, 58193.73, 67262.30, 36974.30, 128460.03, 70046.92, 120298.38, 146339.09, -36618.23, -81043.22, -64829.24, -28974.03, -61825.01, -99462.16, -56483.44, -77878.02, 0.000, 0.000, 0.000, 14:59:27.968
117, -90837.09, 58206.91, 67272.78, 37463.27, 128467.09, 70004.25, 120262.26, 146311.77, -36618.23, -81043.22, -64829.24, -28974.03, -61825.01, -99462.16, -56483.44, -77878.02, 0.000, 0.000, 0.000, 14:59:27.969
118, -90837.09, 58206.91, 67272.78, 37463.27, 128467.09, 70004.25, 120262.26, 146311.77, -36705.74, -80958.51, -65523.02, -29556.67, -62217.31, -99391.79, -56739.03, -78114.59, 0.000, 0.000, 0.000, 14:59:27.969
119, -91739.31, 58225.96, 67309.86, 36725.39, 128501.18, 70043.44, 120287.92, 146247.77, -36705.74, -80958.51, -65523.02, -29556.67, -62217.31, -99391.79, -56739.03, -78114.59, 0.000, 0.000, 0.000, 14:59:27.969
120, -91739.31, 58225.96, 67309.86, 36725.39, 128501.18, 70043.44, 120287.92, 146247.77, -36623.51, -81017.09, -65246.33, -29205.77, -61926.47, -99446.75, -56600.09, -78045.83, 0.000, 0.000, 0.000, 14:59:27.969
121, -90989.32, 58177.43, 67252.89, 37389.39, 128447.20, 70022.29, 120280.41, 146360.56, -36623.51, -81017.09, -65246.33, -29205.77, -61926.47, -99446.75, -56600.09, -78045.83, 0.000, 0.000, 0.000, 14:59:28.422
122, -90989.32, 58177.43, 67252.89, 37389.39, 128447.20, 70022.29, 120280.41, 146360.56, -36648.37, -81017.78, -64936.46, -29140.44, -62004.16, -99447.60, -56559.97, -77859.91, 0.000, 0.000, 0.000, 14:59:28.423
123, -91347.02, 58219.21, 67300.77, 37005.55, 128509.12, 69986.53, 120260.92, 146213.86, -36648.37, -81017.78, -64936.46, -29140.44, -62004.16, -99447.60, -56559.97, -77859.91, 0.000, 0.000, 0.000, 14:59:28.423
124, -91347.02, 58219.21, 67300.77, 37005.55, 128509.12, 69986.53, 120260.92, 146213.86, -36670.18, -80984.19, -65681.41, -29566.86, -62155.95, -99412.11, -56758.99, -78185.66, 0.000, 0.000, 0.000, 14:59:28.423
125, -91504.62, 58188.61, 67262.21, 36978.64, 128472.97, 70024.68, 120291.43, 146305.64, -36670.18, -80984.19, -65681.41, -29566.86, -62155.95, -99412.11, -56758.99, -78185.66, 0.034, 0.962, -0.106, 14:59:28.423
126, -91504.62, 58188.61, 67262.21, 36978.64, 128472.97, 70024.68, 120291.43, 146305.64, -36601.11, -81061.91, -64830.09, -28987.44, -61833.04, -99486.43, -56496.29, -77850.68, 0.000, 0.000, 0.000, 14:59:28.424
127, -90841.98, 58174.17, 67247.19, 37470.11, 128476.39, 69981.77, 120259.27, 146282.27, -36601.11, -81061.91, -64830.09, -28987.44, -61833.04, -99486.43, -56496.29, -77850.68, 0.000, 0.000, 0.000, 14:59:28.424
128, -90841.98, 58174.17, 67247.19, 37470.11, 128476.39, 69981.77, 120259.27, 146282.27, -36697.43, -80986.09, -65531.96, -29574.29, -62228.33, -99418.39, -56753.29, -78086.53, 0.000, 0.000, 0.000, 14:59:28.424
129, -91754.04, 58204.12, 67288.43, 36723.49, 128522.13, 70031.55, 120306.27, 146219.86, -36697.43, -80986.09, -65531.96, -29574.29, -62228.33, -99418.39, -56753.29, -78086.53, 0.000, 0.000, 0.000, 14:59:28.424
130, -91754.04, 58204.12, 67288.43, 36723.49, 128522.13, 70031.55, 120306.27, 146219.86, -36622.44, -81043.51, -65259.94, -29235.88, -61925.93, -99485.94, -56605.21, -78028.53, 0.000, 0.000, 0.000, 14:59:28.424
131, -90985.97, 58143.61, 67220.50, 37404.66, 128449.48, 70026.07, 120289.51, 146341.27, -36622.44, -81043.51, -65259.94, -29235.88, -61925.93, -99485.94, -56605.21, -78028.53, 0.000, 0.000, 0.000, 14:59:28.425
132, -90985.97, 58143.61, 67220.50, 37404.66, 128449.48, 70026.07, 120289.51, 146341.27, -36656.19, -81031.82, -64954.03, -29187.46, -62008.09, -99467.52, -56568.44, -77836.70, 0.000, 0.000, 0.000, 14:59:28.425
133, -91365.73, 58190.08, 67279.55, 37005.46, 128511.20, 70009.77, 120273.26, 146190.80, -36656.19, -81031.82, -64954.03, -29187.46, -62008.09, -99467.52, -56568.44, -77836.70, 0.000, 0.000, 0.000, 14:59:28.425
134, -91365.73, 58190.08, 67279.55, 37005.46, 128511.20, 70009.77, 120273.26, 146190.80, -36679.97, -80999.88, -65699.64, -29608.04, -62166.08, -99426.57, -56771.11, -78175.34, 0.000, 0.000, 0.000, 14:59:28.425
135, -91514.23, 58158.95, 67238.78, 36991.69, 128462.87, 70045.41, 120289.53, 146288.67, -36679.97, -80999.88, -65699.64, -29608.04, -62166.08, -99426.57, -56771.11, -78175.34, 0.038, 0.960, -0.110, 14:59:28.425
136, -91514.23, 58158.95, 67238.78, 36991.69, 128462.87, 70045.41, 120289.53, 146288.67, -36589.54, -81055.11, -64850.32, -29028.52, -61852.48, -99487.97, -56520.03, -77850.95, 0.000, 0.000, 0.000, 14:59:28.425
137, -90882.13, 58158.10, 67235.23, 37456.02, 128464.68, 69999.45, 120252.80, 146264.00, -36589.54, -81055.11, -64850.32, -29028.52, -61852.48, -99487.97, -56520.03, -77850.95, 0.000, 0.000, 0.000, 14:59:28.426
138, -90882.13, 58158.10, 67235.23, 37456.02, 128464.68, 69999.45, 120252.80, 146264.00, -36689.05, -80985.02, -65541.64, -29616.51, -62252.67, -99427.91, -56776.45, -78103.79, 0.000, 0.000, 0.000, 14:59:28.426
139, -91777.09, 58202.27, 67281.88, 36722.28, 128500.17, 70031.39, 120279.65, 146192.77, -36689.05, -80985.02, -65541.64, -29616.51, -62252.67, -99427.91, -56776.45, -78103.79, 0.000, 0.000, 0.000, 14:59:28.426
140, -91777.09, 58202.27, 67281.88, 36722.28, 128500.17, 70031.39, 120279.65, 146192.77, -36580.59, -81014.09, -65257.77, -29269.94, -61922.96, -99455.63, -56631.68, -78071.65, 0.000, 0.000, 0.000, 14:59:28.426
141, -91026.29, 58155.73, 67227.67, 37392.61, 128433.88, 70025.13, 120262.28, 146309.66, -36580.59, -81014.09, -65257.77, -29269.94, -61922.96, -99455.63, -56631.68, -78071.65, 0.000, 0.000, 0.000, 14:59:28.426
142, -91026.29, 58155.73, 67227.67, 37392.61, 128433.88, 70025.13, 120262.28, 146309.66, -36623.91, -81030.46, -64937.76, -29197.03, -62015.32, -99481.66, -56594.17, -77894.04, 0.000, 0.000, 0.000, 14:59:28.426
143, -91398.83, 58185.88, 67277.97, 37002.26, 128489.87, 69996.88, 120231.17, 146153.94, -36623.91, -81030.46, -64937.76, -29197.03, -62015.32, -99481.66, -56594.17, -77894.04, 0.000, 0.000, 0.000, 14:59:28.427
144, -91398.83, 58185.88, 67277.97, 37002.26, 128489.87, 69996.88, 120231.17, 146153.94, -36652.43, -80994.41, -65690.16, -29600.57, -62182.19, -99444.83, -56795.60, -78238.21, 0.000, 0.000, 0.000, 14:59:28.427
145, -91545.41, 58160.78, 67245.94, 36993.50, 128456.41, 70046.81, 120266.09, 146261.67, -36652.43, -80994.41, -65690.16, -29600.57, -62182.19, -99444.83, -56795.60, -78238.21, 0.040, 0.966, -0.114, 14:59:28.427
146, -91545.41, 58160.78, 67245.94, 36993.50, 128456.41, 70046.81, 120266.09, 146261.67, -36567.86, -81048.25, -64824.04, -28999.46, -61851.25, -99502.56, -56522.39, -77897.91, 0.000, 0.000, 0.000, 14:59:28.427
147, -90900.23, 58170.26, 67255.03, 37473.86, 128467.95, 70013.66, 120247.28, 146249.05, -36567.86, -81048.25, -64824.04, -28999.46, -61851.25, -99502.56, -56522.39, -77897.91, 0.000, 0.000, 0.000, 14:59:28.427
148, -90900.23, 58170.26, 67255.03, 37473.86, 128467.95, 70013.66, 120247.28, 146249.05, -36656.84, -80963.70, -65525.95, -29572.99, -62241.52, -99427.69, -56777.61, -78158.21, 0.000, 0.000, 0.000, 14:59:28.427
149, -91817.48, 58192.34, 67285.95, 36724.74, 128500.55, 70037.05, 120276.79, 146179.75, -36656.84, -80963.70, -65525.95, -29572.99, -62241.52, -99427.69, -56777.61, -78158.21, 0.000, 0.000, 0.000, 14:59:28.428
150, -91817.48, 58192.34, 67285.95, 36724.74, 128500.55, 70037.05, 120276.79, 146179.75, -36584.66, -81031.27, -65244.63, -29210.96, -61952.30, -99500.53, -56633.15, -78103.99, 0.000, 0.000, 0.000, 14:59:28.428
151, -91051.41, 58143.17, 67222.13, 37406.78, 128435.80, 69991.78, 120263.63, 146287.64, -36584.66, -81031.27, -65244.63, -29210.96, -61952.30, -99500.53, -56633.15, -78103.99, 0.000, 0.000, 0.000, 14:59:28.428
152, -91051.41, 58143.17, 67222.13, 37406.78, 128435.80, 69991.78, 120263.63, 146287.64, -36622.19, -81037.70, -64935.13, -29144.21, -62034.89, -99502.36, -56591.48, -77916.26, 0.000, 0.000, 0.000, 14:59:28.428
153, -91412.91, 58186.98, 67279.11, 37026.63, 128500.06, 69972.85, 120254.13, 146142.72, -36622.19, -81037.70, -64935.13, -29144.21, -62034.89, -99502.36, -56591.48, -77916.26, 0.000, 0.000, 0.000, 14:59:28.428
154, -91412.91, 58186.98, 67279.11, 37026.63, 128500.06, 69972.85, 120254.13, 146142.72, -36645.80, -80994.09, -65676.38, -29556.78, -62184.65, -99461.93, -56782.86, -78251.58, 0.000, 0.000, 0.000, 14:59:28.429
155, -91557.84, 58157.92, 67242.07, 37018.33, 128457.02, 69973.14, 120285.95, 146250.59, -36645.80, -80994.09, -65676.38, -29556.78, -62184.65, -99461.93, -56782.86, -78251.58, 0.044, 0.968, -0.112, 14:59:28.429
156, -91557.84, 58157.92, 67242.07, 37018.33, 128457.02, 69973.14, 120285.95, 146250.59, -36559.36, -81039.13, -64821.66, -28970.97, -61859.05, -99490.78, -56531.52, -77930.63, 0.000, 0.000, 0.000, 14:59:28.429
157, -90915.61, 58163.89, 67238.80, 37499.03, 128458.73, 69929.45, 120244.06, 146224.92, -36559.36, -81039.13, -64821.66, -28970.97, -61859.05, -99490.78, -56531.52, -77930.63, 0.000, 0.000, 0.000, 14:59:28.429
158, -90915.61, 58163.89, 67238.80, 37499.03, 128458.73, 69929.45, 120244.06, 146224.92, -36657.62, -80970.98, -65507.46, -29532.69, -62243.77, -99437.55, -56788.36, -78167.63, 0.000, 0.000, 0.000, 14:59:28.429
159, -91807.51, 58187.82, 67267.13, 36778.36, 128484.59, 69965.80, 120268.48, 146162.98, -36657.62, -80970.98, -65507.46, -29532.69, -62243.77, -99437.55, -56788.36, -78167.63, 0.000, 0.000, 0.000, 14:59:28.430
160, -91807.51, 58187.82, 67267.13, 36778.36, 128484.59, 69965.80, 120268.48, 146162.98, -36572.91, -81019.17, -65238.26, -29195.51, -61959.66, -99477.51, -56654.81, -78117.45, 0.000, 0.000, 0.000, 14:59:28.430
161, -91075.17, 58146.59, 67219.72, 37434.23, 128432.91, 69958.34, 120258.57, 146271.38, -36572.91, -81019.17, -65238.26, -29195.51, -61959.66, -99477.51, -56654.81, -78117.45, 0.000, 0.000, 0.000, 14:59:28.430
162, -91075.17, 58146.59, 67219.72, 37434.23, 128432.91, 69958.34, 120258.57, 146271.38, -36594.72, -81011.21, -64931.32, -29132.97, -62026.22, -99487.56, -56615.98, -77949.98, 0.000, 0.000, 0.000, 14:59:28.430
163, -91467.41, 58192.34, 67282.70, 37033.93, 128501.34, 69930.85, 120243.44, 146128.72, -36594.72, -81011.21, -64931.32, -29132.97, -62026.22, -99487.56, -56615.98, -77949.98, 0.000, 0.000, 0.000, 14:59:28.430
164, -91467.41, 58192.34, 67282.70, 37033.93, 128501.34, 69930.85, 120243.44, 146128.72, -36626.44, -80965.80, -65667.10, -29535.35, -62176.18, -99444.80, -56810.02, -78284.93, 0.000, 0.000, 0.000, 14:59:28.430
165, -91597.87, 58155.32, 67237.64, 37045.63, 128450.02, 69956.33, 120261.81, 146242.66, -36626.44, -80965.80, -65667.10, -29535.35, -62176.18, -99444.80, -56810.02, -78284.93, 0.038, 0.962, -0.124, 14:59:28.431
166, -91597.87, 58155.32, 67237.64, 37045.63, 128450.02, 69956.33, 120261.81, 146242.66, -36551.85, -81032.11, -64809.84, -28950.60, -61853.71, -99503.46, -56548.73, -77943.48, 0.000, 0.000, 0.000, 14:59:28.431
167, -90959.57, 58150.21, 67232.15, 37525.58, 128455.36, 69904.07, 120229.54, 146212.64, -36551.85, -81032.11, -64809.84, -28950.60, -61853.71, -99503.46, -56548.73, -77943.48, 0.000, 0.000, 0.000, 14:59:28.431
168, -90959.57, 58150.21, 67232.15, 37525.58, 128455.36, 69904.07, 120229.54, 146212.64, -36656.66, -80969.03, -65507.75, -29526.07, -62253.79, -99450.38, -56807.94, -78189.22, 0.000, 0.000, 0.000, 14:59:28.431
169, -91863.79, 58174.82, 67269.36, 36793.85, 128489.80, 69948.48, 120262.57, 146147.14, -36656.66, -80969.03, -65507.75, -29526.07, -62253.79, -99450.38, -56807.94, -78189.22, 0.000, 0.000, 0.000, 14:59:28.431
170, -91863.79, 58174.82, 67269.36, 36793.85, 128489.80, 69948.48, 120262.57, 146147.14, -36563.70, -81020.38, -65233.65, -29179.31, -61951.10, -99491.61, -56664.84, -78141.65, 0.000, 0.000, 0.000, 14:59:28.432
171, -91111.59, 58125.62, 67204.27, 37465.41, 128427.13, 69909.86, 120251.45, 146268.31, -36563.70, -81020.38, -65233.65, -29179.31, -61951.10, -99491.61, -56664.84, -78141.65, 0.000, 0.000, 0.000, 14:59:28.432
172, -91111.59, 58125.62, 67204.27, 37465.41, 128427.13, 69909.86, 120251.45, 146268.31, -36599.95, -81023.39, -64930.41, -29114.46, -62033.53, -99491.79, -56628.46, -77958.75, 0.000, 0.000, 0.000, 14:59:28.432
173, -91508.48, 58184.74, 67270.88, 37053.96, 128501.98, 69896.77, 120238.95, 146114.59, -36599.95, -81023.39, -64930.41, -29114.46, -62033.53, -99491.79, -56628.46, -77958.75, 0.000, 0.000, 0.000, 14:59:28.433
174, -91508.48, 58184.74, 67270.88, 37053.96, 128501.98, 69896.77, 120238.95, 146114.59, -36603.57, -80970.22, -65683.88, -29533.61, -62176.85, -99449.14, -56830.56, -78330.86, 0.034, 0.962, -0.116, 14:59:28.433
175, -91696.13, 58155.28, 67236.59, 37005.66, 128461.15, 69958.39, 120276.07, 146213.59, -36603.57, -80970.22, -65683.88, -29533.61, -62176.85, -99449.14, -56830.56, -78330.86, 0.000, 0.000, 0.000, 14:59:28.433
176, -91696.13, 58155.28, 67236.59, 37005.66, 128461.15, 69958.39, 120276.07, 146213.59, -36547.83, -81051.09, -64813.64, -28945.26, -61858.94, -99510.55, -56559.46, -77992.32, 0.000, 0.000, 0.000, 14:59:28.433
177, -91033.94, 58140.24, 67223.95, 37503.01, 128458.94, 69904.14, 120247.38, 146204.70, -36547.83, -81051.09, -64813.64, -28945.26, -61858.94, -99510.55, -56559.46, -77992.32, 0.000, 0.000, 0.000, 14:59:28.433
178, -91033.94, 58140.24, 67223.95, 37503.01, 128458.94, 69904.14, 120247.38, 146204.70, -36646.24, -80971.47, -65509.72, -29527.62, -62248.02, -99440.96, -56817.73, -78223.97, 0.000, 0.000, 0.000, 14:59:28.433
179, -91948.73, 58169.92, 67266.59, 36755.72, 128497.89, 69930.07, 120280.61, 146140.70, -36646.24, -80971.47, -65509.72, -29527.62, -62248.02, -99440.96, -56817.73, -78223.97, 0.000, 0.000, 0.000, 14:59:28.434
180, -91948.73, 58169.92, 67266.59, 36755.72, 128497.89, 69930.07, 120280.61, 146140.70, -36564.57, -81027.82, -65235.91, -29178.84, -61953.25, -99501.91, -56674.34, -78171.49, 0.000, 0.000, 0.000, 14:59:28.434
181, -91191.78, 58112.34, 67196.74, 37429.47, 128427.04, 69896.88, 120261.45, 146256.48, -36564.57, -81027.82, -65235.91, -29178.84, -61953.25, -99501.91, -56674.34, -78171.49, 0.000, 0.000, 0.000, 14:59:28.434
182, -91191.78, 58112.34, 67196.74, 37429.47, 128427.04, 69896.88, 120261.45, 146256.48, -36609.34, -81039.47, -64921.06, -29112.45, -62049.63, -99511.08, -56627.20, -77967.30, 0.000, 0.000, 0.000, 14:59:28.434
183, -91557.16, 58155.19, 67254.48, 37050.79, 128490.05, 69869.34, 120240.80, 146106.94, -36609.34, -81039.47, -64921.06, -29112.45, -62049.63, -99511.08, -56627.20, -77967.30, 0.000, 0.000, 0.000, 14:59:28.434
184, -91557.16, 58155.19, 67254.48, 37050.79, 128490.05, 69869.34, 120240.80, 146106.94, -36623.64, -80989.55, -65668.35, -29529.43, -62185.88, -99444.85, -56830.16, -78307.79, 0.036, 0.962, -0.120, 14:59:28.434
185, -91717.97, 58133.49, 67230.80, 37027.21, 128454.66, 69924.41, 120278.89, 146206.91, -36623.64, -80989.55, -65668.35, -29529.43, -62185.88, -99444.85, -56830.16, -78307.79, 0.000, 0.000, 0.000, 14:59:28.435
186, -91717.97, 58133.49, 67230.80, 37027.21, 128454.66, 69924.41, 120278.89, 146206.91, -36548.16, -81053.48, -64819.95, -28957.04, -61857.22, -99509.45, -56570.96, -77989.03, 0.000, 0.000, 0.000, 14:59:28.435
187, -91076.94, 58120.57, 67217.20, 37506.09, 128443.71, 69872.45, 120232.04, 146191.47, -36548.16, -81053.48, -64819.95, -28957.04, -61857.22, -99509.45, -56570.96, -77989.03, 0.000, 0.000, 0.000, 14:59:28.435
188, -91076.94, 58120.57, 67217.20, 37506.09, 128443.71, 69872.45, 120232.04, 146191.47, -36659.52, -80987.72, -65516.78, -29521.24, -62266.30, -99458.73, -56829.26, -78219.52, 0.000, 0.000, 0.000, 14:59:28.435
189, -91991.41, 58169.74, 67272.16, 36761.64, 128497.83, 69909.26, 120271.91, 146121.38, -36659.52, -80987.72, -65516.78, -29521.24, -62266.30, -99458.73, -56829.26, -78219.52, 0.000, 0.000, 0.000, 14:59:28.435
190, -91991.41, 58169.74, 67272.16, 36761.64, 128497.83, 69909.26, 120271.91, 146121.38, -36557.26, -81011.46, -65254.60, -29158.39, -61955.34, -99485.40, -56688.27, -78193.15, 0.000, 0.000, 0.000, 14:59:28.435
191, -91249.27, 58110.27, 67202.30, 37418.18, 128426.91, 69896.67, 120254.80, 146247.39, -36557.26, -81011.46, -65254.60, -29158.39, -61955.34, -99485.40, -56688.27, -78193.15, 0.000, 0.000, 0.000, 14:59:28.436
192, -91249.27, 58110.27, 67202.30, 37418.18, 128426.91, 69896.67, 120254.80, 146247.39, -36612.85, -81045.23, -64926.32, -29097.23, -62048.82, -99498.34, -56638.07, -77984.95, 0.000, 0.000, 0.000, 14:59:28.436
193, -91615.20, 58150.72, 67255.93, 37035.39, 128488.30, 69858.72, 120229.11, 146091.28, -36612.85, -81045.23, -64926.32, -29097.23, -62048.82, -99498.34, -56638.07, -77984.95, 0.000, 0.000, 0.000, 14:59:28.436
194, -91615.20, 58150.72, 67255.93, 37035.39, 128488.30, 69858.72, 120229.11, 146091.28, -36629.52, -80995.21, -65674.54, -29524.35, -62192.12, -99449.01, -56838.59, -78323.08, 0.038, 0.970, -0.120, 14:59:28.436
195, -91767.03, 58119.90, 67217.84, 37022.87, 128443.16, 69897.08, 120261.88, 146195.09, -36629.52, -80995.21, -65674.54, -29524.35, -62192.12, -99449.01, -56838.59, -78323.08, 0.000, 0.000, 0.000, 14:59:28.437
196, -91767.03, 58119.90, 67217.84, 37022.87, 128443.16, 69897.08, 120261.88, 146195.09, -36557.28, -81067.25, -64821.24, -28950.09, -61877.90, -99521.79, -56579.80, -77994.84, 0.000, 0.000, 0.000, 14:59:28.437
197, -91112.95, 58103.76, 67201.59, 37509.58, 128432.91, 69834.47, 120221.34, 146177.23, -36557.28, -81067.25, -64821.24, -28950.09, -61877.90, -99521.79, -56579.80, -77994.84, 0.000, 0.000, 0.000, 14:59:28.437
198, -91112.95, 58103.76, 67201.59, 37509.58, 128432.91, 69834.47, 120221.34, 146177.23, -36658.18, -80996.91, -65520.70, -29534.77, -62283.40, -99467.67, -56835.14, -78229.09, 0.000, 0.000, 0.000, 14:59:28.437
199, -92025.80, 58145.18, 67250.97, 36768.95, 128485.47, 69883.22, 120269.77, 146112.09, -36658.18, -80996.91, -65520.70, -29534.77, -62283.40, -99467.67, -56835.14, -78229.09, 0.000, 0.000, 0.000, 14:59:28.437
200, -92025.80, 58145.18, 67250.97, 36768.95, 128485.47, 69883.22, 120269.77, 146112.09, -36557.28, -81029.56, -65255.11, -29191.73, -61974.68, -99493.06, -56688.07, -78190.63, 0.000, 0.000, 0.000, 14:59:28.438
201, -91289.91, 58104.09, 67199.31, 37422.14, 128433.52, 69882.32, 120283.27, 146241.38, -36557.28, -81029.56, -65255.11, -29191.73, -61974.68, -99493.06, -56688.07, -78190.63, 0.000, 0.000, 0.000, 14:59:28.438
202, -91289.91, 58104.09, 67199.31, 37422.14, 128433.52, 69882.32, 120283.27, 146241.38, -36597.18, -81032.27, -64936.55, -29121.80, -62057.79, -99490.25, -56638.76, -77998.82, 0.000, 0.000, 0.000, 14:59:28.440
203, -91670.49, 58145.82, 67251.05, 37029.11, 128500.11, 69863.99, 120266.22, 146096.14, -36597.18, -81032.27, -64936.55, -29121.80, -62057.79, -99490.25, -56638.76, -77998.82, 0.000, 0.000, 0.000, 14:59:28.441
204, -91670.49, 58145.82, 67251.05, 37029.11, 128500.11, 69863.99, 120266.22, 146096.14, -36619.89, -80999.45, -65680.02, -29534.52, -62203.94, -99461.51, -56834.94, -78336.13, 0.038, 0.972, -0.116, 14:59:28.441
205, -91816.96, 58106.02, 67203.94, 37026.82, 128441.92, 69879.59, 120280.88, 146186.58, -36619.89, -80999.45, -65680.02, -29534.52, -62203.94, -99461.51, -56834.94, -78336.13, 0.000, 0.000, 0.000, 14:59:28.441
206, -91816.96, 58106.02, 67203.94, 37026.82, 128441.92, 69879.59, 120280.88, 146186.58, -36555.81, -81068.57, -64821.42, -28957.13, -61889.63, -99539.65, -56579.48, -77997.93, 0.000, 0.000, 0.000, 14:59:28.441
207, -91172.80, 58118.29, 67209.13, 37511.88, 128448.79, 69825.69, 120248.00, 146160.52, -36555.81, -81068.57, -64821.42, -28957.13, -61889.63, -99539.65, -56579.48, -77997.93, 0.000, 0.000, 0.000, 14:59:28.442
208, -91172.80, 58118.29, 67209.13, 37511.88, 128448.79, 69825.69, 120248.00, 146160.52, -36646.09, -80974.98, -65528.38, -29537.85, -62274.35, -99444.41, -56839.61, -78258.59, 0.000, 0.000, 0.000, 14:59:28.442
209, -92104.05, 58152.13, 67251.93, 36760.04, 128489.53, 69884.20, 120275.58, 146097.48, -36646.09, -80974.98, -65528.38, -29537.85, -62274.35, -99444.41, -56839.61, -78258.59, 0.000, 0.000, 0.000, 14:59:28.442
210, -92104.05, 58152.13, 67251.93, 36760.04, 128489.53, 69884.20, 120275.58, 146097.48, -36564.82, -81041.63, -65243.71, -29185.01, -61976.00, -99502.07, -56692.45, -78200.95, 0.000, 0.000, 0.000, 14:59:28.442
211, -91338.91, 58093.25, 67183.73, 37445.32, 128416.29, 69852.75, 120249.03, 146214.20, -36564.82, -81041.63, -65243.71, -29185.01, -61976.00, -99502.07, -56692.45, -78200.95, 0.000, 0.000, 0.000, 14:59:28.442
212, -91338.91, 58093.25, 67183.73, 37445.32, 128416.29, 69852.75, 120249.03, 146214.20, -36606.23, -81050.40, -64932.04, -29130.09, -62062.30, -99506.70, -56651.93, -78002.31, 0.000, 0.000, 0.000, 14:59:28.442
213, -91725.66, 58144.38, 67250.25, 37053.18, 128497.88, 69844.86, 120238.77, 146064.94, -36606.23, -81050.40, -64932.04, -29130.09, -62062.30, -99506.70, -56651.93, -78002.31, 0.000, 0.000, 0.000, 14:59:28.443
214, -91725.66, 58144.38, 67250.25, 37053.18, 128497.88, 69844.86, 120238.77, 146064.94, -36623.06, -81007.48, -65681.63, -29539.30, -62205.19, -99469.80, -56843.21, -78346.13, 0.036, 0.960, -0.108, 14:59:28.443
215, -91881.16, 58112.43, 67210.11, 37046.32, 128451.56, 69883.48, 120266.10, 146176.36, -36623.06, -81007.48, -65681.63, -29539.30, -62205.19, -99469.80, -56843.21, -78346.13, 0.000, 0.000, 0.000, 14:59:28.443
216, -91881.16, 58112.43, 67210.11, 37046.32, 128451.56, 69883.48, 120266.10, 146176.36, -36544.12, -81056.95, -64824.80, -28950.13, -61882.99, -99509.85, -56585.41, -78014.05, 0.000, 0.000, 0.000, 14:59:28.443
217, -91258.73, 58128.08, 67217.66, 37511.66, 128465.66, 69845.58, 120246.84, 146157.36, -36544.12, -81056.95, -64824.80, -28950.13, -61882.99, -99509.85, -56585.41, -78014.05, 0.000, 0.000, 0.000, 14:59:28.443
218, -91258.73, 58128.08, 67217.66, 37511.66, 128465.66, 69845.58, 120246.84, 146157.36, -36642.35, -80989.60, -65524.58, -29518.29, -62271.73, -99436.85, -56837.76, -78263.67, 0.000, 0.000, 0.000, 14:59:28.443
219, -92181.20, 58151.05, 67257.98, 36768.86, 128501.49, 69872.60, 120278.16, 146089.91, -36642.35, -80989.60, -65524.58, -29518.29, -62271.73, -99436.85, -56837.76, -78263.67, 0.000, 0.000, 0.000, 14:59:28.444
220, -92181.20, 58151.05, 67257.98, 36768.86, 128501.49, 69872.60, 120278.16, 146089.91, -36562.27, -81075.07, -65241.79, -29175.02, -61968.91, -99495.73, -56685.81, -78208.51, 0.000, 0.000, 0.000, 14:59:28.444
221, -91430.75, 58095.96, 67195.60, 37441.61, 128439.49, 69861.90, 120271.65, 146211.47, -36562.27, -81075.07, -65241.79, -29175.02, -61968.91, -99495.73, -56685.81, -78208.51, 0.000, 0.000, 0.000, 14:59:28.444
222, -91430.75, 58095.96, 67195.60, 37441.61, 128439.49, 69861.90, 120271.65, 146211.47, -36604.87, -81040.18, -64944.24, -29124.17, -62054.25, -99502.77, -56649.55, -78031.34, 0.000, 0.000, 0.000, 14:59:28.444
223, -91832.54, 58134.45, 67241.98, 37036.35, 128493.80, 69824.91, 120245.90, 146061.14, -36604.87, -81040.18, -64944.24, -29124.17, -62054.25, -99502.77, -56649.55, -78031.34, 0.036, 0.958, -0.110, 14:59:28.444
224, -91832.54, 58134.45, 67241.98, 37036.35, 128493.80, 69824.91, 120245.90, 146061.14, -36636.68, -81014.45, -65685.52, -29535.53, -62211.72, -99469.80, -56852.58, -78364.03, 0.000, 0.000, 0.000, 14:59:28.444
225, -91983.41, 58091.71, 67192.52, 37038.96, 128442.30, 69841.60, 120276.74, 146170.69, -36636.68, -81014.45, -65685.52, -29535.53, -62211.72, -99469.80, -56852.58, -78364.03, 0.000, 0.000, 0.000, 14:59:28.445
226, -91983.41, 58091.71, 67192.52, 37038.96, 128442.30, 69841.60, 120276.74, 146170.69, -36572.57, -81127.22, -64830.67, -28953.78, -61899.96, -99535.02, -56597.01, -78026.80, 0.000, 0.000, 0.000, 14:59:28.445
227, -91344.87, 58093.07, 67188.60, 37521.94, 128449.88, 69818.29, 120244.58, 146141.09, -36572.57, -81127.22, -64830.67, -28953.78, -61899.96, -99535.02, -56597.01, -78026.80, 0.000, 0.000, 0.000, 14:59:28.445
228, -91344.87, 58093.07, 67188.60, 37521.94, 128449.88, 69818.29, 120244.58, 146141.09, -36664.66, -81012.80, -65537.52, -29528.69, -62280.16, -99480.26, -56852.66, -78275.59, 0.000, 0.000, 0.000, 14:59:28.445
229, -92289.77, 58150.39, 67245.76, 36761.60, 128499.26, 69857.47, 120287.43, 146065.00, -36664.66, -81012.80, -65537.52, -29528.69, -62280.16, -99480.26, -56852.66, -78275.59, 0.000, 0.000, 0.000, 14:59:28.445
230, -92289.77, 58150.39, 67245.76, 36761.60, 128499.26, 69857.47, 120287.43, 146065.00, -36558.00, -81044.67, -65260.63, -29161.27, -61955.97, -99507.51, -56707.40, -78240.73, 0.000, 0.000, 0.000, 14:59:28.446
231, -91565.88, 58106.75, 67186.55, 37414.07, 128426.88, 69844.91, 120261.14, 146166.45, -36558.00, -81044.67, -65260.63, -29161.27, -61955.97, -99507.51, -56707.40, -78240.73, 0.000, 0.000, 0.000, 14:59:28.446
232, -91565.88, 58106.75, 67186.55, 37414.07, 128426.88, 69844.91, 120261.14, 146166.45, -36593.65, -81051.54, -64936.22, -29088.76, -62031.65, -99467.59, -56665.47, -78052.13, 0.000, 0.000, 0.000, 14:59:28.446
233, -91953.33, 58153.09, 67245.11, 37029.15, 128482.20, 69830.65, 120231.68, 146009.38, -36593.65, -81051.54, -64936.22, -29088.76, -62031.65, -99467.59, -56665.47, -78052.13, 0.042, 0.962, -0.110, 14:59:28.447
234, -91953.33, 58153.09, 67245.11, 37029.15, 128482.20, 69830.65, 120231.68, 146009.38, -36603.75, -81015.21, -65665.84, -29492.25, -62177.45, -99434.62, -56856.13, -78371.59, 0.000, 0.000, 0.000, 14:59:28.447
235, -92120.61, 58131.68, 67215.94, 37017.93, 128447.55, 69852.04, 120262.64, 146114.95, -36603.75, -81015.21, -65665.84, -29492.25, -62177.45, -99434.62, -56856.13, -78371.59, 0.000, 0.000, 0.000, 14:59:28.447
236, -92120.61, 58131.68, 67215.94, 37017.93, 128447.55, 69852.04, 120262.64, 146114.95, -36524.27, -81066.09, -64795.52, -28900.25, -61851.90, -99506.97, -56592.02, -78028.87, 0.000, 0.000, 0.000, 14:59:28.448
237, -91470.95, 58128.79, 67215.41, 37507.75, 128459.23, 69825.04, 120235.39, 146101.56, -36524.27, -81066.09, -64795.52, -28900.25, -61851.90, -99506.97, -56592.02, -78028.87, 0.000, 0.000, 0.000, 14:59:28.448
238, -91470.95, 58128.79, 67215.41, 37507.75, 128459.23, 69825.04, 120235.39, 146101.56, -36620.79, -81039.13, -65495.21, -29493.33, -62241.74, -99444.67, -56838.63, -78269.50, 0.000, 0.000, 0.000, 14:59:28.448
239, -92385.63, 58170.70, 67263.70, 36780.13, 128509.31, 69862.48, 120283.07, 146050.61, -36620.79, -81039.13, -65495.21, -29493.33, -62241.74, -99444.67, -56838.63, -78269.50, 0.000, 0.000, 0.000, 14:59:28.448
240, -92385.63, 58170.70, 67263.70, 36780.13, 128509.31, 69862.48, 120283.07, 146050.61, -36517.72, -81003.75, -65190.69, -29103.87, -61922.53, -99431.93, -56666.12, -78189.35, 0.000, 0.000, 0.000, 14:59:28.449
241, -91631.89, 58113.71, 67198.30, 37465.59, 128446.62, 69851.50, 120271.45, 146170.91, -36517.72, -81003.75, -65190.69, -29103.87, -61922.53, -99431.93, -56666.12, -78189.35, 0.000, 0.000, 0.000, 14:59:28.903
242, -91631.89, 58113.71, 67198.30, 37465.59, 128446.62, 69851.50, 120271.45, 146170.91, -36581.69, -81029.41, -64916.46, -29086.75, -62025.08, -99463.31, -56651.43, -78033.23, 0.000, 0.000, 0.000, 14:59:28.903
243, -92050.27, 58191.51, 67286.13, 37050.94, 128553.69, 69838.54, 120297.95, 146035.92, -36581.69, -81029.41, -64916.46, -29086.75, -62025.08, -99463.31, -56651.43, -78033.23, 0.038, 0.954, -0.102, 14:59:28.904
244, -92050.27, 58191.51, 67286.13, 37050.94, 128553.69, 69838.54, 120297.95, 146035.92, -36578.47, -80968.90, -65643.09, -29473.32, -62149.02, -99395.74, -56814.54, -78363.13, 0.000, 0.000, 0.000, 14:59:28.904
245, -92219.12, 58123.05, 67210.87, 37038.61, 128478.27, 69826.42, 120301.51, 146133.16, -36578.47, -80968.90, -65643.09, -29473.32, -62149.02, -99395.74, -56814.54, -78363.13, 0.000, 0.000, 0.000, 14:59:28.904
246, -92219.12, 58123.05, 67210.87, 37038.61, 128478.27, 69826.42, 120301.51, 146133.16, -36542.17, -81065.05, -64794.82, -28903.44, -61856.08, -99470.98, -56567.70, -78024.66, 0.000, 0.000, 0.000, 14:59:28.904
247, -91572.10, 58117.71, 67208.07, 37528.73, 128483.61, 69787.77, 120273.03, 146109.86, -36542.17, -81065.05, -64794.82, -28903.44, -61856.08, -99470.98, -56567.70, -78024.66, 0.000, 0.000, 0.000, 14:59:28.904
248, -91572.10, 58117.71, 67208.07, 37528.73, 128483.61, 69787.77, 120273.03, 146109.86, -36647.38, -80998.67, -65508.38, -29490.55, -62252.82, -99422.48, -56828.48, -78272.99, 0.000, 0.000, 0.000, 14:59:28.905
249, -92531.99, 58146.52, 67244.64, 36762.32, 128518.21, 69811.83, 120305.22, 146028.91, -36647.38, -80998.67, -65508.38, -29490.55, -62252.82, -99422.48, -56828.48, -78272.99, 0.000, 0.000, 0.000, 14:59:28.905
250, -92531.99, 58146.52, 67244.64, 36762.32, 128518.21, 69811.83, 120305.22, 146028.91, -36651.16, -81028.78, -65235.57, -29155.03, -61957.27, -99434.62, -56690.19, -78240.02, 0.000, 0.000, 0.000, 14:59:28.905
251, -91794.68, 58111.47, 67190.34, 37434.19, 128457.98, 69788.02, 120305.34, 146149.05, -36651.16, -81028.78, -65235.57, -29155.03, -61957.27, -99434.62, -56690.19, -78240.02, 0.000, 0.000, 0.000, 14:59:28.905
252, -91794.68, 58111.47, 67190.34, 37434.19, 128457.98, 69788.02, 120305.34, 146149.05, -36758.58, -81023.48, -64905.93, -29080.38, -62032.01, -99456.68, -56638.83, -78044.06, 0.000, 0.000, 0.000, 14:59:28.906
253, -92195.16, 58155.59, 67248.26, 37037.67, 128524.02, 69737.28, 120283.54, 146002.34, -36758.58, -81023.48, -64905.93, -29080.38, -62032.01, -99456.68, -56638.83, -78044.06, 0.040, 0.960, -0.106, 14:59:28.906
254, -92195.16, 58155.59, 67248.26, 37037.67, 128524.02, 69737.28, 120283.54, 146002.34, -36797.12, -80988.73, -65650.00, -29499.59, -62191.31, -99424.06, -56838.52, -78383.19, 0.000, 0.000, 0.000, 14:59:28.906
255, -92370.97, 58124.32, 67216.16, 37022.04, 128475.56, 69784.36, 120307.30, 146098.42, -36797.12, -80988.73, -65650.00, -29499.59, -62191.31, -99424.06, -56838.52, -78383.19, 0.000, 0.000, 0.000, 14:59:28.906
0, -92370.97, 58124.32, 67216.16, 37022.04, 128475.56, 69784.36, 120307.30, 146098.42, -36720.23, -81043.98, -64777.52, -28903.64, -61862.03, -99502.99, -56577.83, -78047.95, 0.000, 0.000, 0.000, 14:59:28.907
1, -91731.89, 58142.23, 67228.93, 37496.59, 128484.93, 69734.67, 120273.28, 146077.16, -36720.23, -81043.98, -64777.52, -28903.64, -61862.03, -99502.99, -56577.83, -78047.95, 0.000, 0.000, 0.000, 14:59:28.907
2, -91731.89, 58142.23, 67228.93, 37496.59, 128484.93, 69734.67, 120273.28, 146077.16, -36810.21, -80955.58, -65463.52, -29468.72, -62253.74, -99426.16, -56828.35, -78285.62, 0.000, 0.000, 0.000, 14:59:28.907
3, -92620.46, 58165.47, 67262.99, 36751.18, 128517.20, 69753.51, 120297.87, 146001.23, -36810.21, -80955.58, -65463.52, -29468.72, -62253.74, -99426.16, -56828.35, -78285.62, 0.000, 0.000, 0.000, 14:59:28.907
4, -92620.46, 58165.47, 67262.99, 36751.18, 128517.20, 69753.51, 120297.87, 146001.23, -36734.20, -81025.20, -65178.31, -29126.36, -61963.04, -99506.52, -56686.23, -78230.08, 0.000, 0.000, 0.000, 14:59:28.907
5, -91809.48, 58101.14, 67183.73, 37431.01, 128450.02, 69715.36, 120280.34, 146109.39, -36734.20, -81025.20, -65178.31, -29126.36, -61963.04, -99506.52, -56686.23, -78230.08, 0.000, 0.000, 0.000, 14:59:28.908
6, -91809.48, 58101.14, 67183.73, 37431.01, 128450.02, 69715.36, 120280.34, 146109.39, -36768.91, -81038.46, -64856.24, -29070.10, -62058.03, -99552.84, -56645.58, -78026.25, 0.000, 0.000, 0.000, 14:59:28.908
7, -92160.30, 58152.82, 67246.95, 37034.07, 128528.18, 69683.46, 120269.70, 145954.36, -36768.91, -81038.46, -64856.24, -29070.10, -62058.03, -99552.84, -56645.58, -78026.25, 0.036, 0.964, -0.102, 14:59:28.908
8, -92160.30, 58152.82, 67246.95, 37034.07, 128528.18, 69683.46, 120269.70, 145954.36, -36741.02, -81003.26, -65616.78, -29482.78, -62201.13, -99530.19, -56842.09, -78375.05, 0.000, 0.000, 0.000, 14:59:28.908
9, -92279.33, 58106.18, 67197.14, 37029.87, 128471.36, 69711.69, 120295.19, 146068.28, -36741.02, -81003.26, -65616.78, -29482.78, -62201.13, -99530.19, -56842.09, -78375.05, 0.000, 0.000, 0.000, 14:59:28.908
10, -92279.33, 58106.18, 67197.14, 37029.87, 128471.36, 69711.69, 120295.19, 146068.28, -36627.27, -81080.44, -64746.79, -28895.82, -61872.60, -99627.13, -56574.39, -78024.02, 0.000, 0.000, 0.000, 14:59:28.908
11, -91594.20, 58116.32, 67204.02, 37510.09, 128490.34, 69664.93, 120278.40, 146048.78, -36627.27, -81080.44, -64746.79, -28895.82, -61872.60, -99627.13, -56574.39, -78024.02, 0.000, 0.000, 0.000, 14:59:28.909
12, -91594.20, 58116.32, 67204.02, 37510.09, 128490.34, 69664.93, 120278.40, 146048.78, -36702.66, -80984.99, -65449.93, -29473.41, -62256.51, -99551.83, -56823.63, -78271.90, 0.000, 0.000, 0.000, 14:59:28.909
13, -92496.32, 58151.88, 67251.99, 36764.28, 128538.75, 69717.75, 120332.71, 145998.91, -36702.66, -80984.99, -65449.93, -29473.41, -62256.51, -99551.83, -56823.63, -78271.90, 0.000, 0.000, 0.000, 14:59:28.909
14, -92496.32, 58151.88, 67251.99, 36764.28, 128538.75, 69717.75, 120332.71, 145998.91, -36619.78, -81045.39, -65153.81, -29116.19, -61955.03, -99601.72, -56664.55, -78200.08, 0.000, 0.000, 0.000, 14:59:28.909
15, -91685.22, 58080.02, 67168.66, 37458.82, 128458.04, 69686.75, 120306.25, 146114.38, -36619.78, -81045.39, -65153.81, -29116.19, -61955.03, -99601.72, -56664.55, -78200.08, 0.000, 0.000, 0.000, 14:59:28.909
16, -91685.22, 58080.02, 67168.66, 37458.82, 128458.04, 69686.75, 120306.25, 146114.38, -36682.74, -81053.41, -64839.86, -29074.57, -62052.75, -99647.67, -56635.99, -77995.23, 0.000, 0.000, 0.000, 14:59:28.909
17, -92038.02, 58123.09, 67218.69, 37073.07, 128521.19, 69661.40, 120286.71, 145962.25, -36682.74, -81053.41, -64839.86, -29074.57, -62052.75, -99647.67, -56635.99, -77995.23, 0.032, 0.960, -0.104, 14:59:28.910
18, -92038.02, 58123.09, 67218.69, 37073.07, 128521.19, 69661.40, 120286.71, 145962.25, -36708.31, -80997.55, -65604.76, -29502.78, -62208.50, -99609.90, -56838.03, -78339.33, 0.000, 0.000, 0.000, 14:59:28.910
19, -92181.95, 58106.78, 67188.36, 37057.34, 128478.78, 69716.48, 120328.65, 146075.86, -36708.31, -80997.55, -65604.76, -29502.78, -62208.50, -99609.90, -56838.03, -78339.33, 0.000, 0.000, 0.000, 14:59:28.910
20, -92181.95, 58106.78, 67188.36, 37057.34, 128478.78, 69716.48, 120328.65, 146075.86, -36629.48, -81051.47, -64728.93, -28906.48, -61871.19, -99653.44, -56576.13, -77998.02, 0.000, 0.000, 0.000, 14:59:28.910
21, -91491.68, 58106.42, 67186.50, 37545.25, 128478.00, 69659.99, 120290.31, 146047.05, -36629.48, -81051.47, -64728.93, -28906.48, -61871.19, -99653.44, -56576.13, -77998.02, 0.000, 0.000, 0.000, 14:59:28.910
22, -91491.68, 58106.42, 67186.50, 37545.25, 128478.00, 69659.99, 120290.31, 146047.05, -36726.42, -80957.86, -65443.47, -29501.87, -62271.98, -99591.08, -56840.71, -78255.65, 0.000, 0.000, 0.000, 14:59:28.911
23, -92405.28, 58137.69, 67229.82, 36793.96, 128506.88, 69699.48, 120313.67, 145975.69, -36726.42, -80957.86, -65443.47, -29501.87, -62271.98, -99591.08, -56840.71, -78255.65, 0.000, 0.000, 0.000, 14:59:28.911
24, -92405.28, 58137.69, 67229.82, 36793.96, 128506.88, 69699.48, 120313.67, 145975.69, -36657.26, -81012.11, -65132.36, -29148.66, -61963.62, -99637.19, -56684.60, -78172.90, 0.000, 0.000, 0.000, 14:59:28.911
25, -91577.02, 58092.50, 67175.13, 37507.61, 128446.75, 69700.85, 120285.35, 146081.66, -36657.26, -81012.11, -65132.36, -29148.66, -61963.62, -99637.19, -56684.60, -78172.90, 0.000, 0.000, 0.000, 14:59:28.911
26, -91577.02, 58092.50, 67175.13, 37507.61, 128446.75, 69700.85, 120285.35, 146081.66, -36681.36, -80988.05, -64817.22, -29115.52, -62038.67, -99618.19, -56644.06, -77987.00, 0.036, 0.964, -0.106, 14:59:28.911
27, -91954.67, 58145.31, 67236.55, 37098.98, 128516.63, 69676.80, 120265.28, 145920.19, -36681.36, -80988.05, -64817.22, -29115.52, -62038.67, -99618.19, -56644.06, -77987.00, 0.000, 0.000, 0.000, 14:59:28.912
28, -91954.67, 58145.31, 67236.55, 37098.98, 128516.63, 69676.80, 120265.28, 145920.19, -36706.48, -80953.41, -65581.52, -29555.35, -62195.02, -99578.91, -56847.05, -78332.42, 0.000, 0.000, 0.000, 14:59:28.912
29, -92109.26, 58112.99, 67199.20, 37077.16, 128476.82, 69730.71, 120291.52, 146015.84, -36706.48, -80953.41, -65581.52, -29555.35, -62195.02, -99578.91, -56847.05, -78332.42, 0.000, 0.000, 0.000, 14:59:28.912
30, -92109.26, 58112.99, 67199.20, 37077.16, 128476.82, 69730.71, 120291.52, 146015.84, -36614.79, -81007.59, -64717.77, -28970.56, -61866.88, -99643.16, -56584.91, -78012.05, 0.000, 0.000, 0.000, 14:59:28.912
31, -91416.35, 58100.12, 67183.59, 37571.96, 128468.14, 69707.58, 120257.95, 146013.64, -36614.79, -81007.59, -64717.77, -28970.56, -61866.88, -99643.16, -56584.91, -78012.05, 0.000, 0.000, 0.000, 14:59:28.912
32, -91416.35, 58100.12, 67183.59, 37571.96, 128468.14, 69707.58, 120257.95, 146013.64, -36728.09, -80950.23, -65405.65, -29538.97, -62271.82, -99589.27, -56838.92, -78223.64, 0.000, 0.000, 0.000, 14:59:28.913
33, -92317.98, 58126.76, 67214.82, 36842.09, 128500.76, 69743.38, 120282.98, 145935.36, -36728.09, -80950.23, -65405.65, -29538.97, -62271.82, -99589.27, -56838.92, -78223.64, 0.000, 0.000, 0.000, 14:59:28.913
34, -92317.98, 58126.76, 67214.82, 36842.09, 128500.76, 69743.38, 120282.98, 145935.36, -36645.30, -80997.82, -65153.21, -29201.88, -61984.87, -99596.45, -56709.04, -78186.80, 0.000, 0.000, 0.000, 14:59:28.913
35, -91541.81, 58082.39, 67152.88, 37513.42, 128436.05, 69754.34, 120284.08, 146052.28, -36645.30, -80997.82, -65153.21, -29201.88, -61984.87, -99596.45, -56709.04, -78186.80, 0.000, 0.000, 0.000, 14:59:28.913
36, -91541.81, 58082.39, 67152.88, 37513.42, 128436.05, 69754.34, 120284.08, 146052.28, -36686.39, -80999.91, -64837.04, -29142.45, -62082.71, -99600.91, -56667.28, -78007.23, 0.028, 0.964, -0.098, 14:59:28.913
37, -91908.11, 58125.22, 67212.23, 37120.95, 128502.34, 69740.30, 120270.95, 145908.38, -36686.39, -80999.91, -64837.04, -29142.45, -62082.71, -99600.91, -56667.28, -78007.23, 0.000, 0.000, 0.000, 14:59:28.914
38, -91908.11, 58125.22, 67212.23, 37120.95, 128502.34, 69740.30, 120270.95, 145908.38, -36736.70, -80978.40, -65599.41, -29571.83, -62204.68, -99569.71, -56867.13, -78349.57, 0.000, 0.000, 0.000, 14:59:28.914
39, -92050.56, 58080.58, 67155.95, 37119.94, 128442.93, 69781.30, 120300.03, 146014.27, -36736.70, -80978.40, -65599.41, -29571.83, -62204.68, -99569.71, -56867.13, -78349.57, 0.000, 0.000, 0.000, 14:59:28.914
40, -92050.56, 58080.58, 67155.95, 37119.94, 128442.93, 69781.30, 120300.03, 146014.27, -36678.36, -81041.30, -64727.50, -28986.19, -61901.21, -99631.24, -56604.81, -78010.24, 0.000, 0.000, 0.000, 14:59:28.914
41, -91347.46, 58067.13, 67144.75, 37623.10, 128448.38, 69739.43, 120266.95, 145994.73, -36678.36, -81041.30, -64727.50, -28986.19, -61901.21, -99631.24, -56604.81, -78010.24, 0.000, 0.000, 0.000, 14:59:28.914
42, -91347.46, 58067.13, 67144.75, 37623.10, 128448.38, 69739.43, 120266.95, 145994.73, -36695.08, -80975.95, -65422.39, -29582.40, -62299.63, -99546.82, -56855.35, -78237.59, 0.000, 0.000, 0.000, 14:59:28.915
43, -92246.96, 58118.78, 67208.01, 36895.26, 128514.77, 69799.71, 120323.55, 145936.25, -36695.08, -80975.95, -65422.39, -29582.40, -62299.63, -99546.82, -56855.35, -78237.59, 0.000, 0.000, 0.000, 14:59:28.915
44, -92246.96, 58118.78, 67208.01, 36895.26, 128514.77, 69799.71, 120323.55, 145936.25, -36616.92, -81016.33, -65147.15, -29235.86, -61970.95, -99583.86, -56708.21, -78188.81, 0.000, 0.000, 0.000, 14:59:28.915
45, -91475.49, 58084.45, 67162.48, 37562.93, 128449.97, 69803.69, 120320.29, 146057.17, -36616.92, -81016.33, -65147.15, -29235.86, -61970.95, -99583.86, -56708.21, -78188.81, 0.000, 0.000, 0.000, 14:59:28.915
46, -91475.49, 58084.45, 67162.48, 37562.93, 128449.97, 69803.69, 120320.29, 146057.17, -36671.46, -81017.63, -64824.64, -29173.21, -62055.13, -99572.19, -56669.23, -78003.49, 0.034, 0.958, -0.100, 14:59:28.916
47, -91839.94, 58122.40, 67209.03, 37171.64, 128503.37, 69778.66, 120287.59, 145911.63, -36671.46, -81017.63, -64824.64, -29173.21, -62055.13, -99572.19, -56669.23, -78003.49, 0.000, 0.000, 0.000, 14:59:28.916
48, -91839.94, 58122.40, 67209.03, 37171.64, 128503.37, 69778.66, 120287.59, 145911.63, -36758.63, -80973.46, -65581.27, -29580.97, -62206.40, -99532.02, -56871.06, -78339.45, 0.000, 0.000, 0.000, 14:59:28.916
49, -91988.49, 58104.41, 67184.52, 37163.77, 128456.97, 69826.29, 120311.97, 146014.36, -36758.63, -80973.46, -65581.27, -29580.97, -62206.40, -99532.02, -56871.06, -78339.45, 0.000, 0.000, 0.000, 14:59:28.917
50, -91988.49, 58104.41, 67184.52, 37163.77, 128456.97, 69826.29, 120311.97, 146014.36, -36807.27, -81042.13, -64689.43, -28997.54, -61882.79, -99592.89, -56600.23, -77981.68, 0.000, 0.000, 0.000, 14:59:28.917
51, -91273.19, 58096.61, 67172.91, 37676.48, 128447.24, 69767.21, 120259.94, 145974.55, -36807.27, -81042.13, -64689.43, -28997.54, -61882.79, -99592.89, -56600.23, -77981.68, 0.000, 0.000, 0.000, 14:59:28.917
52, -91273.19, 58096.61, 67172.91, 37676.48, 128447.24, 69767.21, 120259.94, 145974.55, -37034.07, -80952.45, -65407.62, -29609.04, -62291.71, -99498.27, -56867.48, -78227.62, 0.000, 0.000, 0.000, 14:59:28.917
53, -92200.52, 58139.14, 67224.86, 36925.59, 128497.70, 69831.16, 120310.34, 145906.48, -37034.07, -80952.45, -65407.62, -29609.04, -62291.71, -99498.27, -56867.48, -78227.62, 0.000, 0.000, 0.000, 14:59:28.917
54, -92200.52, 58139.14, 67224.86, 36925.59, 128497.70, 69831.16, 120310.34, 145906.48, -37082.01, -81003.97, -65129.61, -29250.88, -61975.42, -99532.90, -56711.34, -78163.69, 0.000, 0.000, 0.000, 14:59:28.918
55, -91406.45, 58074.66, 67149.66, 37614.43, 128420.98, 69805.28, 120285.88, 146017.61, -37082.01, -81003.97, -65129.61, -29250.88, -61975.42, -99532.90, -56711.34, -78163.69, 0.000, 0.000, 0.000, 14:59:28.918
56, -91406.45, 58074.66, 67149.66, 37614.43, 128420.98, 69805.28, 120285.88, 146017.61, -37294.24, -81031.42, -64833.51, -29216.99, -62143.93, -99575.16, -56697.54, -77991.27, 0.042, 0.958, -0.104, 14:59:28.918
57, -91784.33, 58123.92, 67202.20, 37209.33, 128480.30, 69802.57, 120272.77, 145872.17, -37294.24, -81031.42, -64833.51, -29216.99, -62143.93, -99575.16, -56697.54, -77991.27, 0.000, 0.000, 0.000, 14:59:28.918
58, -91784.33, 58123.92, 67202.20, 37209.33, 128480.30, 69802.57, 120272.77, 145872.17, -37334.25, -80970.96, -65571.70, -29592.79, -62136.48, -99504.55, -56882.55, -78318.72, 0.000, 0.000, 0.000, 14:59:28.919
59, -91918.80, 58099.78, 67200.96, 37214.96, 128454.80, 69850.77, 120319.05, 145999.56, -37334.25, -80970.96, -65571.70, -29592.79, -62136.48, -99504.55, -56882.55, -78318.72, 0.000, 0.000, 0.000, 14:59:28.919
60, -91918.80, 58099.78, 67200.96, 37214.96, 128454.80, 69850.77, 120319.05, 145999.56, -37386.87, -81036.27, -64695.51, -28986.86, -61865.04, -99560.74, -56619.65, -77974.08, 0.000, 0.000, 0.000, 14:59:28.919
61, -91221.83, 58099.71, 67192.00, 37716.31, 128455.49, 69809.81, 120295.09, 145985.91, -37386.87, -81036.27, -64695.51, -28986.86, -61865.04, -99560.74, -56619.65, -77974.08, 0.000, 0.000, 0.000, 14:59:28.919
62, -91221.83, 58099.71, 67192.00, 37716.31, 128455.49, 69809.81, 120295.09, 145985.91, -37613.38, -80966.30, -65406.70, -29557.83, -62287.36, -99510.77, -56876.94, -78211.26, 0.000, 0.000, 0.000, 14:59:28.919
63, -92133.33, 58093.25, 67191.80, 36975.48, 128452.12, 69830.36, 120313.73, 145906.78, -37613.38, -80966.30, -65406.70, -29557.83, -62287.36, -99510.77, -56876.94, -78211.26, 0.000, 0.000, 0.000, 14:59:28.920
64, -92133.33, 58093.25, 67191.80, 36975.48, 128452.12, 69830.36, 120313.73, 145906.78, -37718.43, -81036.25, -65156.79, -29223.63, -62021.15, -99563.63, -56750.52, -78159.94, 0.000, 0.000, 0.000, 14:59:28.920
65, -91309.76, 58055.66, 67155.21, 37688.35, 128410.16, 69805.52, 120315.50, 146028.55, -37718.43, -81036.25, -65156.79, -29223.63, -62021.15, -99563.63, -56750.52, -78159.94, 0.000, 0.000, 0.000, 14:59:28.920
66, -91309.76, 58055.66, 67155.21, 37688.35, 128410.16, 69805.52, 120315.50, 146028.55, -37718.68, -81020.34, -64798.15, -29146.83, -62049.91, -99560.39, -56676.20, -77934.16, 0.034, 0.966, -0.100, 14:59:28.920
67, -91654.22, 58129.60, 67250.63, 37312.41, 128501.78, 69818.94, 120328.71, 145895.22, -37718.68, -81020.34, -64798.15, -29146.83, -62049.91, -99560.39, -56676.20, -77934.16, 0.000, 0.000, 0.000, 14:59:28.921
68, -91654.22, 58129.60, 67250.63, 37312.41, 128501.78, 69818.94, 120328.71, 145895.22, -37873.27, -80964.43, -65572.02, -29573.46, -62212.55, -99495.91, -56881.97, -78302.45, 0.000, 0.000, 0.000, 14:59:28.921
69, -91815.27, 58090.48, 67191.45, 37288.09, 128429.79, 69860.58, 120344.29, 146006.70, -37873.27, -80964.43, -65572.02, -29573.46, -62212.55, -99495.91, -56881.97, -78302.45, 0.000, 0.000, 0.000, 14:59:28.921
70, -91815.27, 58090.48, 67191.45, 37288.09, 128429.79, 69860.58, 120344.29, 146006.70, -38062.00, -81040.34, -64705.17, -28972.49, -61904.65, -99565.30, -56634.20, -77971.66, 0.000, 0.000, 0.000, 14:59:28.922
71, -91123.45, 58086.97, 67191.94, 37777.40, 128427.15, 69815.52, 120302.31, 145992.25, -38062.00, -81040.34, -64705.17, -28972.49, -61904.65, -99565.30, -56634.20, -77971.66, 0.000, 0.000, 0.000, 14:59:28.922
72, -91123.45, 58086.97, 67191.94, 37777.40, 128427.15, 69815.52, 120302.31, 145992.25, -38423.00, -80963.89, -65409.16, -29561.07, -62294.51, -99487.32, -56889.70, -78210.83, 0.000, 0.000, 0.000, 14:59:28.922
73, -92041.42, 58121.04, 67237.45, 37029.02, 128468.57, 69853.11, 120334.57, 145922.73, -38423.00, -80963.89, -65409.16, -29561.07, -62294.51, -99487.32, -56889.70, -78210.83, 0.000, 0.000, 0.000, 14:59:28.922
74, -92041.42, 58121.04, 67237.45, 37029.02, 128468.57, 69853.11, 120334.57, 145922.73, -38642.52, -81006.74, -65130.39, -29225.04, -61950.45, -99527.46, -56743.48, -78167.71, 0.000, 0.000, 0.000, 14:59:28.923
75, -91264.90, 58082.95, 67187.66, 37696.75, 128416.51, 69832.23, 120323.26, 146029.00, -38642.52, -81006.74, -65130.39, -29225.04, -61950.45, -99527.46, -56743.48, -78167.71, 0.034, 0.962, -0.106, 14:59:28.923
76, -91264.90, 58082.95, 67187.66, 37696.75, 128416.51, 69832.23, 120323.26, 146029.00, -38938.50, -81000.73, -64828.48, -29183.76, -62068.36, -99521.83, -56709.50, -77999.78, 0.000, 0.000, 0.000, 14:59:28.923
77, -91646.59, 58123.41, 67238.00, 37283.78, 128463.74, 69813.97, 120303.88, 145879.84, -38938.50, -81000.73, -64828.48, -29183.76, -62068.36, -99521.83, -56709.50, -77999.78, 0.000, 0.000, 0.000, 14:59:28.924
78, -91646.59, 58123.41, 67238.00, 37283.78, 128463.74, 69813.97, 120303.88, 145879.84, -39150.60, -80959.02, -65570.31, -29582.29, -62215.14, -99487.66, -56902.02, -78324.78, 0.000, 0.000, 0.000, 14:59:28.924
79, -91787.08, 58099.94, 67207.65, 37281.79, 128429.77, 69846.67, 120334.44, 145996.72, -39150.60, -80959.02, -65570.31, -29582.29, -62215.14, -99487.66, -56902.02, -78324.78, 0.000, 0.000, 0.000, 14:59:28.925
80, -91787.08, 58099.94, 67207.65, 37281.79, 128429.77, 69846.67, 120334.44, 145996.72, -39262.92, -81018.97, -64695.94, -28988.69, -61899.93, -99541.23, -56633.15, -77979.65, 0.000, 0.000, 0.000, 14:59:28.925
81, -91084.49, 58094.21, 67211.09, 37789.96, 128430.30, 69817.86, 120302.88, 145993.92, -39262.92, -81018.97, -64695.94, -28988.69, -61899.93, -99541.23, -56633.15, -77979.65, 0.000, 0.000, 0.000, 14:59:28.925
82, -91084.49, 58094.21, 67211.09, 37789.96, 128430.30, 69817.86, 120302.88, 145993.92, -39489.77, -80963.09, -65394.54, -29578.51, -62288.27, -99495.81, -56888.34, -78208.73, 0.000, 0.000, 0.000, 14:59:28.925
83, -92000.13, 58126.63, 67262.74, 37049.54, 128482.49, 69853.11, 120338.48, 145924.44, -39489.77, -80963.09, -65394.54, -29578.51, -62288.27, -99495.81, -56888.34, -78208.73, 0.000, 0.000, 0.000, 14:59:28.926
84, -92000.13, 58126.63, 67262.74, 37049.54, 128482.49, 69853.11, 120338.48, 145924.44, -39572.38, -81009.80, -65118.00, -29244.69, -62000.74, -99515.98, -56742.61, -78162.88, 0.000, 0.000, 0.000, 14:59:28.926
85, -91204.32, 58073.23, 67196.77, 37742.37, 128419.55, 69829.69, 120329.78, 146056.11, -39572.38, -81009.80, -65118.00, -29244.69, -62000.74, -99515.98, -56742.61, -78162.88, 0.038, 0.968, -0.110, 14:59:28.926
86, -91204.32, 58073.23, 67196.77, 37742.37, 128419.55, 69829.69, 120329.78, 146056.11, -39717.82, -81021.98, -64800.23, -29198.04, -62082.95, -99536.20, -56702.44, -77967.95, 0.000, 0.000, 0.000, 14:59:28.926
87, -91567.30, 58125.91, 67257.41, 37349.65, 128495.44, 69820.12, 120325.23, 145921.14, -39717.82, -81021.98, -64800.23, -29198.04, -62082.95, -99536.20, -56702.44, -77967.95, 0.000, 0.000, 0.000, 14:59:28.927
88, -91567.30, 58125.91, 67257.41, 37349.65, 128495.44, 69820.12, 120325.23, 145921.14, -39774.55, -80978.38, -65557.98, -29614.21, -62239.75, -99486.70, -56898.13, -78306.98, 0.000, 0.000, 0.000, 14:59:28.927
89, -91711.38, 58094.55, 67214.53, 37342.23, 128444.34, 69849.35, 120352.94, 146024.66, -39774.55, -80978.38, -65557.98, -29614.21, -62239.75, -99486.70, -56898.13, -78306.98, 0.000, 0.000, 0.000, 14:59:28.927
90, -91711.38, 58094.55, 67214.53, 37342.23, 128444.34, 69849.35, 120352.94, 146024.66, -39733.20, -81046.82, -64693.12, -29045.15, -61913.17, -99559.78, -56646.18, -77976.61, 0.000, 0.000, 0.000, 14:59:28.927
91, -91022.09, 58085.72, 67203.78, 37829.30, 128419.89, 69792.74, 120306.09, 145998.38, -39733.20, -81046.82, -64693.12, -29045.15, -61913.17, -99559.78, -56646.18, -77976.61, 0.000, 0.000, 0.000, 14:59:28.928
92, -91022.09, 58085.72, 67203.78, 37829.30, 128419.89, 69792.74, 120306.09, 145998.38, -39770.30, -80974.89, -65399.59, -29634.21, -62307.83, -99500.73, -56912.73, -78224.95, 0.000, 0.000, 0.000, 14:59:28.928
93, -91928.20, 58122.56, 67262.16, 37094.53, 128477.42, 69847.92, 120342.15, 145943.23, -39770.30, -80974.89, -65399.59, -29634.21, -62307.83, -99500.73, -56912.73, -78224.95, 0.000, 0.000, 0.000, 14:59:28.929
94, -91928.20, 58122.56, 67262.16, 37094.53, 128477.42, 69847.92, 120342.15, 145943.23, -39615.14, -81030.84, -65098.89, -29275.78, -61987.04, -99535.06, -56758.09, -78153.01, 0.000, 0.000, 0.000, 14:59:28.929
95, -91107.09, 58055.79, 67190.59, 37805.88, 128395.39, 69813.33, 120310.07, 146065.89, -39615.14, -81030.84, -65098.89, -29275.78, -61987.04, -99535.06, -56758.09, -78153.01, 0.034, 0.966, -0.110, 14:59:28.929
96, -91107.09, 58055.79, 67190.59, 37805.88, 128395.39, 69813.33, 120310.07, 146065.89, -39619.67, -81024.06, -64792.79, -29241.65, -62078.35, -99536.45, -56723.76, -77964.55, 0.000, 0.000, 0.000, 14:59:28.929
97, -91489.55, 58139.70, 67286.91, 37391.47, 128491.14, 69827.90, 120314.81, 145916.19, -39619.67, -81024.06, -64792.79, -29241.65, -62078.35, -99536.45, -56723.76, -77964.55, 0.000, 0.000, 0.000, 14:59:28.930
98, -91489.55, 58139.70, 67286.91, 37391.47, 128491.14, 69827.90, 120314.81, 145916.19, -39536.14, -80972.39, -65540.59, -29638.03, -62209.84, -99499.57, -56905.84, -78314.27, 0.000, 0.000, 0.000, 14:59:28.930
99, -91634.86, 58112.28, 67255.34, 37380.52, 128451.34, 69848.48, 120335.46, 146018.83, -39536.14, -80972.39, -65540.59, -29638.03, -62209.84, -99499.57, -56905.84, -78314.27, 0.000, 0.000, 0.000, 14:59:28.931
100, -91634.86, 58112.28, 67255.34, 37380.52, 128451.34, 69848.48, 120335.46, 146018.83, -39461.29, -81015.98, -64669.18, -29048.17, -61867.77, -99527.13, -56637.60, -77989.80, 0.000, 0.000, 0.000, 14:59:28.931
101, -90957.94, 58117.19, 67260.20, 37861.33, 128462.89, 69807.36, 120308.33, 146006.13, -39461.29, -81015.98, -64669.18, -29048.17, -61867.77, -99527.13, -56637.60, -77989.80, 0.000, 0.000, 0.000, 14:59:28.931
102, -90957.94, 58117.19, 67260.20, 37861.33, 128462.89, 69807.36, 120308.33, 146006.13, -39541.64, -80954.28, -65368.61, -29615.30, -62274.42, -99475.92, -56894.15, -78233.20, 0.000, 0.000, 0.000, 14:59:28.931
103, -91870.02, 58123.32, 67282.70, 37118.69, 128488.48, 69830.29, 120330.41, 145937.42, -39541.64, -80954.28, -65368.61, -29615.30, -62274.42, -99475.92, -56894.15, -78233.20, 0.000, 0.000, 0.000, 14:59:28.932
104, -91870.02, 58123.32, 67282.70, 37118.69, 128488.48, 69830.29, 120330.41, 145937.42, -39521.41, -81018.41, -65093.93, -29270.66, -61979.98, -99534.35, -56757.34, -78183.85, 0.000, 0.000, 0.000, 14:59:28.932
105, -91066.30, 58073.72, 67232.26, 37811.82, 128432.16, 69808.52, 120317.89, 146051.80, -39521.41, -81018.41, -65093.93, -29270.66, -61979.98, -99534.35, -56757.34, -78183.85, 0.034, 0.970, -0.102, 14:59:29.383
106, -91066.30, 58073.72, 67232.26, 37811.82, 128432.16, 69808.52, 120317.89, 146051.80, -39584.56, -81019.55, -64766.55, -29216.68, -62047.61, -99521.01, -56714.27, -77995.43, 0.000, 0.000, 0.000, 14:59:29.383
107, -91413.22, 58122.69, 67302.66, 37425.80, 128516.83, 69809.55, 120311.63, 145912.31, -39584.56, -81019.55, -64766.55, -29216.68, -62047.61, -99521.01, -56714.27, -77995.43, 0.000, 0.000, 0.000, 14:59:29.384
108, -91413.22, 58122.69, 67302.66, 37425.80, 128516.83, 69809.55, 120311.63, 145912.31, -39616.57, -80988.50, -65515.38, -29621.54, -62195.83, -99484.34, -56900.21, -78331.53, 0.000, 0.000, 0.000, 14:59:29.384
109, -91552.12, 58099.94, 67280.07, 37418.61, 128488.38, 69842.05, 120352.56, 146022.13, -39616.57, -80988.50, -65515.38, -29621.54, -62195.83, -99484.34, -56900.21, -78331.53, 0.000, 0.000, 0.000, 14:59:29.384
110, -91552.12, 58099.94, 67280.07, 37418.61, 128488.38, 69842.05, 120352.56, 146022.13, -39617.73, -81061.03, -64635.10, -29030.18, -61873.67, -99551.42, -56630.45, -77994.47, 0.000, 0.000, 0.000, 14:59:29.384
111, -90846.07, 58092.65, 67271.59, 37919.62, 128492.62, 69785.14, 120314.32, 146002.23, -39617.73, -81061.03, -64635.10, -29030.18, -61873.67, -99551.42, -56630.45, -77994.47, 0.000, 0.000, 0.000, 14:59:29.385
112, -90846.07, 58092.65, 67271.59, 37919.62, 128492.62, 69785.14, 120314.32, 146002.23, -39767.62, -80991.59, -65342.13, -29602.72, -62297.93, -99495.05, -56892.16, -78234.73, 0.000, 0.000, 0.000, 14:59:29.385
113, -91758.22, 58135.70, 67326.24, 37167.91, 128547.67, 69836.10, 120358.44, 145931.19, -39767.62, -80991.59, -65342.13, -29602.72, -62297.93, -99495.05, -56892.16, -78234.73, 0.000, 0.000, 0.000, 14:59:29.385
114, -91758.22, 58135.70, 67326.24, 37167.91, 128547.67, 69836.10, 120358.44, 145931.19, -39828.91, -81031.35, -65058.50, -29227.36, -61974.32, -99507.33, -56738.56, -78185.77, 0.000, 0.000, 0.000, 14:59:29.386
115, -90958.01, 58101.12, 67269.83, 37854.80, 128484.30, 69823.45, 120348.98, 146064.16, -39828.91, -81031.35, -65058.50, -29227.36, -61974.32, -99507.33, -56738.56, -78185.77, 0.036, 0.968, -0.108, 14:59:29.386
116, -90958.01, 58101.12, 67269.83, 37854.80, 128484.30, 69823.45, 120348.98, 146064.16, -39879.27, -81021.63, -64720.99, -29147.14, -62047.21, -99509.92, -56692.09, -77989.46, 0.000, 0.000, 0.000, 14:59:29.386
117, -91308.48, 58147.37, 67321.89, 37468.50, 128534.66, 69797.08, 120314.14, 145915.95, -39879.27, -81021.63, -64720.99, -29147.14, -62047.21, -99509.92, -56692.09, -77989.46, 0.000, 0.000, 0.000, 14:59:29.386
118, -91308.48, 58147.37, 67321.89, 37468.50, 128534.66, 69797.08, 120314.14, 145915.95, -39866.93, -81039.42, -65480.82, -29565.77, -62224.26, -99472.30, -56913.84, -78344.74, 0.000, 0.000, 0.000, 14:59:29.387
119, -91471.88, 58114.20, 67285.12, 37436.45, 128485.63, 69814.27, 120323.99, 145988.78, -39866.93, -81039.42, -65480.82, -29565.77, -62224.26, -99472.30, -56913.84, -78344.74, 0.000, 0.000, 0.000, 14:59:29.387
120, -91471.88, 58114.20, 67285.12, 37436.45, 128485.63, 69814.27, 120323.99, 145988.78, -39811.20, -81044.41, -64603.71, -28975.48, -61890.84, -99547.85, -56656.69, -78024.70, 0.000, 0.000, 0.000, 14:59:29.387
121, -90778.14, 58117.15, 67276.02, 37925.63, 128486.90, 69762.61, 120293.73, 145965.78, -39811.20, -81044.41, -64603.71, -28975.48, -61890.84, -99547.85, -56656.69, -78024.70, 0.000, 0.000, 0.000, 14:59:29.387
122, -90778.14, 58117.15, 67276.02, 37925.63, 128486.90, 69762.61, 120293.73, 145965.78, -39879.94, -80978.49, -65295.79, -29549.52, -62309.44, -99478.85, -56906.11, -78258.17, 0.000, 0.000, 0.000, 14:59:29.387
123, -91676.46, 58149.34, 67321.69, 37192.74, 128531.65, 69800.92, 120328.09, 145887.80, -39879.94, -80978.49, -65295.79, -29549.52, -62309.44, -99478.85, -56906.11, -78258.17, 0.000, 0.000, 0.000, 14:59:29.387
124, -91676.46, 58149.34, 67321.69, 37192.74, 128531.65, 69800.92, 120328.09, 145887.80, -39696.70, -81034.91, -65003.23, -29186.24, -61999.54, -99512.51, -56746.50, -78197.73, 0.000, 0.000, 0.000, 14:59:29.388
125, -90846.72, 58078.48, 67245.47, 37907.35, 128450.20, 69752.08, 120298.00, 145989.08, -39696.70, -81034.91, -65003.23, -29186.24, -61999.54, -99512.51, -56746.50, -78197.73, 0.036, 0.966, -0.110, 14:59:29.388
126, -90846.72, 58078.48, 67245.47, 37907.35, 128450.20, 69752.08, 120298.00, 145989.08, -39592.25, -81065.39, -64681.48, -29147.48, -62084.52, -99549.26, -56720.37, -78007.97, 0.000, 0.000, 0.000, 14:59:29.388
127, -91209.20, 58135.59, 67317.10, 37504.26, 128536.18, 69746.00, 120296.21, 145819.53, -39592.25, -81065.39, -64681.48, -29147.48, -62084.52, -99549.26, -56720.37, -78007.97, 0.000, 0.000, 0.000, 14:59:29.388
128, -91209.20, 58135.59, 67317.10, 37504.26, 128536.18, 69746.00, 120296.21, 145819.53, -39404.38, -80996.66, -65446.31, -29571.63, -62222.65, -99467.52, -56914.31, -78377.57, 0.000, 0.000, 0.000, 14:59:29.389
129, -91351.55, 58102.33, 67275.24, 37490.20, 128487.61, 69791.64, 120326.34, 145930.00, -39404.38, -80996.66, -65446.31, -29571.63, -62222.65, -99467.52, -56914.31, -78377.57, 0.000, 0.000, 0.000, 14:59:29.389
130, -91351.55, 58102.33, 67275.24, 37490.20, 128487.61, 69791.64, 120326.34, 145930.00, -39141.75, -81082.05, -64557.87, -28983.04, -61895.87, -99553.52, -56644.04, -78035.39, 0.000, 0.000, 0.000, 14:59:29.389
131, -90651.01, 58099.80, 67274.68, 37982.70, 128502.01, 69748.62, 120310.20, 145915.67, -39141.75, -81082.05, -64557.87, -28983.04, -61895.87, -99553.52, -56644.04, -78035.39, 0.000, 0.000, 0.000, 14:59:29.389
132, -90651.01, 58099.80, 67274.68, 37982.70, 128502.01, 69748.62, 120310.20, 145915.67, -39068.97, -81002.77, -65261.30, -29574.06, -62307.52, -99497.24, -56894.42, -78282.11, 0.000, 0.000, 0.000, 14:59:29.390
133, -91572.88, 58129.87, 67314.89, 37222.14, 128553.22, 69771.13, 120356.05, 145845.44, -39068.97, -81002.77, -65261.30, -29574.06, -62307.52, -99497.24, -56894.42, -78282.11, 0.000, 0.000, 0.000, 14:59:29.390
134, -91572.88, 58129.87, 67314.89, 37222.14, 128553.22, 69771.13, 120356.05, 145845.44, -38878.60, -81038.68, -64980.03, -29229.80, -62013.77, -99518.08, -56735.50, -78229.90, 0.032, 0.968, -0.112, 14:59:29.390
135, -90756.38, 58078.28, 67253.18, 37922.73, 128489.31, 69738.70, 120348.12, 145967.08, -38878.60, -81038.68, -64980.03, -29229.80, -62013.77, -99518.08, -56735.50, -78229.90, 0.000, 0.000, 0.000, 14:59:29.390
136, -90756.38, 58078.28, 67253.18, 37922.73, 128489.31, 69738.70, 120348.12, 145967.08, -38794.16, -81032.24, -64662.90, -29186.08, -62101.46, -99546.33, -56700.09, -78042.72, 0.000, 0.000, 0.000, 14:59:29.391
137, -91134.56, 58124.08, 67316.66, 37507.52, 128553.05, 69737.17, 120338.32, 145812.92, -38794.16, -81032.24, -64662.90, -29186.08, -62101.46, -99546.33, -56700.09, -78042.72, 0.000, 0.000, 0.000, 14:59:29.391
138, -91134.56, 58124.08, 67316.66, 37507.52, 128553.05, 69737.17, 120338.32, 145812.92, -38679.65, -81018.08, -65409.29, -29595.88, -62255.29, -99512.11, -56894.13, -78376.59, 0.000, 0.000, 0.000, 14:59:29.391
139, -91249.52, 58085.70, 67268.66, 37517.78, 128490.56, 69756.64, 120346.26, 145925.28, -38679.65, -81018.08, -65409.29, -29595.88, -62255.29, -99512.11, -56894.13, -78376.59, 0.000, 0.000, 0.000, 14:59:29.391
140, -91249.52, 58085.70, 67268.66, 37517.78, 128490.56, 69756.64, 120346.26, 145925.28, -38498.73, -81060.92, -64526.69, -28998.46, -61916.70, -99553.08, -56642.05, -78028.51, 0.000, 0.000, 0.000, 14:59:29.392
141, -90553.20, 58091.78, 67269.80, 38003.62, 128492.40, 69712.61, 120305.16, 145905.30, -38498.73, -81060.92, -64526.69, -28998.46, -61916.70, -99553.08, -56642.05, -78028.51, 0.000, 0.000, 0.000, 14:59:29.392
142, -90553.20, 58091.78, 67269.80, 38003.62, 128492.40, 69712.61, 120305.16, 145905.30, -38470.68, -80969.73, -65237.48, -29582.82, -62313.98, -99505.00, -56910.64, -78285.35, 0.000, 0.000, 0.000, 14:59:29.392
143, -91469.08, 58128.14, 67314.45, 37253.83, 128528.96, 69745.94, 120332.18, 145838.98, -38470.68, -80969.73, -65237.48, -29582.82, -62313.98, -99505.00, -56910.64, -78285.35, 0.000, 0.000, 0.000, 14:59:29.392
144, -91469.08, 58128.14, 67314.45, 37253.83, 128528.96, 69745.94, 120332.18, 145838.98, -38317.41, -81028.13, -64921.18, -29203.38, -62016.05, -99523.04, -56748.28, -78199.63, 0.042, 0.960, -0.110, 14:59:29.393
145, -90631.85, 58075.95, 67244.44, 37972.62, 128454.98, 69701.68, 120304.48, 145946.36, -38317.41, -81028.13, -64921.18, -29203.38, -62016.05, -99523.04, -56748.28, -78199.63, 0.000, 0.000, 0.000, 14:59:29.393
146, -90631.85, 58075.95, 67244.44, 37972.62, 128454.98, 69701.68, 120304.48, 145946.36, -38263.77, -81012.46, -64605.91, -29146.99, -62104.05, -99535.66, -56720.14, -78019.61, 0.000, 0.000, 0.000, 14:59:29.393
147, -90999.36, 58146.95, 67325.77, 37564.34, 128541.41, 69698.34, 120307.01, 145786.20, -38263.77, -81012.46, -64605.91, -29146.99, -62104.05, -99535.66, -56720.14, -78019.61, 0.000, 0.000, 0.000, 14:59:29.393
148, -90999.36, 58146.95, 67325.77, 37564.34, 128541.41, 69698.34, 120307.01, 145786.20, -38188.18, -80958.58, -65350.02, -29543.08, -62239.37, -99466.73, -56903.02, -78364.99, 0.000, 0.000, 0.000, 14:59:29.394
149, -91127.14, 58107.70, 67276.24, 37563.49, 128483.61, 69714.69, 120323.91, 145884.06, -38188.18, -80958.58, -65350.02, -29543.08, -62239.37, -99466.73, -56903.02, -78364.99, 0.000, 0.000, 0.000, 14:59:29.394
150, -91127.14, 58107.70, 67276.24, 37563.49, 128483.61, 69714.69, 120323.91, 145884.06, -38065.24, -81047.09, -64475.08, -28961.65, -61918.09, -99550.22, -56649.22, -78035.41, 0.000, 0.000, 0.000, 14:59:29.394
151, -90427.45, 58092.76, 67264.40, 38048.50, 128481.40, 69634.53, 120290.54, 145851.09, -38065.24, -81047.09, -64475.08, -28961.65, -61918.09, -99550.22, -56649.22, -78035.41, 0.000, 0.000, 0.000, 14:59:29.394
152, -90427.45, 58092.76, 67264.40, 38048.50, 128481.40, 69634.53, 120290.54, 145851.09, -38100.27, -80974.38, -65194.96, -29570.31, -62320.91, -99438.82, -56908.84, -78294.02, 0.000, 0.000, 0.000, 14:59:29.395
153, -91341.12, 58138.20, 67323.43, 37290.38, 128535.36, 69685.23, 120341.30, 145782.88, -38100.27, -80974.38, -65194.96, -29570.31, -62320.91, -99438.82, -56908.84, -78294.02, 0.000, 0.000, 0.000, 14:59:29.395
154, -91341.12, 58138.20, 67323.43, 37290.38, 128535.36, 69685.23, 120341.30, 145782.88, -37947.63, -80997.53, -64905.15, -29202.17, -62001.19, -99492.75, -56744.33, -78253.50, 0.038, 0.970, -0.104, 14:59:29.395
155, -90544.45, 58089.77, 67265.85, 37965.49, 128490.95, 69678.86, 120357.63, 145915.38, -37947.63, -80997.53, -64905.15, -29202.17, -62001.19, -99492.75, -56744.33, -78253.50, 0.000, 0.000, 0.000, 14:59:29.396
156, -90544.45, 58089.77, 67265.85, 37965.49, 128490.95, 69678.86, 120357.63, 145915.38, -37939.56, -81027.20, -64585.63, -29139.95, -62089.81, -99516.53, -56689.36, -78058.73, 0.000, 0.000, 0.000, 14:59:29.396
157, -90906.73, 58129.53, 67313.10, 37556.83, 128571.74, 69648.37, 120366.35, 145777.83, -37939.56, -81027.20, -64585.63, -29139.95, -62089.81, -99516.53, -56689.36, -78058.73, 0.000, 0.000, 0.000, 14:59:29.396
158, -90906.73, 58129.53, 67313.10, 37556.83, 128571.74, 69648.37, 120366.35, 145777.83, -37908.45, -81015.41, -65334.06, -29556.11, -62247.75, -99496.17, -56870.46, -78385.84, 0.000, 0.000, 0.000, 14:59:29.396
159, -91018.42, 58085.68, 67255.84, 37568.77, 128521.56, 69673.76, 120396.55, 145904.88, -37908.45, -81015.41, -65334.06, -29556.11, -62247.75, -99496.17, -56870.46, -78385.84, 0.000, 0.000, 0.000, 14:59:29.397
160, -91018.42, 58085.68, 67255.84, 37568.77, 128521.56, 69673.76, 120396.55, 145904.88, -37799.46, -81088.05, -64460.11, -28972.89, -61928.12, -99550.42, -56608.96, -78029.73, 0.000, 0.000, 0.000, 14:59:29.397
161, -90321.54, 58078.97, 67238.91, 38056.95, 128514.62, 69612.18, 120357.48, 145885.66, -37799.46, -81088.05, -64460.11, -28972.89, -61928.12, -99550.42, -56608.96, -78029.73, 0.000, 0.000, 0.000, 14:59:29.397
162, -90321.54, 58078.97, 67238.91, 38056.95, 128514.62, 69612.18, 120357.48, 145885.66, -37855.76, -81037.72, -65184.41, -29570.40, -62339.15, -99520.71, -56885.72, -78276.32, 0.000, 0.000, 0.000, 14:59:29.397
163, -91234.54, 58114.11, 67282.10, 37306.11, 128544.27, 69632.41, 120380.08, 145816.09, -37855.76, -81037.72, -65184.41, -29570.40, -62339.15, -99520.71, -56885.72, -78276.32, 0.000, 0.000, 0.000, 14:59:29.397
164, -91234.54, 58114.11, 67282.10, 37306.11, 128544.27, 69632.41, 120380.08, 145816.09, -37714.07, -81050.95, -64899.32, -29213.01, -62023.90, -99537.97, -56742.05, -78227.48, 0.036, 0.972, -0.106, 14:59:29.398
165, -90438.22, 58090.19, 67237.35, 37985.20, 128482.05, 69655.88, 120368.81, 145952.89, -37714.07, -81050.95, -64899.32, -29213.01, -62023.90, -99537.97, -56742.05, -78227.48, 0.000, 0.000, 0.000, 14:59:29.398
166, -90438.22, 58090.19, 67237.35, 37985.20, 128482.05, 69655.88, 120368.81, 145952.89, -37703.97, -81048.36, -64565.22, -29141.00, -62089.81, -99552.72, -56698.59, -78026.02, 0.000, 0.000, 0.000, 14:59:29.398
167, -90791.87, 58151.21, 67308.84, 37590.61, 128554.78, 69629.55, 120354.13, 145817.92, -37703.97, -81048.36, -64565.22, -29141.00, -62089.81, -99552.72, -56698.59, -78026.02, 0.000, 0.000, 0.000, 14:59:29.398
168, -90791.87, 58151.21, 67308.84, 37590.61, 128554.78, 69629.55, 120354.13, 145817.92, -37670.51, -81002.49, -65294.09, -29537.72, -62232.60, -99536.61, -56879.49, -78344.38, 0.000, 0.000, 0.000, 14:59:29.399
169, -90920.97, 58113.93, 67266.12, 37588.30, 128502.63, 69633.17, 120364.01, 145919.17, -37670.51, -81002.49, -65294.09, -29537.72, -62232.60, -99536.61, -56879.49, -78344.38, 0.000, 0.000, 0.000, 14:59:29.399
170, -90920.97, 58113.93, 67266.12, 37588.30, 128502.63, 69633.17, 120364.01, 145919.17, -37570.98, -81073.89, -64434.00, -28973.25, -61916.10, -99626.37, -56637.95, -78024.86, 0.000, 0.000, 0.000, 14:59:29.399
171, -90237.38, 58120.59, 67261.67, 38061.38, 128501.09, 69568.91, 120320.46, 145882.86, -37570.98, -81073.89, -64434.00, -28973.25, -61916.10, -99626.37, -56637.95, -78024.86, 0.000, 0.000, 0.000, 14:59:29.400
172, -90237.38, 58120.59, 67261.67, 38061.38, 128501.09, 69568.91, 120320.46, 145882.86, -37635.24, -80980.79, -65126.25, -29546.95, -62309.44, -99568.77, -56895.56, -78260.34, 0.000, 0.000, 0.000, 14:59:29.400
173, -91134.59, 58146.81, 67294.95, 37329.91, 128527.47, 69594.55, 120340.73, 145807.36, -37635.24, -80980.79, -65126.25, -29546.95, -62309.44, -99568.77, -56895.56, -78260.34, 0.000, 0.000, 0.000, 14:59:29.400
174, -91134.59, 58146.81, 67294.95, 37329.91, 128527.47, 69594.55, 120340.73, 145807.36, -37525.71, -81023.77, -64846.30, -29204.63, -62001.84, -99626.37, -56755.46, -78205.80, 0.038, 0.964, -0.098, 14:59:29.401
175, -90336.77, 58100.07, 67233.58, 38017.79, 128470.07, 69574.02, 120327.84, 145918.47, -37525.71, -81023.77, -64846.30, -29204.63, -62001.84, -99626.37, -56755.46, -78205.80, 0.000, 0.000, 0.000, 14:59:29.401
176, -90336.77, 58100.07, 67233.58, 38017.79, 128470.07, 69574.02, 120327.84, 145918.47, -37547.80, -81018.70, -64530.42, -29168.29, -62081.92, -99653.80, -56716.25, -78019.41, 0.000, 0.000, 0.000, 14:59:29.401
177, -90705.32, 58146.86, 67300.14, 37616.02, 128550.69, 69569.55, 120328.76, 145776.84, -37547.80, -81018.70, -64530.42, -29168.29, -62081.92, -99653.80, -56716.25, -78019.41, 0.000, 0.000, 0.000, 14:59:29.402
178, -90705.32, 58146.86, 67300.14, 37616.02, 128550.69, 69569.55, 120328.76, 145776.84, -37530.05, -80952.98, -65295.41, -29590.65, -62229.64, -99613.95, -56895.67, -78362.45, 0.000, 0.000, 0.000, 14:59:29.402
179, -90844.51, 58107.52, 67259.10, 37609.85, 128506.99, 69603.73, 120361.70, 145901.28, -37530.05, -80952.98, -65295.41, -29590.65, -62229.64, -99613.95, -56895.67, -78362.45, 0.000, 0.000, 0.000, 14:59:29.402
180, -90844.51, 58107.52, 67259.10, 37609.85, 128506.99, 69603.73, 120361.70, 145901.28, -37447.57, -81016.24, -64409.50, -28997.23, -61908.72, -99673.73, -56622.89, -78005.28, 0.000, 0.000, 0.000, 14:59:29.403
181, -90130.01, 58085.32, 67247.77, 38120.99, 128512.52, 69557.53, 120336.55, 145893.00, -37447.57, -81016.24, -64409.50, -28997.23, -61908.72, -99673.73, -56622.89, -78005.28, 0.000, 0.000, 0.000, 14:59:29.403
182, -90130.01, 58085.32, 67247.77, 38120.99, 128512.52, 69557.53, 120336.55, 145893.00, -37522.72, -80933.49, -65123.57, -29591.70, -62313.93, -99600.94, -56881.39, -78243.48, 0.000, 0.000, 0.000, 14:59:29.403
183, -91040.09, 58089.57, 67292.25, 37379.52, 128561.95, 69616.65, 120384.21, 145832.70, -37522.72, -80933.49, -65123.57, -29591.70, -62313.93, -99600.94, -56881.39, -78243.48, 0.038, 0.966, -0.104, 14:59:29.404
184, -91040.09, 58089.57, 67292.25, 37379.52, 128561.95, 69616.65, 120384.21, 145832.70, -37419.79, -80984.19, -64856.64, -29253.78, -62014.46, -99656.95, -56734.16, -78197.13, 0.000, 0.000, 0.000, 14:59:29.404
185, -90247.13, 58027.18, 67231.12, 38060.46, 128498.50, 69645.53, 120372.90, 145950.94, -37419.79, -80984.19, -64856.64, -29253.78, -62014.46, -99656.95, -56734.16, -78197.13, 0.000, 0.000, 0.000, 14:59:29.404
186, -90247.13, 58027.18, 67231.12, 38060.46, 128498.50, 69645.53, 120372.90, 145950.94, -37432.91, -80974.63, -64548.89, -29204.23, -62098.35, -99650.31, -56697.12, -78015.30, 0.000, 0.000, 0.000, 14:59:29.404
187, -90624.18, 58072.82, 67288.74, 37649.52, 128556.39, 69660.73, 120349.25, 145806.58, -37432.91, -80974.63, -64548.89, -29204.23, -62098.35, -99650.31, -56697.12, -78015.30, 0.000, 0.000, 0.000, 14:59:29.405
188, -90624.18, 58072.82, 67288.74, 37649.52, 128556.39, 69660.73, 120349.25, 145806.58, -37476.43, -80952.45, -65319.44, -29625.63, -62303.90, -99612.16, -56908.37, -78364.41, 0.000, 0.000, 0.000, 14:59:29.405
189, -90762.50, 58007.11, 67198.06, 37644.34, 128463.31, 69671.99, 120332.52, 145900.72, -37476.43, -80952.45, -65319.44, -29625.63, -62303.90, -99612.16, -56908.37, -78364.41, 0.000, 0.000, 0.000, 14:59:29.405
190, -90762.50, 58007.11, 67198.06, 37644.34, 128463.31, 69671.99, 120332.52, 145900.72, -37412.24, -81027.77, -64462.79, -29061.76, -61948.64, -99684.73, -56672.38, -78028.48, 0.000, 0.000, 0.000, 14:59:29.405
191, -90081.84, 58028.03, 67221.38, 38124.30, 128443.89, 69618.66, 120290.31, 145867.03, -37412.24, -81027.77, -64462.79, -29061.76, -61948.64, -99684.73, -56672.38, -78028.48, 0.000, 0.000, 0.000, 14:59:29.406
192, -90081.84, 58028.03, 67221.38, 38124.30, 128443.89, 69618.66, 120290.31, 145867.03, -37388.48, -80900.03, -65163.20, -29632.00, -62291.45, -99563.16, -56921.98, -78284.13, 0.000, 0.000, 0.000, 14:59:29.406
193, -90998.95, 58088.54, 67302.09, 37377.48, 128548.16, 69682.25, 120347.91, 145813.48, -37388.48, -80900.03, -65163.20, -29632.00, -62291.45, -99563.16, -56921.98, -78284.13, 0.036, 0.966, -0.104, 14:59:29.406
194, -90998.95, 58088.54, 67302.09, 37377.48, 128548.16, 69682.25, 120347.91, 145813.48, -37383.56, -80981.04, -64875.60, -29269.21, -62061.49, -99631.18, -56773.50, -78226.48, 0.000, 0.000, 0.000, 14:59:29.406
195, -90200.44, 57991.53, 67189.01, 38062.88, 128437.88, 69630.27, 120304.30, 145900.27, -37383.56, -80981.04, -64875.60, -29269.21, -62061.49, -99631.18, -56773.50, -78226.48, 0.000, 0.000, 0.000, 14:59:29.407
196, -90200.44, 57991.53, 67189.01, 38062.88, 128437.88, 69630.27, 120304.30, 145900.27, -37514.45, -80980.21, -64575.48, -29224.37, -62117.30, -99635.36, -56735.36, -78038.27, 0.000, 0.000, 0.000, 14:59:29.407
197, -90579.21, 58074.10, 67270.57, 37653.57, 128524.09, 69644.16, 120318.12, 145755.27, -37514.45, -80980.21, -64575.48, -29224.37, -62117.30, -99635.36, -56735.36, -78038.27, 0.000, 0.000, 0.000, 14:59:29.407
198, -90579.21, 58074.10, 67270.57, 37653.57, 128524.09, 69644.16, 120318.12, 145755.27, -37463.15, -80907.73, -65320.36, -29624.00, -62224.39, -99555.23, -56911.77, -78380.26, 0.000, 0.000, 0.000, 14:59:29.407
199, -90717.39, 58069.32, 67261.45, 37651.22, 128492.13, 69705.77, 120373.30, 145895.78, -37463.15, -80907.73, -65320.36, -29624.00, -62224.39, -99555.23, -56911.77, -78380.26, 0.000, 0.000, 0.000, 14:59:29.408
200, -90717.39, 58069.32, 67261.45, 37651.22, 128492.13, 69705.77, 120373.30, 145895.78, -37552.96, -80969.10, -64419.43, -29012.76, -61881.83, -99600.78, -56630.98, -78025.47, 0.000, 0.000, 0.000, 14:59:29.408
201, -90034.97, 58077.56, 67268.06, 38133.26, 128495.30, 69657.58, 120354.84, 145880.06, -37552.96, -80969.10, -64419.43, -29012.76, -61881.83, -99600.78, -56630.98, -78025.47, 0.000, 0.000, 0.000, 14:59:29.408
202, -90034.97, 58077.56, 67268.06, 38133.26, 128495.30, 69657.58, 120354.84, 145880.06, -38125.37, -80899.66, -65134.88, -29565.50, -62315.50, -99534.44, -56886.60, -78267.45, 0.000, 0.000, 0.000, 14:59:29.408
203, -90944.73, 58073.07, 67276.76, 37392.52, 128512.42, 69699.51, 120385.38, 145828.05, -38125.37, -80899.66, -65134.88, -29565.50, -62315.50, -99534.44, -56886.60, -78267.45, 0.040, 0.964, -0.104, 14:59:29.409
204, -90944.73, 58073.07, 67276.76, 37392.52, 128512.42, 69699.51, 120385.38, 145828.05, -38708.70, -80947.55, -64878.60, -29210.29, -62045.94, -99577.73, -56750.12, -78204.52, 0.000, 0.000, 0.000, 14:59:29.409
205, -90164.56, 58033.78, 67208.01, 38067.16, 128457.70, 69688.45, 120380.63, 145951.72, -38708.70, -80947.55, -64878.60, -29210.29, -62045.94, -99577.73, -56750.12, -78204.52, 0.000, 0.000, 0.000, 14:59:29.409
206, -90164.56, 58033.78, 67208.01, 38067.16, 128457.70, 69688.45, 120380.63, 145951.72, -39276.26, -80949.68, -64584.11, -29150.61, -62124.28, -99589.00, -56726.47, -78024.22, 0.000, 0.000, 0.000, 14:59:29.410
207, -90568.84, 58055.70, 67234.98, 37631.11, 128486.45, 69660.64, 120356.00, 145799.08, -39276.26, -80949.68, -64584.11, -29150.61, -62124.28, -99589.00, -56726.47, -78024.22, 0.000, 0.000, 0.000, 14:59:29.410
208, -90568.84, 58055.70, 67234.98, 37631.11, 128486.45, 69660.64, 120356.00, 145799.08, -39807.63, -80943.76, -65369.95, -29573.68, -62313.98, -99535.51, -56953.18, -78375.61, 0.000, 0.000, 0.000, 14:59:29.410
209, -90711.42, 58015.89, 67194.08, 37623.93, 128430.80, 69721.33, 120374.09, 145913.92, -39807.63, -80943.76, -65369.95, -29573.68, -62313.98, -99535.51, -56953.18, -78375.61, 0.000, 0.000, 0.000, 14:59:29.410
210, -90711.42, 58015.89, 67194.08, 37623.93, 128430.80, 69721.33, 120374.09, 145913.92, -40017.69, -80991.37, -64479.04, -28978.21, -61908.43, -99583.01, -56667.50, -78014.65, 0.000, 0.000, 0.000, 14:59:29.411
211, -90017.11, 58045.76, 67238.07, 38120.83, 128496.42, 69725.23, 120371.05, 145940.41, -40017.69, -80991.37, -64479.04, -28978.21, -61908.43, -99583.01, -56667.50, -78014.65, 0.000, 0.000, 0.000, 14:59:29.411
212, -90017.11, 58045.76, 67238.07, 38120.83, 128496.42, 69725.23, 120371.05, 145940.41, -40501.36, -80915.62, -65182.07, -29554.97, -62327.30, -99516.65, -56915.34, -78250.17, 0.000, 0.000, 0.000, 14:59:29.411
213, -90958.88, 58077.83, 67288.63, 37351.04, 128529.88, 69772.29, 120400.59, 145900.88, -40501.36, -80915.62, -65182.07, -29554.97, -62327.30, -99516.65, -56915.34, -78250.17, 0.030, 0.958, -0.110, 14:59:29.411
214, -90958.88, 58077.83, 67288.63, 37351.04, 128529.88, 69772.29, 120400.59, 145900.88, -40668.48, -80962.89, -64898.94, -29200.25, -62009.10, -99561.82, -56772.56, -78200.91, 0.000, 0.000, 0.000, 14:59:29.412
215, -90171.25, 58043.88, 67241.11, 38031.40, 128464.34, 69747.66, 120374.78, 146032.34, -40668.48, -80962.89, -64898.94, -29200.25, -62009.10, -99561.82, -56772.56, -78200.91, 0.000, 0.000, 0.000, 14:59:29.412
216, -90171.25, 58043.88, 67241.11, 38031.40, 128464.34, 69747.66, 120374.78, 146032.34, -41064.40, -80968.37, -64567.15, -29131.59, -62104.01, -99575.07, -56733.71, -77999.70, 0.000, 0.000, 0.000, 14:59:29.412
217, -90537.95, 58077.65, 67284.90, 37635.24, 128512.91, 69725.68, 120342.91, 145878.75, -41064.40, -80968.37, -64567.15, -29131.59, -62104.01, -99575.07, -56733.71, -77999.70, 0.000, 0.000, 0.000, 14:59:29.413
218, -90537.95, 58077.65, 67284.90, 37635.24, 128512.91, 69725.68, 120342.91, 145878.75, -41462.02, -80947.24, -65325.09, -29542.93, -62279.40, -99541.59, -56941.54, -78328.65, 0.000, 0.000, 0.000, 14:59:29.413
219, -90676.98, 58044.53, 67246.31, 37633.52, 128453.30, 69755.48, 120356.77, 145977.06, -41462.02, -80947.24, -65325.09, -29542.93, -62279.40, -99541.59, -56941.54, -78328.65, 0.000, 0.000, 0.000, 14:59:29.413
220, -90676.98, 58044.53, 67246.31, 37633.52, 128453.30, 69755.48, 120356.77, 145977.06, -41742.77, -80998.07, -64457.42, -28950.52, -61951.34, -99573.60, -56686.55, -77987.16, 0.000, 0.000, 0.000, 14:59:29.413
221, -89998.91, 58055.52, 67250.70, 38119.69, 128465.46, 69722.33, 120340.63, 145964.75, -41742.77, -80998.07, -64457.42, -28950.52, -61951.34, -99573.60, -56686.55, -77987.16, 0.000, 0.000, 0.000, 14:59:29.414
222, -89998.91, 58055.52, 67250.70, 38119.69, 128465.46, 69722.33, 120340.63, 145964.75, -42065.85, -80941.70, -65165.57, -29536.73, -62358.62, -99530.30, -56939.82, -78223.68, 0.000, 0.000, 0.000, 14:59:29.414
223, -90922.13, 58065.38, 67275.30, 37369.99, 128476.68, 69745.42, 120368.68, 145897.39, -42065.85, -80941.70, -65165.57, -29536.73, -62358.62, -99530.30, -56939.82, -78223.68, 0.032, 0.960, -0.104, 14:59:29.414
224, -90922.13, 58065.38, 67275.30, 37369.99, 128476.68, 69745.42, 120368.68, 145897.39, -42203.33, -81008.04, -64903.16, -29206.15, -62085.21, -99568.05, -56806.93, -78184.97, 0.000, 0.000, 0.000, 14:59:29.414
225, -90141.43, 58018.02, 67238.25, 38043.92, 128447.89, 69726.17, 120368.90, 146015.41, -42203.33, -81008.04, -64903.16, -29206.15, -62085.21, -99568.05, -56806.93, -78184.97, 0.000, 0.000, 0.000, 14:59:29.864
226, -90141.43, 58018.02, 67238.25, 38043.92, 128447.89, 69726.17, 120368.90, 146015.41, -42342.52, -80993.22, -64594.86, -29154.07, -62143.03, -99555.74, -56755.39, -78007.97, 0.000, 0.000, 0.000, 14:59:29.864
227, -90518.21, 58068.31, 67315.96, 37631.39, 128509.02, 69732.16, 120361.62, 145884.28, -42342.52, -80993.22, -64594.86, -29154.07, -62143.03, -99555.74, -56755.39, -78007.97, 0.000, 0.000, 0.000, 14:59:29.865
228, -90518.21, 58068.31, 67315.96, 37631.39, 128509.02, 69732.16, 120361.62, 145884.28, -42378.75, -80959.80, -65339.85, -29549.23, -62287.38, -99534.13, -56947.66, -78347.65, 0.000, 0.000, 0.000, 14:59:29.865
229, -90652.15, 58018.04, 67276.91, 37632.63, 128450.60, 69753.47, 120375.20, 145998.44, -42378.75, -80959.80, -65339.85, -29549.23, -62287.38, -99534.13, -56947.66, -78347.65, 0.000, 0.000, 0.000, 14:59:29.865
230, -90652.15, 58018.04, 67276.91, 37632.63, 128450.60, 69753.47, 120375.20, 145998.44, -42411.83, -81037.43, -64455.34, -28969.54, -61965.07, -99605.65, -56689.43, -77988.38, 0.000, 0.000, 0.000, 14:59:29.865
231, -89948.20, 58011.36, 67265.23, 38129.41, 128445.19, 69708.70, 120333.88, 145974.36, -42411.83, -81037.43, -64455.34, -28969.54, -61965.07, -99605.65, -56689.43, -77988.38, 0.000, 0.000, 0.000, 14:59:29.865
232, -89948.20, 58011.36, 67265.23, 38129.41, 128445.19, 69708.70, 120333.88, 145974.36, -42420.03, -80967.31, -65170.06, -29571.69, -62375.60, -99528.00, -56962.46, -78236.16, 0.032, 0.968, -0.110, 14:59:29.865
233, -90851.73, 58030.47, 67311.72, 37390.42, 128486.49, 69755.10, 120365.84, 145921.14, -42420.03, -80967.31, -65170.06, -29571.69, -62375.60, -99528.00, -56962.46, -78236.16, 0.000, 0.000, 0.000, 14:59:29.866
234, -90851.73, 58030.47, 67311.72, 37390.42, 128486.49, 69755.10, 120365.84, 145921.14, -42393.88, -81022.16, -64875.18, -29223.85, -62051.32, -99574.27, -56813.89, -78161.74, 0.000, 0.000, 0.000, 14:59:29.866
235, -90033.56, 57971.26, 67242.09, 38093.54, 128407.62, 69718.76, 120334.91, 146026.53, -42393.88, -81022.16, -64875.18, -29223.85, -62051.32, -99574.27, -56813.89, -78161.74, 0.000, 0.000, 0.000, 14:59:29.866
236, -90033.56, 57971.26, 67242.09, 38093.54, 128407.62, 69718.76, 120334.91, 146026.53, -42376.36, -81023.41, -64566.01, -29177.92, -62150.83, -99590.07, -56777.12, -77964.91, 0.000, 0.000, 0.000, 14:59:29.866
237, -90396.95, 58030.60, 67324.41, 37697.02, 128499.08, 69722.06, 120342.10, 145891.70, -42376.36, -81023.41, -64566.01, -29177.92, -62150.83, -99590.07, -56777.12, -77964.91, 0.000, 0.000, 0.000, 14:59:29.867
238, -90396.95, 58030.60, 67324.41, 37697.02, 128499.08, 69722.06, 120342.10, 145891.70, -42306.98, -80957.41, -65329.34, -29578.91, -62281.17, -99522.10, -56956.80, -78317.52, 0.000, 0.000, 0.000, 14:59:29.867
239, -90560.41, 58014.89, 67305.57, 37673.04, 128462.13, 69756.69, 120378.35, 146005.86, -42306.98, -80957.41, -65329.34, -29578.91, -62281.17, -99522.10, -56956.80, -78317.52, 0.000, 0.000, 0.000, 14:59:29.867
240, -90560.41, 58014.89, 67305.57, 37673.04, 128462.13, 69756.69, 120378.35, 146005.86, -42267.28, -81035.80, -64441.71, -28979.86, -61939.52, -99599.08, -56678.90, -77966.62, 0.000, 0.000, 0.000, 14:59:29.867
241, -89846.09, 58005.99, 67305.03, 38184.69, 128455.47, 69706.26, 120332.63, 145985.19, -42267.28, -81035.80, -64441.71, -28979.86, -61939.52, -99599.08, -56678.90, -77966.62, 0.000, 0.000, 0.000, 14:59:29.867
242, -89846.09, 58005.99, 67305.03, 38184.69, 128455.47, 69706.26, 120332.63, 145985.19, -42258.56, -80969.80, -65143.48, -29567.13, -62354.77, -99521.77, -56938.34, -78199.27, 0.030, 0.968, -0.108, 14:59:29.868
243, -90755.84, 58026.91, 67349.13, 37443.86, 128492.64, 69748.57, 120363.89, 145903.06, -42258.56, -80969.80, -65143.48, -29567.13, -62354.77, -99521.77, -56938.34, -78199.27, 0.000, 0.000, 0.000, 14:59:29.868
244, -90755.84, 58026.91, 67349.13, 37443.86, 128492.64, 69748.57, 120363.89, 145903.06, -42190.88, -81014.95, -64859.62, -29226.27, -62053.22, -99562.51, -56792.27, -78152.72, 0.000, 0.000, 0.000, 14:59:29.868
245, -89959.24, 57988.45, 67299.05, 38131.45, 128444.61, 69747.55, 120372.08, 146035.41, -42190.88, -81014.95, -64859.62, -29226.27, -62053.22, -99562.51, -56792.27, -78152.72, 0.000, 0.000, 0.000, 14:59:29.868
246, -89959.24, 57988.45, 67299.05, 38131.45, 128444.61, 69747.55, 120372.08, 146035.41, -42181.63, -81004.06, -64549.49, -29173.67, -62113.93, -99564.01, -56742.89, -77970.55, 0.000, 0.000, 0.000, 14:59:29.868
247, -90326.30, 58032.86, 67356.64, 37729.68, 128521.66, 69739.27, 120377.59, 145912.09, -42181.63, -81004.06, -64549.49, -29173.67, -62113.93, -99564.01, -56742.89, -77970.55, 0.000, 0.000, 0.000, 14:59:29.869
248, -90326.30, 58032.86, 67356.64, 37729.68, 128521.66, 69739.27, 120377.59, 145912.09, -42153.58, -80970.24, -65294.92, -29565.77, -62281.19, -99525.54, -56932.24, -78299.30, 0.000, 0.000, 0.000, 14:59:29.869
249, -90458.98, 57996.81, 67302.89, 37724.31, 128449.01, 69763.23, 120389.95, 146016.75, -42153.58, -80970.24, -65294.92, -29565.77, -62281.19, -99525.54, -56932.24, -78299.30, 0.000, 0.000, 0.000, 14:59:29.869
250, -90458.98, 57996.81, 67302.89, 37724.31, 128449.01, 69763.23, 120389.95, 146016.75, -42100.25, -81023.84, -64431.58, -28977.94, -61946.83, -99567.61, -56684.80, -77973.77, 0.000, 0.000, 0.000, 14:59:29.869
251, -89763.02, 58008.63, 67321.87, 38220.32, 128476.21, 69727.49, 120355.38, 146008.92, -42100.25, -81023.84, -64431.58, -28977.94, -61946.83, -99567.61, -56684.80, -77973.77, 0.000, 0.000, 0.000, 14:59:29.869
252, -89763.02, 58008.63, 67321.87, 38220.32, 128476.21, 69727.49, 120355.38, 146008.92, -42157.11, -80962.87, -65135.71, -29549.52, -62343.26, -99509.23, -56945.00, -78222.25, 0.030, 0.968, -0.104, 14:59:29.870
253, -90685.56, 58031.27, 67352.27, 37462.50, 128508.47, 69761.13, 120371.85, 145938.02, -42157.11, -80962.87, -65135.71, -29549.52, -62343.26, -99509.23, -56945.00, -78222.25, 0.000, 0.000, 0.000, 14:59:29.870
254, -90685.56, 58031.27, 67352.27, 37462.50, 128508.47, 69761.13, 120371.85, 145938.02, -42066.20, -81033.43, -64843.05, -29197.01, -62049.51, -99562.16, -56803.94, -78161.81, 0.000, 0.000, 0.000, 14:59:29.870
255, -89859.04, 57969.71, 67280.38, 38171.37, 128437.12, 69720.79, 120340.16, 146062.92, -42066.20, -81033.43, -64843.05, -29197.01, -62049.51, -99562.16, -56803.94, -78161.81, 0.000, 0.000, 0.000, 14:59:29.870
0, -89859.04, 57969.71, 67280.38, 38171.37, 128437.12, 69720.79, 120340.16, 146062.92, -42128.01, -81048.74, -64538.58, -29162.16, -62160.69, -99582.74, -56780.98, -77973.97, 0.000, 0.000, 0.000, 14:59:29.870
1, -90225.09, 58011.94, 67337.20, 37766.29, 128504.65, 69706.51, 120320.77, 145920.39, -42128.01, -81048.74, -64538.58, -29162.16, -62160.69, -99582.74, -56780.98, -77973.97, 0.000, 0.000, 0.000, 14:59:29.871
2, -90225.09, 58011.94, 67337.20, 37766.29, 128504.65, 69706.51, 120320.77, 145920.39, -42222.62, -80997.71, -65300.42, -29571.24, -62306.09, -99525.68, -56979.94, -78330.97, 0.000, 0.000, 0.000, 14:59:29.871
3, -90382.94, 58001.66, 67325.27, 37740.54, 128495.19, 69747.97, 120362.62, 146040.84, -42222.62, -80997.71, -65300.42, -29571.24, -62306.09, -99525.68, -56979.94, -78330.97, 0.000, 0.000, 0.000, 14:59:29.871
4, -90382.94, 58001.66, 67325.27, 37740.54, 128495.19, 69747.97, 120362.62, 146040.84, -42202.48, -81062.82, -64417.99, -28972.64, -61970.52, -99572.39, -56705.05, -78002.04, 0.000, 0.000, 0.000, 14:59:29.871
5, -89680.36, 57991.75, 67318.16, 38238.74, 128490.25, 69678.72, 120321.36, 146033.48, -42202.48, -81062.82, -64417.99, -28972.64, -61970.52, -99572.39, -56705.05, -78002.04, 0.000, 0.000, 0.000, 14:59:29.872
6, -89680.36, 57991.75, 67318.16, 38238.74, 128490.25, 69678.72, 120321.36, 146033.48, -42132.30, -81019.80, -65121.92, -29559.06, -62392.59, -99524.52, -56958.43, -78237.48, 0.026, 0.966, -0.102, 14:59:29.872
7, -90580.89, 58015.80, 67366.21, 37505.71, 128534.98, 69704.72, 120354.30, 145969.83, -42132.30, -81019.80, -65121.92, -29559.06, -62392.59, -99524.52, -56958.43, -78237.48, 0.000, 0.000, 0.000, 14:59:29.872
8, -90580.89, 58015.80, 67366.21, 37505.71, 128534.98, 69704.72, 120354.30, 145969.83, -41997.47, -81083.23, -64832.24, -29204.95, -62087.89, -99586.63, -56804.12, -78181.51, 0.000, 0.000, 0.000, 14:59:29.873
9, -89784.98, 57966.63, 67307.63, 38188.74, 128483.74, 69664.59, 120340.09, 146074.17, -41997.47, -81083.23, -64832.24, -29204.95, -62087.89, -99586.63, -56804.12, -78181.51, 0.000, 0.000, 0.000, 14:59:29.873
10, -89784.98, 57966.63, 67307.63, 38188.74, 128483.74, 69664.59, 120340.09, 146074.17, -41907.33, -81054.35, -64526.06, -29134.87, -62168.65, -99585.45, -56754.96, -78013.55, 0.000, 0.000, 0.000, 14:59:29.873
11, -90154.41, 58005.41, 67366.84, 37784.57, 128565.95, 69665.69, 120339.95, 145933.70, -41907.33, -81054.35, -64526.06, -29134.87, -62168.65, -99585.45, -56754.96, -78013.55, 0.000, 0.000, 0.000, 14:59:29.873
12, -90154.41, 58005.41, 67366.84, 37784.57, 128565.95, 69665.69, 120339.95, 145933.70, -41697.29, -81024.31, -65292.98, -29525.38, -62318.07, -99530.57, -56941.40, -78364.77, 0.000, 0.000, 0.000, 14:59:29.874
13, -90304.17, 57979.62, 67337.00, 37770.51, 128534.59, 69701.45, 120377.84, 146040.50, -41697.29, -81024.31, -65292.98, -29525.38, -62318.07, -99530.57, -56941.40, -78364.77, 0.000, 0.000, 0.000, 14:59:29.874
14, -90304.17, 57979.62, 67337.00, 37770.51, 128534.59, 69701.45, 120377.84, 146040.50, -41506.61, -81096.35, -64414.51, -28931.11, -61973.36, -99603.88, -56669.23, -78028.02, 0.000, 0.000, 0.000, 14:59:29.874
15, -89595.83, 57975.84, 67331.12, 38271.77, 128528.67, 69666.12, 120343.89, 146027.52, -41506.61, -81096.35, -64414.51, -28931.11, -61973.36, -99603.88, -56669.23, -78028.02, 0.000, 0.000, 0.000, 14:59:29.874
16, -89595.83, 57975.84, 67331.12, 38271.77, 128528.67, 69666.12, 120343.89, 146027.52, -41397.17, -81034.05, -65113.11, -29510.11, -62394.09, -99528.45, -56935.57, -78259.67, 0.022, 0.966, -0.102, 14:59:29.875
17, -90508.87, 58005.59, 67372.47, 37521.49, 128553.44, 69699.55, 120371.25, 145952.19, -41397.17, -81034.05, -65113.11, -29510.11, -62394.09, -99528.45, -56935.57, -78259.67, 0.000, 0.000, 0.000, 14:59:29.875
18, -90508.87, 58005.59, 67372.47, 37521.49, 128553.44, 69699.55, 120371.25, 145952.19, -41156.40, -81076.95, -64829.40, -29154.07, -62075.11, -99559.38, -56797.59, -78213.36, 0.000, 0.000, 0.000, 14:59:29.875
19, -89699.94, 57960.17, 67320.34, 38216.21, 128488.84, 69674.01, 120361.28, 146088.63, -41156.40, -81076.95, -64829.40, -29154.07, -62075.11, -99559.38, -56797.59, -78213.36, 0.000, 0.000, 0.000, 14:59:29.875
20, -89699.94, 57960.17, 67320.34, 38216.21, 128488.84, 69674.01, 120361.28, 146088.63, -40998.73, -81069.44, -64504.05, -29094.77, -62158.93, -99566.27, -56750.03, -78012.03, 0.000, 0.000, 0.000, 14:59:29.875
21, -90060.85, 58002.89, 67375.87, 37824.09, 128553.15, 69656.95, 120343.24, 145947.05, -40998.73, -81069.44, -64504.05, -29094.77, -62158.93, -99566.27, -56750.03, -78012.03, 0.000, 0.000, 0.000, 14:59:29.876
22, -90060.85, 58002.89, 67375.87, 37824.09, 128553.15, 69656.95, 120343.24, 145947.05, -40813.50, -81048.16, -65256.47, -29501.35, -62321.63, -99541.12, -56944.66, -78343.33, 0.000, 0.000, 0.000, 14:59:29.876
23, -90171.23, 57963.10, 67330.78, 37844.36, 128501.80, 69686.19, 120363.23, 146058.97, -40813.50, -81048.16, -65256.47, -29501.35, -62321.63, -99541.12, -56944.66, -78343.33, 0.000, 0.000, 0.000, 14:59:29.876
24, -90171.23, 57963.10, 67330.78, 37844.36, 128501.80, 69686.19, 120363.23, 146058.97, -40614.66, -81110.50, -64380.62, -28919.36, -61990.57, -99617.01, -56683.20, -78003.52, 0.000, 0.000, 0.000, 14:59:29.876
25, -89492.09, 57961.22, 67337.34, 38318.38, 128524.38, 69644.57, 120345.38, 146033.23, -40614.66, -81110.50, -64380.62, -28919.36, -61990.57, -99617.01, -56683.20, -78003.52, 0.000, 0.000, 0.000, 14:59:29.877
26, -89492.09, 57961.22, 67337.34, 38318.38, 128524.38, 69644.57, 120345.38, 146033.23, -40483.14, -81005.71, -65098.20, -29496.32, -62388.77, -99534.62, -56938.21, -78269.37, 0.024, 0.962, -0.100, 14:59:29.877
27, -90399.15, 57957.80, 67357.47, 37580.55, 128545.62, 69672.17, 120362.77, 145971.92, -40483.14, -81005.71, -65098.20, -29496.32, -62388.77, -99534.62, -56938.21, -78269.37, 0.000, 0.000, 0.000, 14:59:29.877
28, -90399.15, 57957.80, 67357.47, 37580.55, 128545.62, 69672.17, 120362.77, 145971.92, -40262.35, -81071.32, -64804.07, -29147.08, -62096.99, -99576.05, -56794.28, -78206.56, 0.000, 0.000, 0.000, 14:59:29.877
29, -89591.96, 57940.79, 67301.77, 38269.74, 128483.45, 69645.51, 120349.84, 146067.86, -40262.35, -81071.32, -64804.07, -29147.08, -62096.99, -99576.05, -56794.28, -78206.56, 0.000, 0.000, 0.000, 14:59:29.877
30, -89591.96, 57940.79, 67301.77, 38269.74, 128483.45, 69645.51, 120349.84, 146067.86, -40125.29, -81058.95, -64492.74, -29102.55, -62165.21, -99574.63, -56763.01, -78033.98, 0.000, 0.000, 0.000, 14:59:29.877
31, -89968.90, 58006.11, 67374.46, 37859.88, 128548.95, 69655.25, 120351.66, 145929.30, -40125.29, -81058.95, -64492.74, -29102.55, -62165.21, -99574.63, -56763.01, -78033.98, 0.000, 0.000, 0.000, 14:59:29.877
32, -89968.90, 58006.11, 67374.46, 37859.88, 128548.95, 69655.25, 120351.66, 145929.30, -39970.44, -81010.52, -65218.61, -29469.72, -62301.86, -99507.44, -56938.32, -78346.46, 0.000, 0.000, 0.000, 14:59:29.878
33, -90083.59, 57978.34, 67333.89, 37876.13, 128487.68, 69692.87, 120369.21, 146034.94, -39970.44, -81010.52, -65218.61, -29469.72, -62301.86, -99507.44, -56938.32, -78346.46, 0.000, 0.000, 0.000, 14:59:29.878
34, -90083.59, 57978.34, 67333.89, 37876.13, 128487.68, 69692.87, 120369.21, 146034.94, -39793.88, -81059.91, -64352.35, -28877.22, -61978.41, -99548.16, -56693.03, -78013.53, 0.000, 0.000, 0.000, 14:59:29.878
35, -89394.15, 57993.52, 67340.15, 38359.91, 128497.85, 69663.92, 120339.30, 146016.70, -39793.88, -81059.91, -64352.35, -28877.22, -61978.41, -99548.16, -56693.03, -78013.53, 0.034, 0.964, -0.100, 14:59:29.878
36, -89394.15, 57993.52, 67340.15, 38359.91, 128497.85, 69663.92, 120339.30, 146016.70, -39725.13, -80974.87, -65051.11, -29434.92, -62360.43, -99468.88, -56938.88, -78246.57, 0.000, 0.000, 0.000, 14:59:29.879
37, -90306.01, 58019.25, 67377.27, 37616.11, 128537.77, 69702.91, 120367.70, 145957.06, -39725.13, -80974.87, -65051.11, -29434.92, -62360.43, -99468.88, -56938.88, -78246.57, 0.000, 0.000, 0.000, 14:59:29.879
38, -90306.01, 58019.25, 67377.27, 37616.11, 128537.77, 69702.91, 120367.70, 145957.06, -39565.71, -81031.24, -64768.04, -29093.59, -62064.62, -99540.90, -56799.85, -78192.95, 0.000, 0.000, 0.000, 14:59:29.879
39, -89501.97, 57968.24, 67320.91, 38304.63, 128481.98, 69674.50, 120356.83, 146061.89, -39565.71, -81031.24, -64768.04, -29093.59, -62064.62, -99540.90, -56799.85, -78192.95, 0.000, 0.000, 0.000, 14:59:29.879
40, -89501.97, 57968.24, 67320.91, 38304.63, 128481.98, 69674.50, 120356.83, 146061.89, -39482.21, -81020.65, -64452.32, -29042.49, -62142.00, -99536.78, -56754.54, -78010.96, 0.000, 0.000, 0.000, 14:59:29.879
41, -89880.16, 58023.63, 67391.78, 37890.39, 128569.13, 69667.91, 120361.32, 145917.66, -39482.21, -81020.65, -64452.32, -29042.49, -62142.00, -99536.78, -56754.54, -78010.96, 0.000, 0.000, 0.000, 14:59:29.879
42, -89880.16, 58023.63, 67391.78, 37890.39, 128569.13, 69667.91, 120361.32, 145917.66, -39349.21, -80963.52, -65200.89, -29439.97, -62273.86, -99473.10, -56934.77, -78358.30, 0.000, 0.000, 0.000, 14:59:29.880
43, -90013.29, 58027.65, 67392.18, 37890.45, 128555.14, 69732.95, 120428.16, 146060.73, -39349.21, -80963.52, -65200.89, -29439.97, -62273.86, -99473.10, -56934.77, -78358.30, 0.000, 0.000, 0.000, 14:59:29.880
44, -90013.29, 58027.65, 67392.18, 37890.45, 128555.14, 69732.95, 120428.16, 146060.73, -39191.66, -81013.96, -64292.31, -28821.90, -61925.39, -99502.74, -56642.65, -77997.62, 0.000, 0.000, 0.000, 14:59:29.880
45, -89322.24, 57986.44, 67360.42, 38371.89, 128530.91, 69660.55, 120366.04, 146020.95, -39191.66, -81013.96, -64292.31, -28821.90, -61925.39, -99502.74, -56642.65, -77997.62, 0.042, 0.962, -0.098, 14:59:29.880
46, -89322.24, 57986.44, 67360.42, 38371.89, 128530.91, 69660.55, 120366.04, 146020.95, -39203.82, -80985.87, -65034.59, -29444.64, -62349.25, -99486.31, -56930.02, -78256.00, 0.000, 0.000, 0.000, 14:59:29.880
47, -90244.90, 58002.11, 67393.30, 37613.89, 128561.58, 69692.29, 120389.71, 145946.11, -39203.82, -80985.87, -65034.59, -29444.64, -62349.25, -99486.31, -56930.02, -78256.00, 0.000, 0.000, 0.000, 14:59:29.880
48, -90244.90, 58002.11, 67393.30, 37613.89, 128561.58, 69692.29, 120389.71, 145946.11, -39041.50, -81032.80, -64750.16, -29097.95, -62039.50, -99535.16, -56780.49, -78199.74, 0.000, 0.000, 0.000, 14:59:29.881
49, -89436.88, 57950.27, 67326.60, 38303.71, 128494.32, 69668.89, 120374.87, 146059.77, -39041.50, -81032.80, -64750.16, -29097.95, -62039.50, -99535.16, -56780.49, -78199.74, 0.000, 0.000, 0.000, 14:59:29.881
50, -89436.88, 57950.27, 67326.60, 38303.71, 128494.32, 69668.89, 120374.87, 146059.77, -38995.14, -81038.46, -64441.42, -29048.13, -62130.36, -99547.91, -56745.76, -78009.98, 0.000, 0.000, 0.000, 14:59:29.881
51, -89799.90, 58002.15, 67385.23, 37899.93, 128565.73, 69649.55, 120366.33, 145922.69, -38995.14, -81038.46, -64441.42, -29048.13, -62130.36, -99547.91, -56745.76, -78009.98, 0.000, 0.000, 0.000, 14:59:29.881
52, -89799.90, 58002.15, 67385.23, 37899.93, 128565.73, 69649.55, 120366.33, 145922.69, -38895.05, -81001.42, -65191.77, -29450.12, -62278.42, -99509.34, -56931.43, -78342.75, 0.000, 0.000, 0.000, 14:59:29.881
53, -89928.24, 57964.42, 67345.70, 37897.63, 128517.30, 69681.65, 120392.88, 146032.88, -38895.05, -81001.42, -65191.77, -29450.12, -62278.42, -99509.34, -56931.43, -78342.75, 0.000, 0.000, 0.000, 14:59:29.881
54, -89928.24, 57964.42, 67345.70, 37897.63, 128517.30, 69681.65, 120392.88, 146032.88, -38737.47, -81049.28, -64314.01, -28862.87, -61953.25, -99560.48, -56674.01, -78001.28, 0.000, 0.000, 0.000, 14:59:29.882
55, -89230.71, 57977.96, 67352.38, 38385.43, 128524.49, 69644.32, 120361.28, 146014.39, -38737.47, -81049.28, -64314.01, -28862.87, -61953.25, -99560.48, -56674.01, -78001.28, 0.032, 0.964, -0.104, 14:59:29.882
56, -89230.71, 57977.96, 67352.38, 38385.43, 128524.49, 69644.32, 120361.28, 146014.39, -38722.45, -80956.85, -65031.41, -29446.63, -62360.43, -99482.25, -56941.56, -78259.38, 0.000, 0.000, 0.000, 14:59:29.882
