%OpenBCI Raw EEG Data
%
%Sample Rate = 250.0 Hz
%First Column = SampleIndex
%Last Column = Timestamp 
%Other Columns = EEG data in microvolts followed by Accel Data (in G) interleaved with Aux Data
0, 0.00, 0.00, 0.00, 0.00, 0.00, 0.00, 0.00, 0.00, -13604.01, -42199.85, -40211.08, -736.45, -36923.20, -37880.77, -29952.16, -46010.95, 0.052, 0.958, -0.130, 16:50:11.067
1, -14.39, -10.97, -13.52, -9.97, -9.43, -12.58, -11.91, -10.35, -13604.01, -42199.85, -40211.08, -736.45, -36923.20, -37880.77, -29952.16, -46010.95, 0.000, 0.000, 0.000, 16:50:11.069
2, -14.39, -10.97, -13.52, -9.97, -9.43, -12.58, -11.91, -10.35, -21.26, -19.67, -22.58, -23.27, -31.18, -23.58, -24.34, -19.78, 0.000, 0.000, 0.000, 16:50:11.094
3, -28.99, -21.77, -27.11, -20.05, -19.16, -25.17, -23.76, -20.47, -21.26, -19.67, -22.58, -23.27, -31.18, -23.58, -24.34, -19.78, 0.000, 0.000, 0.000, 16:50:11.094
4, -28.99, -21.77, -27.11, -20.05, -19.16, -25.17, -23.76, -20.47, -21.32, -19.60, -22.73, -23.40, -30.91, -23.85, -24.52, -19.76, 0.000, 0.000, 0.000, 16:50:11.094
5, -28.95, -21.75, -26.91, -20.05, -19.16, -25.30, -23.85, -20.43, -21.32, -19.60, -22.73, -23.40, -30.91, -23.85, -24.52, -19.76, 0.000, 0.000, 0.000, 16:50:11.151
6, -28.95, -21.75, -26.91, -20.05, -19.16, -25.30, -23.85, -20.43, -21.41, -19.89, -22.80, -23.38, -30.82, -23.76, -24.45, -19.87, 0.000, 0.000, 0.000, 16:50:11.154
7, -28.83, -21.90, -26.87, -20.21, -18.89, -25.30, -23.74, -20.38, -21.41, -19.89, -22.80, -23.38, -30.82, -23.76, -24.45, -19.87, 0.000, 0.000, 0.000, 16:50:11.154
8, -28.83, -21.90, -26.87, -20.21, -18.89, -25.30, -23.74, -20.38, -21.44, -19.76, -22.73, -23.29, -30.87, -23.63, -24.52, -19.94, 0.060, 0.956, -0.136, 16:50:11.167
9, -28.97, -21.59, -27.02, -19.89, -19.09, -25.30, -23.92, -20.43, -21.44, -19.76, -22.73, -23.29, -30.87, -23.63, -24.52, -19.94, 0.000, 0.000, 0.000, 16:50:11.168
10, -28.97, -21.59, -27.02, -19.89, -19.09, -25.30, -23.92, -20.43, -21.39, -19.71, -22.84, -23.25, -30.93, -23.60, -24.54, -19.78, 0.000, 0.000, 0.000, 16:50:11.185
11, -28.81, -22.02, -27.05, -19.89, -18.91, -25.17, -23.78, -20.70, -21.39, -19.71, -22.84, -23.25, -30.93, -23.60, -24.54, -19.78, 0.000, 0.000, 0.000, 16:50:11.201
12, -28.81, -22.02, -27.05, -19.89, -18.91, -25.17, -23.78, -20.70, -21.17, -19.67, -22.55, -23.58, -31.00, -23.47, -24.59, -19.89, 0.000, 0.000, 0.000, 16:50:11.225
13, -29.06, -21.77, -27.05, -19.89, -18.98, -25.39, -23.58, -20.54, -21.17, -19.67, -22.55, -23.58, -31.00, -23.47, -24.59, -19.89, 0.000, 0.000, 0.000, 16:50:11.227
14, -29.06, -21.77, -27.05, -19.89, -18.98, -25.39, -23.58, -20.54, -21.23, -19.87, -22.64, -23.49, -30.73, -23.49, -24.63, -19.89, 0.000, 0.000, 0.000, 16:50:11.242
15, -28.88, -21.70, -26.98, -19.94, -19.02, -25.26, -23.85, -20.52, -21.23, -19.87, -22.64, -23.49, -30.73, -23.49, -24.63, -19.89, 0.000, 0.000, 0.000, 16:50:11.275
16, -28.88, -21.70, -26.98, -19.94, -19.02, -25.26, -23.85, -20.52, -21.23, -19.69, -22.66, -23.25, -30.76, -23.65, -24.41, -19.94, 0.000, 0.000, 0.000, 16:50:11.276
17, -29.12, -21.64, -27.09, -20.00, -19.00, -25.21, -23.69, -20.38, -21.23, -19.69, -22.66, -23.25, -30.76, -23.65, -24.41, -19.94, 0.062, 0.958, -0.130, 16:50:11.277
18, -29.12, -21.64, -27.09, -20.00, -19.00, -25.21, -23.69, -20.38, -21.50, -19.78, -22.46, -23.29, -30.80, -23.65, -24.61, -19.83, 0.000, 0.000, 0.000, 16:50:11.277
19, -29.01, -21.66, -26.87, -20.18, -19.27, -24.97, -23.72, -20.50, -21.50, -19.78, -22.46, -23.29, -30.80, -23.65, -24.61, -19.83, 0.000, 0.000, 0.000, 16:50:11.277
20, -29.01, -21.66, -26.87, -20.18, -19.27, -24.97, -23.72, -20.50, -21.41, -19.76, -22.87, -23.22, -30.87, -24.03, -24.61, -19.83, 0.000, 0.000, 0.000, 16:50:11.318
21, -28.77, -21.88, -26.84, -20.03, -18.98, -25.21, -23.47, -20.43, -21.41, -19.76, -22.87, -23.22, -30.87, -24.03, -24.61, -19.83, 0.000, 0.000, 0.000, 16:50:11.319
22, -28.77, -21.88, -26.84, -20.03, -18.98, -25.21, -23.47, -20.43, -21.23, -19.67, -22.80, -23.27, -30.91, -23.74, -24.56, -19.92, 0.000, 0.000, 0.000, 16:50:11.319
23, -29.10, -21.77, -26.98, -19.71, -18.95, -25.35, -23.74, -20.61, -21.23, -19.67, -22.80, -23.27, -30.91, -23.74, -24.56, -19.92, 0.000, 0.000, 0.000, 16:50:11.334
24, -29.10, -21.77, -26.98, -19.71, -18.95, -25.35, -23.74, -20.61, -21.10, -19.78, -22.80, -23.38, -30.93, -23.67, -24.43, -19.98, 0.000, 0.000, 0.000, 16:50:11.350
25, -28.97, -21.95, -27.07, -20.05, -18.91, -25.35, -23.96, -20.47, -21.10, -19.78, -22.80, -23.38, -30.93, -23.67, -24.43, -19.98, 0.000, 0.000, 0.000, 16:50:11.372
26, -28.97, -21.95, -27.07, -20.05, -18.91, -25.35, -23.96, -20.47, -21.32, -19.71, -22.82, -23.38, -30.87, -23.56, -24.45, -19.78, 0.000, 0.000, 0.000, 16:50:11.372
27, -28.86, -21.95, -27.05, -20.05, -19.13, -25.44, -23.58, -20.47, -21.32, -19.71, -22.82, -23.38, -30.87, -23.56, -24.45, -19.78, 0.066, 0.958, -0.132, 16:50:11.373
28, -28.86, -21.95, -27.05, -20.05, -19.13, -25.44, -23.58, -20.47, -21.48, -19.76, -22.71, -23.20, -31.05, -23.56, -24.39, -19.76, 0.000, 0.000, 0.000, 16:50:11.391
29, -28.79, -21.70, -27.05, -20.03, -18.91, -25.39, -23.56, -20.30, -21.48, -19.76, -22.71, -23.20, -31.05, -23.56, -24.39, -19.76, 0.000, 0.000, 0.000, 16:50:11.404
30, -28.79, -21.70, -27.05, -20.03, -18.91, -25.39, -23.56, -20.30, -21.41, -19.62, -22.60, -23.29, -30.80, -23.51, -24.48, -19.89, 0.000, 0.000, 0.000, 16:50:11.405
31, -28.90, -21.84, -26.93, -20.03, -19.04, -25.50, -23.74, -20.38, -21.41, -19.62, -22.60, -23.29, -30.80, -23.51, -24.48, -19.89, 0.000, 0.000, 0.000, 16:50:11.449
32, -28.90, -21.84, -26.93, -20.03, -19.04, -25.50, -23.74, -20.38, -21.46, -19.83, -22.89, -23.20, -30.76, -23.51, -24.61, -20.00, 0.000, 0.000, 0.000, 16:50:11.450
33, -28.77, -21.64, -26.89, -19.92, -18.98, -25.37, -23.69, -20.56, -21.46, -19.83, -22.89, -23.20, -30.76, -23.51, -24.61, -20.00, 0.000, 0.000, 0.000, 16:50:11.451
34, -28.77, -21.64, -26.89, -19.92, -18.98, -25.37, -23.69, -20.56, -21.44, -19.65, -22.73, -23.18, -30.85, -23.74, -24.65, -20.00, 0.000, 0.000, 0.000, 16:50:11.478
41, -28.97, -21.79, -27.18, -20.16, -19.09, -25.46, -23.96, -20.47, -21.44, -19.65, -22.73, -23.18, -30.85, -23.74, -24.65, -20.00, 0.000, 0.000, 0.000, 16:50:11.481
38, -28.97, -21.79, -27.18, -20.16, -19.09, -25.46, -23.96, -20.47, -21.30, -19.85, -22.82, -23.27, -30.85, -23.58, -24.77, -19.80, 0.000, 0.000, 0.000, 16:50:11.493
51, -28.83, -21.79, -26.91, -20.18, -19.11, -25.26, -23.65, -20.36, -21.30, -19.85, -22.82, -23.27, -30.85, -23.58, -24.77, -19.80, 0.000, 0.000, 0.000, 16:50:11.509
46, -28.83, -21.79, -26.91, -20.18, -19.11, -25.26, -23.65, -20.36, -21.41, -19.71, -22.60, -23.34, -30.69, -23.67, -24.52, -19.94, 0.000, 0.000, 0.000, 16:50:11.527
54, -28.83, -21.79, -26.91, -20.18, -19.11, -25.26, -23.65, -20.36, -21.41, -19.94, -22.89, -23.42, -30.85, -23.76, -24.45, -19.76, 0.000, 0.000, 0.000, 16:50:11.574
44, -28.83, -21.79, -26.91, -20.18, -19.11, -25.26, -23.65, -20.36, -21.37, -19.51, -22.80, -23.42, -31.07, -23.58, -24.45, -20.03, 0.000, 0.000, 0.000, 16:50:11.589
77, -29.01, -21.86, -26.84, -19.83, -18.98, -25.28, -23.65, -20.45, -21.37, -19.51, -22.80, -23.42, -31.07, -23.58, -24.45, -20.03, 0.000, 0.000, 0.000, 16:50:11.619
67, -29.03, -21.88, -27.07, -20.18, -19.00, -25.50, -23.54, -20.61, -21.37, -19.51, -22.80, -23.42, -31.07, -23.58, -24.45, -20.03, 0.000, 0.000, 0.000, 16:50:11.619
60, -29.03, -21.88, -27.07, -20.18, -19.00, -25.50, -23.54, -20.61, -21.17, -19.67, -22.69, -23.25, -30.98, -23.56, -24.52, -19.74, 0.000, 0.000, 0.000, 16:50:11.653
74, -29.03, -21.88, -27.07, -20.18, -19.00, -25.50, -23.54, -20.61, -21.32, -19.85, -22.69, -23.34, -30.69, -23.65, -24.56, -19.85, 0.000, 0.000, 0.000, 16:50:11.674
57, -28.95, -21.75, -27.00, -19.92, -19.00, -25.17, -23.69, -20.43, -21.32, -19.85, -22.69, -23.34, -30.69, -23.65, -24.56, -19.85, 0.074, 0.954, -0.124, 16:50:11.675
58, -28.95, -21.75, -27.00, -19.92, -19.00, -25.17, -23.69, -20.43, -21.39, -19.67, -22.51, -23.40, -30.96, -23.69, -24.72, -19.80, 0.000, 0.000, 0.000, 16:50:11.676
72, -28.95, -21.75, -27.00, -19.92, -19.00, -25.17, -23.69, -20.43, -21.39, -19.69, -22.71, -23.34, -30.62, -23.65, -24.59, -19.89, 0.000, 0.000, 0.000, 16:50:11.693
68, -28.95, -21.75, -27.00, -19.92, -19.00, -25.17, -23.69, -20.43, -21.44, -19.54, -22.82, -23.22, -30.91, -23.40, -24.48, -20.07, 0.000, 0.000, 0.000, 16:50:11.736
69, -29.10, -21.86, -27.14, -20.05, -19.04, -25.30, -23.72, -20.68, -21.44, -19.54, -22.82, -23.22, -30.91, -23.40, -24.48, -20.07, 0.000, 0.000, 0.000, 16:50:11.736
80, -29.10, -21.86, -27.14, -20.05, -19.04, -25.30, -23.72, -20.68, -21.26, -19.94, -22.80, -23.29, -30.76, -23.60, -24.52, -19.80, 0.000, 0.000, 0.000, 16:50:11.737
135, -28.83, -21.95, -26.91, -20.00, -19.04, -25.19, -23.40, -20.59, -21.26, -19.94, -22.80, -23.29, -30.76, -23.60, -24.52, -19.80, 0.076, 0.956, -0.136, 16:50:11.799
96, -28.83, -21.95, -26.91, -20.00, -19.04, -25.19, -23.40, -20.59, -21.32, -19.71, -22.71, -23.27, -30.82, -23.78, -24.50, -19.87, 0.064, 0.960, -0.126, 16:50:11.800
133, -28.86, -21.73, -27.22, -19.98, -19.07, -25.24, -23.72, -20.30, -21.32, -19.71, -22.71, -23.27, -30.82, -23.78, -24.50, -19.87, 0.000, 0.000, 0.000, 16:50:11.801
83, -28.70, -21.95, -27.07, -19.94, -18.84, -25.44, -23.85, -20.56, -21.32, -19.71, -22.71, -23.27, -30.82, -23.78, -24.50, -19.87, 0.000, 0.000, 0.000, 16:50:11.801
105, -28.95, -21.79, -26.96, -19.85, -18.95, -25.41, -23.80, -20.36, -21.32, -19.71, -22.71, -23.27, -30.82, -23.78, -24.50, -19.87, 0.000, 0.000, 0.000, 16:50:11.802
131, -28.79, -21.86, -27.14, -20.07, -18.89, -25.28, -23.60, -20.41, -21.32, -19.71, -22.71, -23.27, -30.82, -23.78, -24.50, -19.87, 0.000, 0.000, 0.000, 16:50:11.802
103, -28.90, -22.02, -26.91, -19.94, -18.89, -25.28, -23.87, -20.30, -21.32, -19.71, -22.71, -23.27, -30.82, -23.78, -24.50, -19.87, 0.000, 0.000, 0.000, 16:50:11.816
111, -28.81, -21.97, -26.87, -19.92, -19.24, -25.44, -23.92, -20.30, -21.32, -19.71, -22.71, -23.27, -30.82, -23.78, -24.50, -19.87, 0.000, 0.000, 0.000, 16:50:11.863
129, -28.81, -21.95, -27.05, -20.14, -18.95, -25.21, -23.54, -20.45, -21.32, -19.71, -22.71, -23.27, -30.82, -23.78, -24.50, -19.87, 0.000, 0.000, 0.000, 16:50:11.907
195, -28.88, -21.75, -26.98, -20.00, -18.95, -25.35, -23.78, -20.61, -21.32, -19.71, -22.71, -23.27, -30.82, -23.78, -24.50, -19.87, 0.000, 0.000, 0.000, 16:50:11.907
196, -28.88, -21.75, -26.98, -20.00, -18.95, -25.35, -23.78, -20.61, -21.37, -19.85, -22.75, -23.38, -30.80, -23.67, -24.48, -19.92, 0.000, 0.000, 0.000, 16:50:11.908
197, -28.92, -21.61, -27.00, -20.00, -18.69, -25.28, -23.72, -20.47, -21.37, -19.85, -22.75, -23.38, -30.80, -23.67, -24.48, -19.92, 0.000, 0.000, 0.000, 16:50:11.921
198, -28.92, -21.61, -27.00, -20.00, -18.69, -25.28, -23.72, -20.47, -21.28, -19.96, -22.66, -23.31, -30.96, -23.67, -24.65, -20.00, 0.000, 0.000, 0.000, 16:50:11.977
199, -29.08, -21.77, -27.11, -19.87, -19.00, -25.24, -23.74, -20.41, -21.28, -19.96, -22.66, -23.31, -30.96, -23.67, -24.65, -20.00, 0.000, 0.000, 0.000, 16:50:11.977
200, -29.08, -21.77, -27.11, -19.87, -19.00, -25.24, -23.74, -20.41, -21.44, -19.85, -22.93, -23.36, -30.80, -23.69, -24.56, -19.85, 0.000, 0.000, 0.000, 16:50:11.978
201, -28.79, -21.77, -26.98, -19.85, -19.13, -25.39, -23.72, -20.43, -21.44, -19.85, -22.93, -23.36, -30.80, -23.69, -24.56, -19.85, 0.000, 0.000, 0.000, 16:50:11.978
202, -28.79, -21.77, -26.98, -19.85, -19.13, -25.39, -23.72, -20.43, -21.44, -19.74, -22.78, -23.42, -30.82, -23.60, -24.43, -19.83, 0.000, 0.000, 0.000, 16:50:11.979
203, -28.90, -21.41, -27.11, -19.76, -18.82, -25.24, -23.85, -20.41, -21.44, -19.74, -22.78, -23.42, -30.82, -23.60, -24.43, -19.83, 0.000, 0.000, 0.000, 16:50:11.979
204, -28.90, -21.41, -27.11, -19.76, -18.82, -25.24, -23.85, -20.41, -21.26, -19.62, -22.73, -23.22, -30.87, -23.69, -24.54, -19.96, 0.070, 0.958, -0.138, 16:50:11.980
205, -28.97, -21.88, -26.71, -19.85, -18.91, -25.39, -23.65, -20.45, -21.26, -19.62, -22.73, -23.22, -30.87, -23.69, -24.54, -19.96, 0.000, 0.000, 0.000, 16:50:12.023
206, -28.97, -21.88, -26.71, -19.85, -18.91, -25.39, -23.65, -20.45, -21.44, -19.74, -22.84, -23.40, -30.93, -23.83, -24.45, -19.94, 0.000, 0.000, 0.000, 16:50:12.024
207, -28.97, -21.90, -26.84, -19.76, -18.80, -25.57, -23.63, -20.38, -21.44, -19.74, -22.84, -23.40, -30.93, -23.83, -24.45, -19.94, 0.000, 0.000, 0.000, 16:50:12.024
208, -28.97, -21.90, -26.84, -19.76, -18.80, -25.57, -23.63, -20.38, -21.39, -19.67, -22.82, -23.42, -30.91, -23.58, -24.56, -20.05, 0.000, 0.000, 0.000, 16:50:12.024
209, -28.97, -21.79, -26.96, -20.12, -18.89, -25.10, -23.78, -20.27, -21.39, -19.67, -22.82, -23.42, -30.91, -23.58, -24.56, -20.05, 0.000, 0.000, 0.000, 16:50:12.025
210, -28.97, -21.79, -26.96, -20.12, -18.89, -25.10, -23.78, -20.27, -21.17, -19.74, -22.84, -23.54, -30.91, -23.60, -24.45, -19.87, 0.000, 0.000, 0.000, 16:50:12.025
211, -29.15, -22.06, -27.25, -20.12, -18.93, -25.37, -23.74, -20.23, -21.17, -19.74, -22.84, -23.54, -30.91, -23.60, -24.45, -19.87, 0.000, 0.000, 0.000, 16:50:12.026
212, -29.15, -22.06, -27.25, -20.12, -18.93, -25.37, -23.74, -20.23, -21.19, -19.76, -22.78, -23.40, -30.93, -23.65, -24.59, -19.83, 0.000, 0.000, 0.000, 16:50:12.039
213, -28.95, -21.77, -27.16, -19.98, -18.91, -25.48, -23.85, -20.52, -21.19, -19.76, -22.78, -23.40, -30.93, -23.65, -24.59, -19.83, 0.000, 0.000, 0.000, 16:50:12.054
214, -28.95, -21.77, -27.16, -19.98, -18.91, -25.48, -23.85, -20.52, -21.26, -19.80, -22.66, -23.27, -30.93, -23.67, -24.50, -20.05, 0.070, 0.962, -0.136, 16:50:12.055
215, -28.97, -21.77, -26.84, -19.89, -18.75, -25.41, -23.76, -20.45, -21.26, -19.80, -22.66, -23.27, -30.93, -23.67, -24.50, -20.05, 0.000, 0.000, 0.000, 16:50:12.071
216, -28.97, -21.77, -26.84, -19.89, -18.75, -25.41, -23.76, -20.45, -21.28, -19.54, -22.96, -23.31, -31.00, -23.80, -24.61, -20.07, 0.000, 0.000, 0.000, 16:50:12.104
217, -28.77, -21.86, -27.05, -19.92, -18.89, -25.28, -23.72, -20.43, -21.28, -19.54, -22.96, -23.31, -31.00, -23.80, -24.61, -20.07, 0.000, 0.000, 0.000, 16:50:12.105
218, -28.77, -21.86, -27.05, -19.92, -18.89, -25.28, -23.72, -20.43, -21.26, -19.74, -22.64, -23.42, -30.85, -23.56, -24.65, -19.71, 0.000, 0.000, 0.000, 16:50:12.105
219, -28.99, -22.04, -26.87, -19.98, -18.93, -25.26, -23.85, -20.43, -21.26, -19.74, -22.64, -23.42, -30.85, -23.56, -24.65, -19.71, 0.000, 0.000, 0.000, 16:50:12.106
220, -28.99, -22.04, -26.87, -19.98, -18.93, -25.26, -23.85, -20.43, -21.41, -19.80, -22.89, -23.45, -30.71, -23.69, -24.54, -19.87, 0.000, 0.000, 0.000, 16:50:12.140
221, -28.79, -21.84, -26.93, -20.03, -19.04, -25.28, -23.76, -20.30, -21.41, -19.80, -22.89, -23.45, -30.71, -23.69, -24.54, -19.87, 0.000, 0.000, 0.000, 16:50:12.140
222, -28.79, -21.84, -26.93, -20.03, -19.04, -25.28, -23.76, -20.30, -21.44, -19.92, -22.75, -23.47, -31.14, -23.58, -24.59, -19.96, 0.000, 0.000, 0.000, 16:50:12.141
226, -28.79, -21.84, -26.93, -20.03, -19.04, -25.28, -23.76, -20.30, -21.55, -19.74, -22.80, -23.47, -31.11, -23.74, -24.50, -20.00, 0.000, 0.000, 0.000, 16:50:12.141
224, -28.79, -21.84, -26.93, -20.03, -19.04, -25.28, -23.76, -20.30, -21.35, -19.92, -23.07, -23.29, -30.91, -23.85, -24.39, -19.89, 0.000, 0.000, 0.000, 16:50:12.167
235, -28.95, -21.88, -27.07, -19.85, -18.86, -25.44, -23.65, -20.43, -21.35, -19.92, -23.07, -23.29, -30.91, -23.85, -24.39, -19.89, 0.000, 0.000, 0.000, 16:50:12.167
228, -28.95, -21.88, -27.07, -19.85, -18.86, -25.44, -23.65, -20.43, -21.39, -19.69, -22.93, -23.22, -30.91, -23.56, -24.36, -19.87, 0.000, 0.000, 0.000, 16:50:12.168
240, -28.95, -21.88, -27.07, -19.85, -18.86, -25.44, -23.65, -20.43, -21.30, -19.47, -22.80, -23.31, -30.64, -23.72, -24.43, -19.94, 0.000, 0.000, 0.000, 16:50:12.196
230, -28.95, -21.88, -27.07, -19.85, -18.86, -25.44, -23.65, -20.43, -21.35, -19.67, -22.87, -23.38, -30.93, -23.47, -24.68, -19.83, 0.000, 0.000, 0.000, 16:50:12.196
238, -28.95, -21.88, -27.07, -19.85, -18.86, -25.44, -23.65, -20.43, -21.46, -19.60, -22.80, -23.29, -30.78, -23.72, -24.59, -19.89, 0.000, 0.000, 0.000, 16:50:12.243
232, -28.95, -21.88, -27.07, -19.85, -18.86, -25.44, -23.65, -20.43, -21.37, -19.65, -22.78, -23.45, -30.71, -23.25, -24.48, -19.96, 0.000, 0.000, 0.000, 16:50:12.269
233, -28.90, -22.02, -26.89, -19.96, -18.80, -25.10, -23.92, -20.25, -21.37, -19.65, -22.78, -23.45, -30.71, -23.25, -24.48, -19.96, 0.074, 0.958, -0.136, 16:50:12.270
236, -28.90, -22.02, -26.89, -19.96, -18.80, -25.10, -23.92, -20.25, -21.41, -19.51, -22.69, -23.04, -30.73, -23.58, -24.50, -19.71, 0.000, 0.000, 0.000, 16:50:12.309
241, -28.92, -21.90, -26.71, -20.05, -19.07, -25.28, -23.56, -20.34, -21.41, -19.51, -22.69, -23.04, -30.73, -23.58, -24.50, -19.71, 0.000, 0.000, 0.000, 16:50:12.310
252, -28.92, -21.90, -26.71, -20.05, -19.07, -25.28, -23.56, -20.34, -21.46, -19.85, -22.84, -23.36, -30.91, -23.85, -24.45, -19.92, 0.000, 0.000, 0.000, 16:50:12.330
243, -29.01, -21.93, -26.91, -20.09, -19.13, -25.35, -23.78, -20.41, -21.46, -19.85, -22.84, -23.36, -30.91, -23.85, -24.45, -19.92, 0.076, 0.960, -0.138, 16:50:12.437
249, -28.70, -21.79, -26.87, -19.92, -19.22, -25.06, -23.69, -20.63, -21.46, -19.85, -22.84, -23.36, -30.91, -23.85, -24.45, -19.92, 0.000, 0.000, 0.000, 16:50:12.484
5, -28.81, -21.88, -27.07, -20.00, -18.93, -25.46, -24.03, -20.56, -21.46, -19.85, -22.84, -23.36, -30.91, -23.85, -24.45, -19.92, 0.000, 0.000, 0.000, 16:50:12.505
3, -28.77, -21.95, -27.09, -19.92, -19.02, -25.37, -23.76, -20.34, -21.46, -19.85, -22.84, -23.36, -30.91, -23.85, -24.45, -19.92, 0.000, 0.000, 0.000, 16:50:12.517
91, -28.99, -21.75, -27.00, -19.87, -18.91, -25.21, -23.83, -20.45, -21.46, -19.85, -22.84, -23.36, -30.91, -23.85, -24.45, -19.92, 0.000, 0.000, 0.000, 16:50:12.555
1, -28.77, -21.90, -26.89, -19.85, -19.07, -25.48, -23.63, -20.25, -21.46, -19.85, -22.84, -23.36, -30.91, -23.85, -24.45, -19.92, 0.000, 0.000, 0.000, 16:50:12.556
89, -28.99, -21.82, -27.00, -19.87, -19.04, -25.28, -23.80, -20.41, -21.46, -19.85, -22.84, -23.36, -30.91, -23.85, -24.45, -19.92, 0.000, 0.000, 0.000, 16:50:12.559
23, -28.72, -21.84, -26.80, -19.76, -18.86, -25.32, -23.76, -20.47, -21.46, -19.85, -22.84, -23.36, -30.91, -23.85, -24.45, -19.92, 0.000, 0.000, 0.000, 16:50:12.560
6, -28.72, -21.84, -26.80, -19.76, -18.86, -25.32, -23.76, -20.47, -21.37, -19.67, -22.87, -23.25, -30.91, -23.63, -24.52, -19.78, 0.000, 0.000, 0.000, 16:50:12.568
87, -28.88, -21.61, -26.98, -20.05, -19.18, -25.37, -23.72, -20.59, -21.37, -19.67, -22.87, -23.25, -30.91, -23.63, -24.52, -19.78, 0.000, 0.000, 0.000, 16:50:12.584
21, -28.92, -21.73, -27.05, -20.00, -19.18, -25.50, -23.76, -20.47, -21.37, -19.67, -22.87, -23.25, -30.91, -23.63, -24.52, -19.78, 0.000, 0.000, 0.000, 16:50:12.584
111, -28.92, -21.88, -26.96, -20.00, -18.86, -25.21, -23.56, -20.38, -21.37, -19.67, -22.87, -23.25, -30.91, -23.63, -24.52, -19.78, 0.000, 0.000, 0.000, 16:50:12.607
40, -28.92, -21.88, -26.96, -20.00, -18.86, -25.21, -23.56, -20.38, -21.19, -19.87, -22.62, -23.38, -30.85, -23.63, -24.56, -19.67, 0.000, 0.000, 0.000, 16:50:12.607
85, -28.70, -21.77, -26.96, -19.92, -18.86, -25.10, -23.78, -20.61, -21.19, -19.87, -22.62, -23.38, -30.85, -23.63, -24.56, -19.67, 0.078, 0.958, -0.152, 16:50:12.608
66, -28.70, -21.77, -26.96, -19.92, -18.86, -25.10, -23.78, -20.61, -21.48, -19.65, -22.66, -23.51, -30.80, -23.42, -24.36, -19.83, 0.074, 0.958, -0.142, 16:50:12.623
80, -28.70, -21.77, -26.96, -19.92, -18.86, -25.10, -23.78, -20.61, -21.30, -19.96, -22.82, -23.42, -30.98, -23.60, -24.61, -19.94, 0.000, 0.000, 0.000, 16:50:12.661
45, -28.90, -21.79, -27.00, -20.07, -18.82, -25.48, -23.89, -20.54, -21.30, -19.96, -22.82, -23.42, -30.98, -23.60, -24.61, -19.94, 0.000, 0.000, 0.000, 16:50:12.661
109, -28.92, -22.17, -27.11, -19.83, -18.91, -25.10, -23.72, -20.45, -21.30, -19.96, -22.82, -23.42, -30.98, -23.60, -24.61, -19.94, 0.000, 0.000, 0.000, 16:50:12.662
107, -28.81, -21.93, -26.89, -19.96, -18.95, -25.44, -23.89, -20.23, -21.30, -19.96, -22.82, -23.42, -30.98, -23.60, -24.61, -19.94, 0.000, 0.000, 0.000, 16:50:12.662
74, -28.81, -21.93, -26.89, -19.96, -18.95, -25.44, -23.89, -20.23, -21.21, -19.42, -22.80, -23.31, -30.96, -23.69, -24.63, -19.94, 0.000, 0.000, 0.000, 16:50:12.663
52, -28.81, -21.93, -26.89, -19.96, -18.95, -25.44, -23.89, -20.23, -21.37, -19.67, -22.71, -23.36, -30.73, -23.56, -24.52, -19.83, 0.000, 0.000, 0.000, 16:50:12.664
105, -28.61, -21.84, -27.02, -19.87, -19.02, -25.26, -23.76, -20.59, -21.37, -19.67, -22.71, -23.36, -30.73, -23.56, -24.52, -19.83, 0.082, 0.954, -0.144, 16:50:12.664
103, -28.92, -21.84, -26.96, -20.05, -19.00, -25.28, -23.74, -20.34, -21.37, -19.67, -22.71, -23.36, -30.73, -23.56, -24.52, -19.83, 0.000, 0.000, 0.000, 16:50:12.665
98, -28.92, -21.84, -26.96, -20.05, -19.00, -25.28, -23.74, -20.34, -21.57, -19.65, -22.82, -23.27, -30.85, -23.63, -24.41, -19.92, 0.000, 0.000, 0.000, 16:50:12.710
57, -28.97, -21.77, -26.93, -19.96, -18.93, -25.24, -23.63, -20.56, -21.57, -19.65, -22.82, -23.27, -30.85, -23.63, -24.41, -19.92, 0.000, 0.000, 0.000, 16:50:12.711
101, -28.83, -21.79, -26.73, -19.87, -19.13, -25.44, -23.56, -20.43, -21.57, -19.65, -22.82, -23.27, -30.85, -23.63, -24.41, -19.92, 0.000, 0.000, 0.000, 16:50:12.711
94, -28.83, -21.79, -26.73, -19.87, -19.13, -25.44, -23.56, -20.43, -21.35, -19.69, -23.07, -23.29, -30.76, -23.45, -24.50, -19.98, 0.000, 0.000, 0.000, 16:50:12.712
95, -28.79, -21.73, -27.02, -20.07, -18.84, -25.28, -23.74, -20.52, -21.35, -19.69, -23.07, -23.29, -30.76, -23.45, -24.50, -19.98, 0.084, 0.958, -0.152, 16:50:12.712
118, -28.79, -21.73, -27.02, -20.07, -18.84, -25.28, -23.74, -20.52, -21.21, -19.74, -22.89, -23.13, -30.69, -23.67, -24.48, -20.09, 0.000, 0.000, 0.000, 16:50:12.713
112, -28.79, -21.73, -27.02, -20.07, -18.84, -25.28, -23.74, -20.52, -21.32, -19.62, -22.98, -23.25, -30.73, -23.42, -24.54, -19.76, 0.000, 0.000, 0.000, 16:50:12.714
125, -28.81, -21.70, -27.02, -19.94, -19.13, -25.19, -23.69, -20.56, -21.32, -19.62, -22.98, -23.25, -30.73, -23.42, -24.54, -19.76, 0.082, 0.950, -0.138, 16:50:12.715
128, -28.81, -21.70, -27.02, -19.94, -19.13, -25.19, -23.69, -20.56, -21.41, -19.58, -22.87, -23.34, -30.91, -23.80, -24.50, -19.89, 0.000, 0.000, 0.000, 16:50:12.716
119, -28.77, -21.97, -27.27, -19.92, -19.07, -25.15, -23.49, -20.27, -21.41, -19.58, -22.87, -23.34, -30.91, -23.80, -24.50, -19.89, 0.000, 0.000, 0.000, 16:50:12.717
141, -28.86, -21.82, -27.09, -19.76, -18.86, -25.01, -23.74, -20.50, -21.41, -19.58, -22.87, -23.34, -30.91, -23.80, -24.50, -19.89, 0.000, 0.000, 0.000, 16:50:12.718
121, -28.70, -21.95, -27.02, -20.00, -19.00, -25.28, -23.78, -20.41, -21.41, -19.58, -22.87, -23.34, -30.91, -23.80, -24.50, -19.89, 0.000, 0.000, 0.000, 16:50:12.747
139, -28.77, -21.90, -26.98, -19.98, -18.84, -25.08, -23.74, -20.36, -21.41, -19.58, -22.87, -23.34, -30.91, -23.80, -24.50, -19.89, 0.000, 0.000, 0.000, 16:50:12.748
165, -28.88, -21.82, -26.96, -19.87, -19.11, -25.21, -23.80, -20.52, -21.41, -19.58, -22.87, -23.34, -30.91, -23.80, -24.50, -19.89, 0.000, 0.000, 0.000, 16:50:12.748
166, -28.88, -21.82, -26.96, -19.87, -19.11, -25.21, -23.80, -20.52, -21.21, -19.60, -22.78, -23.38, -31.07, -23.65, -24.39, -20.05, 0.000, 0.000, 0.000, 16:50:12.749
167, -28.83, -22.06, -26.96, -20.14, -19.04, -25.06, -23.76, -20.30, -21.21, -19.60, -22.78, -23.38, -31.07, -23.65, -24.39, -20.05, 0.000, 0.000, 0.000, 16:50:13.189
168, -28.83, -22.06, -26.96, -20.14, -19.04, -25.06, -23.76, -20.30, -21.30, -19.58, -23.04, -23.40, -31.20, -23.58, -24.56, -19.94, 0.000, 0.000, 0.000, 16:50:13.189
169, -29.03, -22.02, -27.02, -19.94, -18.80, -25.32, -23.83, -20.43, -21.30, -19.58, -23.04, -23.40, -31.20, -23.58, -24.56, -19.94, 0.000, 0.000, 0.000, 16:50:13.190
170, -29.03, -22.02, -27.02, -19.94, -18.80, -25.32, -23.83, -20.43, -21.41, -19.45, -22.78, -23.42, -31.00, -23.38, -24.63, -20.18, 0.000, 0.000, 0.000, 16:50:13.190
171, -29.03, -21.75, -26.91, -19.92, -18.78, -25.44, -23.78, -20.34, -21.41, -19.45, -22.78, -23.42, -31.00, -23.38, -24.63, -20.18, 0.000, 0.000, 0.000, 16:50:13.191
172, -29.03, -21.75, -26.91, -19.92, -18.78, -25.44, -23.78, -20.34, -21.44, -19.60, -22.58, -23.54, -30.98, -23.56, -24.45, -19.92, 0.000, 0.000, 0.000, 16:50:13.191
173, -29.17, -21.88, -27.02, -19.94, -18.71, -25.12, -23.72, -20.34, -21.44, -19.60, -22.58, -23.54, -30.98, -23.56, -24.45, -19.92, 0.000, 0.000, 0.000, 16:50:13.192
174, -29.17, -21.88, -27.02, -19.94, -18.71, -25.12, -23.72, -20.34, -21.32, -19.78, -22.98, -23.40, -30.89, -23.47, -24.36, -20.05, 0.080, 0.952, -0.136, 16:50:13.192
175, -29.17, -21.90, -26.98, -20.03, -18.95, -25.26, -23.80, -20.52, -21.32, -19.78, -22.98, -23.40, -30.89, -23.47, -24.36, -20.05, 0.000, 0.000, 0.000, 16:50:13.193
176, -29.17, -21.90, -26.98, -20.03, -18.95, -25.26, -23.80, -20.52, -21.37, -19.71, -22.73, -23.38, -30.91, -23.67, -24.41, -19.76, 0.000, 0.000, 0.000, 16:50:13.193
177, -29.03, -21.79, -26.93, -19.67, -18.84, -25.37, -23.85, -20.50, -21.37, -19.71, -22.73, -23.38, -30.91, -23.67, -24.41, -19.76, 0.000, 0.000, 0.000, 16:50:13.193
178, -29.03, -21.79, -26.93, -19.67, -18.84, -25.37, -23.85, -20.50, -21.23, -19.74, -22.87, -23.40, -30.91, -23.56, -24.48, -19.98, 0.000, 0.000, 0.000, 16:50:13.194
179, -29.03, -21.86, -26.91, -19.92, -18.91, -25.39, -23.76, -20.52, -21.23, -19.74, -22.87, -23.40, -30.91, -23.56, -24.48, -19.98, 0.000, 0.000, 0.000, 16:50:13.194
180, -29.03, -21.86, -26.91, -19.92, -18.91, -25.39, -23.76, -20.52, -21.37, -19.65, -22.69, -23.36, -31.05, -23.56, -24.41, -19.89, 0.000, 0.000, 0.000, 16:50:13.195
181, -28.86, -21.99, -26.91, -19.76, -19.07, -25.32, -23.74, -20.43, -21.37, -19.65, -22.69, -23.36, -31.05, -23.56, -24.41, -19.89, 0.000, 0.000, 0.000, 16:50:13.195
182, -28.86, -21.99, -26.91, -19.76, -19.07, -25.32, -23.74, -20.43, -21.39, -19.78, -22.78, -23.40, -30.82, -23.74, -24.56, -19.96, 0.000, 0.000, 0.000, 16:50:13.196
183, -28.83, -21.95, -27.11, -20.12, -19.11, -25.12, -23.58, -20.50, -21.39, -19.78, -22.78, -23.40, -30.82, -23.74, -24.56, -19.96, 0.080, 0.952, -0.134, 16:50:13.196
184, -28.83, -21.95, -27.11, -20.12, -19.11, -25.12, -23.58, -20.50, -21.39, -19.78, -23.02, -23.34, -30.76, -23.63, -24.39, -19.92, 0.000, 0.000, 0.000, 16:50:13.196
185, -28.81, -21.82, -26.93, -20.25, -18.93, -25.24, -23.65, -20.43, -21.39, -19.78, -23.02, -23.34, -30.76, -23.63, -24.39, -19.92, 0.000, 0.000, 0.000, 16:50:13.197
186, -28.81, -21.82, -26.93, -20.25, -18.93, -25.24, -23.65, -20.43, -21.37, -19.78, -22.93, -23.51, -30.91, -23.54, -24.54, -20.00, 0.000, 0.000, 0.000, 16:50:13.197
187, -29.10, -21.64, -26.93, -19.96, -18.95, -25.17, -23.83, -20.41, -21.37, -19.78, -22.93, -23.51, -30.91, -23.54, -24.54, -20.00, 0.000, 0.000, 0.000, 16:50:13.198
188, -29.10, -21.64, -26.93, -19.96, -18.95, -25.17, -23.83, -20.41, -21.35, -19.69, -22.89, -23.34, -30.73, -23.49, -24.50, -19.92, 0.000, 0.000, 0.000, 16:50:13.203
189, -29.15, -21.66, -26.87, -20.05, -18.78, -25.21, -23.85, -20.65, -21.35, -19.69, -22.89, -23.34, -30.73, -23.49, -24.50, -19.92, 0.000, 0.000, 0.000, 16:50:13.203
190, -29.15, -21.66, -26.87, -20.05, -18.78, -25.21, -23.85, -20.65, -21.35, -19.85, -22.75, -23.18, -30.89, -23.67, -24.56, -20.00, 0.000, 0.000, 0.000, 16:50:13.204
191, -28.95, -21.73, -27.09, -19.85, -18.73, -25.24, -23.92, -20.61, -21.35, -19.85, -22.75, -23.18, -30.89, -23.67, -24.56, -20.00, 0.000, 0.000, 0.000, 16:50:13.204
192, -28.95, -21.73, -27.09, -19.85, -18.73, -25.24, -23.92, -20.61, -21.37, -19.67, -23.00, -23.40, -30.76, -23.69, -24.59, -19.76, 0.000, 0.000, 0.000, 16:50:13.205
193, -28.74, -21.66, -27.00, -20.05, -18.91, -25.01, -23.56, -20.36, -21.37, -19.67, -23.00, -23.40, -30.76, -23.69, -24.59, -19.76, 0.078, 0.948, -0.134, 16:50:13.205
194, -28.74, -21.66, -27.00, -20.05, -18.91, -25.01, -23.56, -20.36, -21.39, -19.69, -22.93, -23.49, -30.98, -23.67, -24.36, -19.98, 0.000, 0.000, 0.000, 16:50:13.206
195, -29.08, -21.70, -27.16, -19.87, -19.00, -25.19, -23.80, -20.65, -21.39, -19.69, -22.93, -23.49, -30.98, -23.67, -24.36, -19.98, 0.000, 0.000, 0.000, 16:50:13.206
196, -29.08, -21.70, -27.16, -19.87, -19.00, -25.19, -23.80, -20.65, -21.39, -19.74, -22.69, -23.36, -31.05, -23.65, -24.56, -19.83, 0.000, 0.000, 0.000, 16:50:13.207
197, -28.95, -21.75, -27.05, -19.87, -18.86, -25.26, -23.63, -20.43, -21.39, -19.74, -22.69, -23.36, -31.05, -23.65, -24.56, -19.83, 0.000, 0.000, 0.000, 16:50:13.207
198, -28.95, -21.75, -27.05, -19.87, -18.86, -25.26, -23.63, -20.43, -21.39, -19.67, -22.46, -23.22, -30.91, -23.60, -24.68, -19.83, 0.000, 0.000, 0.000, 16:50:13.207
199, -29.12, -21.86, -27.16, -19.96, -18.75, -25.24, -23.87, -20.41, -21.39, -19.67, -22.46, -23.22, -30.91, -23.60, -24.68, -19.83, 0.000, 0.000, 0.000, 16:50:13.208
200, -29.12, -21.86, -27.16, -19.96, -18.75, -25.24, -23.87, -20.41, -21.26, -19.67, -22.84, -23.38, -30.87, -23.60, -24.54, -20.12, 0.000, 0.000, 0.000, 16:50:13.208
201, -28.99, -21.90, -26.98, -20.00, -18.86, -25.21, -23.85, -20.45, -21.26, -19.67, -22.84, -23.38, -30.87, -23.60, -24.54, -20.12, 0.000, 0.000, 0.000, 16:50:13.209
202, -28.99, -21.90, -26.98, -20.00, -18.86, -25.21, -23.85, -20.45, -21.23, -19.71, -23.02, -23.27, -30.82, -23.65, -24.72, -20.18, 0.000, 0.000, 0.000, 16:50:13.209
203, -28.83, -21.97, -26.96, -19.89, -18.84, -25.24, -23.76, -20.27, -21.23, -19.71, -23.02, -23.27, -30.82, -23.65, -24.72, -20.18, 0.080, 0.958, -0.134, 16:50:13.209
204, -28.83, -21.97, -26.96, -19.89, -18.84, -25.24, -23.76, -20.27, -21.28, -19.65, -22.75, -23.36, -30.80, -23.40, -24.56, -19.69, 0.000, 0.000, 0.000, 16:50:13.210
205, -29.06, -21.79, -27.11, -20.05, -19.00, -25.44, -23.72, -20.47, -21.28, -19.65, -22.75, -23.36, -30.80, -23.40, -24.56, -19.69, 0.000, 0.000, 0.000, 16:50:13.210
206, -29.06, -21.79, -27.11, -20.05, -19.00, -25.44, -23.72, -20.47, -21.52, -19.76, -23.04, -23.47, -30.76, -23.67, -24.39, -19.85, 0.000, 0.000, 0.000, 16:50:13.211
207, -28.92, -21.77, -27.09, -19.94, -19.11, -25.26, -23.74, -20.59, -21.52, -19.76, -23.04, -23.47, -30.76, -23.67, -24.39, -19.85, 0.000, 0.000, 0.000, 16:50:13.211
208, -28.92, -21.77, -27.09, -19.94, -19.11, -25.26, -23.74, -20.59, -21.48, -19.62, -22.75, -23.56, -30.73, -23.42, -24.63, -19.83, 0.000, 0.000, 0.000, 16:50:13.212
209, -29.03, -21.86, -27.07, -20.14, -18.95, -25.28, -23.96, -20.45, -21.48, -19.62, -22.75, -23.56, -30.73, -23.42, -24.63, -19.83, 0.000, 0.000, 0.000, 16:50:13.212
210, -29.03, -21.86, -27.07, -20.14, -18.95, -25.28, -23.96, -20.45, -21.32, -19.76, -22.64, -23.31, -30.78, -23.60, -24.48, -19.98, 0.000, 0.000, 0.000, 16:50:13.213
211, -28.79, -21.88, -26.96, -19.92, -18.93, -25.39, -23.76, -20.43, -21.32, -19.76, -22.64, -23.31, -30.78, -23.60, -24.48, -19.98, 0.000, 0.000, 0.000, 16:50:13.213
212, -28.79, -21.88, -26.96, -19.92, -18.93, -25.39, -23.76, -20.43, -21.26, -19.92, -22.84, -23.07, -30.73, -23.76, -24.61, -19.69, 0.000, 0.000, 0.000, 16:50:13.214
213, -29.10, -21.73, -26.93, -19.96, -18.89, -25.30, -23.76, -20.16, -21.26, -19.92, -22.84, -23.07, -30.73, -23.76, -24.61, -19.69, 0.082, 0.960, -0.130, 16:50:13.215
214, -29.10, -21.73, -26.93, -19.96, -18.89, -25.30, -23.76, -20.16, -21.35, -19.58, -22.87, -23.18, -30.76, -23.58, -24.63, -19.85, 0.000, 0.000, 0.000, 16:50:13.215
215, -28.83, -21.97, -27.09, -20.07, -18.93, -25.30, -23.80, -20.61, -21.35, -19.58, -22.87, -23.18, -30.76, -23.58, -24.63, -19.85, 0.000, 0.000, 0.000, 16:50:13.216
216, -28.83, -21.97, -27.09, -20.07, -18.93, -25.30, -23.80, -20.61, -21.35, -19.67, -22.91, -23.09, -30.96, -23.67, -24.54, -19.89, 0.000, 0.000, 0.000, 16:50:13.217
217, -28.86, -21.82, -27.20, -19.94, -19.00, -25.41, -23.69, -20.52, -21.35, -19.67, -22.91, -23.09, -30.96, -23.67, -24.54, -19.89, 0.000, 0.000, 0.000, 16:50:13.217
218, -28.86, -21.82, -27.20, -19.94, -19.00, -25.41, -23.69, -20.52, -21.41, -19.56, -22.66, -23.47, -30.60, -23.67, -24.54, -20.07, 0.000, 0.000, 0.000, 16:50:13.218
219, -28.99, -21.93, -27.00, -19.87, -19.04, -25.41, -23.67, -20.47, -21.41, -19.56, -22.66, -23.47, -30.60, -23.67, -24.54, -20.07, 0.000, 0.000, 0.000, 16:50:13.218
220, -28.99, -21.93, -27.00, -19.87, -19.04, -25.41, -23.67, -20.47, -21.26, -19.65, -22.71, -23.18, -30.80, -23.60, -24.61, -19.80, 0.000, 0.000, 0.000, 16:50:13.219
221, -28.92, -21.77, -27.31, -20.00, -18.82, -25.24, -23.76, -20.41, -21.26, -19.65, -22.71, -23.18, -30.80, -23.60, -24.61, -19.80, 0.000, 0.000, 0.000, 16:50:13.220
222, -28.92, -21.77, -27.31, -20.00, -18.82, -25.24, -23.76, -20.41, -21.48, -19.60, -22.71, -23.29, -30.80, -23.54, -24.39, -19.83, 0.000, 0.000, 0.000, 16:50:13.220
223, -29.01, -21.73, -27.02, -20.14, -18.89, -25.19, -23.76, -20.38, -21.48, -19.60, -22.71, -23.29, -30.80, -23.54, -24.39, -19.83, 0.078, 0.954, -0.134, 16:50:13.221
224, -29.01, -21.73, -27.02, -20.14, -18.89, -25.19, -23.76, -20.38, -21.37, -19.71, -22.75, -23.49, -30.85, -23.47, -24.48, -19.85, 0.000, 0.000, 0.000, 16:50:13.221
225, -28.97, -21.84, -27.16, -19.89, -19.11, -25.24, -23.83, -20.52, -21.37, -19.71, -22.75, -23.49, -30.85, -23.47, -24.48, -19.85, 0.000, 0.000, 0.000, 16:50:13.221
226, -28.97, -21.84, -27.16, -19.89, -19.11, -25.24, -23.83, -20.52, -21.44, -19.58, -22.58, -23.51, -30.91, -23.47, -24.36, -19.76, 0.000, 0.000, 0.000, 16:50:13.224
227, -28.99, -21.90, -27.07, -19.83, -18.93, -25.37, -23.94, -20.45, -21.44, -19.58, -22.58, -23.51, -30.91, -23.47, -24.36, -19.76, 0.000, 0.000, 0.000, 16:50:13.224
228, -28.99, -21.90, -27.07, -19.83, -18.93, -25.37, -23.94, -20.45, -21.28, -19.67, -22.80, -23.27, -30.78, -23.63, -24.54, -19.87, 0.000, 0.000, 0.000, 16:50:13.225
229, -28.77, -21.82, -27.20, -19.87, -18.95, -25.39, -23.67, -20.34, -21.28, -19.67, -22.80, -23.27, -30.78, -23.63, -24.54, -19.87, 0.000, 0.000, 0.000, 16:50:13.225
230, -28.77, -21.82, -27.20, -19.87, -18.95, -25.39, -23.67, -20.34, -21.19, -19.58, -22.89, -23.45, -30.98, -23.45, -24.65, -19.74, 0.000, 0.000, 0.000, 16:50:13.226
231, -28.86, -21.64, -27.00, -20.03, -18.84, -25.17, -23.67, -20.59, -21.19, -19.58, -22.89, -23.45, -30.98, -23.45, -24.65, -19.74, 0.000, 0.000, 0.000, 16:50:13.227
232, -28.86, -21.64, -27.00, -20.03, -18.84, -25.17, -23.67, -20.59, -21.52, -19.69, -22.55, -23.25, -31.05, -23.60, -24.43, -19.83, 0.078, 0.954, -0.136, 16:50:13.228
233, -28.72, -21.68, -27.18, -19.94, -18.84, -25.15, -23.80, -20.50, -21.52, -19.69, -22.55, -23.25, -31.05, -23.60, -24.43, -19.83, 0.000, 0.000, 0.000, 16:50:13.229
234, -28.72, -21.68, -27.18, -19.94, -18.84, -25.15, -23.80, -20.50, -21.41, -19.74, -22.93, -23.29, -31.02, -23.56, -24.52, -19.78, 0.000, 0.000, 0.000, 16:50:13.229
235, -28.97, -21.73, -27.09, -19.89, -18.91, -25.32, -23.69, -20.21, -21.41, -19.74, -22.93, -23.29, -31.02, -23.56, -24.52, -19.78, 0.000, 0.000, 0.000, 16:50:13.230
236, -28.97, -21.73, -27.09, -19.89, -18.91, -25.32, -23.69, -20.21, -21.50, -19.80, -22.71, -23.58, -31.09, -23.58, -24.34, -19.98, 0.000, 0.000, 0.000, 16:50:13.231
237, -28.83, -21.75, -26.87, -19.89, -18.91, -25.35, -23.45, -20.25, -21.50, -19.80, -22.71, -23.58, -31.09, -23.58, -24.34, -19.98, 0.000, 0.000, 0.000, 16:50:13.231
238, -28.83, -21.75, -26.87, -19.89, -18.91, -25.35, -23.45, -20.25, -21.50, -19.62, -22.91, -23.31, -30.80, -23.63, -24.52, -19.92, 0.000, 0.000, 0.000, 16:50:13.232
239, -29.12, -21.95, -27.00, -19.87, -18.98, -25.30, -23.76, -20.32, -21.50, -19.62, -22.91, -23.31, -30.80, -23.63, -24.52, -19.92, 0.000, 0.000, 0.000, 16:50:13.232
240, -29.12, -21.95, -27.00, -19.87, -18.98, -25.30, -23.76, -20.32, -21.26, -19.69, -22.80, -23.47, -30.80, -23.72, -24.56, -19.78, 0.000, 0.000, 0.000, 16:50:13.232
241, -29.08, -21.88, -26.93, -20.00, -18.82, -25.30, -23.63, -20.18, -21.26, -19.69, -22.80, -23.47, -30.80, -23.72, -24.56, -19.78, 0.000, 0.000, 0.000, 16:50:13.233
242, -29.08, -21.88, -26.93, -20.00, -18.82, -25.30, -23.63, -20.18, -21.41, -19.36, -22.71, -23.36, -30.82, -23.67, -24.56, -19.94, 0.078, 0.952, -0.138, 16:50:13.233
243, -29.01, -21.82, -27.07, -20.05, -19.13, -25.35, -23.78, -20.41, -21.41, -19.36, -22.71, -23.36, -30.82, -23.67, -24.56, -19.94, 0.000, 0.000, 0.000, 16:50:13.234
244, -29.01, -21.82, -27.07, -20.05, -19.13, -25.35, -23.78, -20.41, -21.30, -19.96, -22.75, -23.42, -30.71, -23.78, -24.59, -19.94, 0.000, 0.000, 0.000, 16:50:13.234
245, -28.90, -21.93, -27.14, -19.85, -19.22, -25.39, -23.87, -20.41, -21.30, -19.96, -22.75, -23.42, -30.71, -23.78, -24.59, -19.94, 0.000, 0.000, 0.000, 16:50:13.235
246, -28.90, -21.93, -27.14, -19.85, -19.22, -25.39, -23.87, -20.41, -21.30, -19.78, -22.80, -23.47, -30.87, -23.80, -24.63, -19.96, 0.000, 0.000, 0.000, 16:50:13.235
247, -28.83, -21.90, -27.29, -20.12, -19.24, -25.32, -23.98, -20.54, -21.30, -19.78, -22.80, -23.47, -30.87, -23.80, -24.63, -19.96, 0.000, 0.000, 0.000, 16:50:13.236
248, -28.83, -21.90, -27.29, -20.12, -19.24, -25.32, -23.98, -20.54, -21.14, -19.89, -22.82, -23.29, -30.85, -23.76, -24.65, -19.78, 0.000, 0.000, 0.000, 16:50:13.236
249, -28.97, -21.68, -27.02, -19.87, -18.93, -25.21, -23.72, -20.54, -21.14, -19.89, -22.82, -23.29, -30.85, -23.76, -24.65, -19.78, 0.000, 0.000, 0.000, 16:50:13.237
250, -28.97, -21.68, -27.02, -19.87, -18.93, -25.21, -23.72, -20.54, -21.37, -19.56, -22.58, -23.49, -30.91, -23.78, -24.50, -20.09, 0.000, 0.000, 0.000, 16:50:13.238
251, -28.95, -21.79, -27.00, -19.96, -18.98, -25.37, -23.72, -20.61, -21.37, -19.56, -22.58, -23.49, -30.91, -23.78, -24.50, -20.09, 0.000, 0.000, 0.000, 16:50:13.238
252, -28.95, -21.79, -27.00, -19.96, -18.98, -25.37, -23.72, -20.61, -21.44, -19.78, -22.62, -23.40, -30.87, -23.80, -24.54, -19.71, 0.080, 0.952, -0.140, 16:50:13.238
253, -29.08, -22.04, -26.89, -19.80, -19.16, -25.57, -23.74, -20.63, -21.44, -19.78, -22.62, -23.40, -30.87, -23.80, -24.54, -19.71, 0.000, 0.000, 0.000, 16:50:13.239
254, -29.08, -22.04, -26.89, -19.80, -19.16, -25.57, -23.74, -20.63, -21.28, -19.49, -22.78, -23.22, -30.82, -23.58, -24.48, -19.85, 0.000, 0.000, 0.000, 16:50:13.239
255, -29.10, -21.97, -26.93, -19.98, -19.04, -25.30, -23.87, -20.52, -21.28, -19.49, -22.78, -23.22, -30.82, -23.58, -24.48, -19.85, 0.000, 0.000, 0.000, 16:50:13.240
0, -29.10, -21.97, -26.93, -19.98, -19.04, -25.30, -23.87, -20.52, -21.26, -19.65, -22.69, -23.34, -30.73, -23.31, -24.54, -19.60, 0.000, 0.000, 0.000, 16:50:13.240
1, -28.97, -21.66, -26.93, -20.05, -19.00, -25.28, -23.72, -20.21, -21.26, -19.65, -22.69, -23.34, -30.73, -23.31, -24.54, -19.60, 0.000, 0.000, 0.000, 16:50:13.240
2, -28.97, -21.66, -26.93, -20.05, -19.00, -25.28, -23.72, -20.21, -21.39, -19.65, -22.73, -23.49, -30.91, -23.42, -24.50, -19.92, 0.000, 0.000, 0.000, 16:50:13.241
3, -28.92, -21.97, -27.14, -20.03, -18.71, -25.44, -23.78, -20.18, -21.39, -19.65, -22.73, -23.49, -30.91, -23.42, -24.50, -19.92, 0.000, 0.000, 0.000, 16:50:13.241
4, -28.92, -21.97, -27.14, -20.03, -18.71, -25.44, -23.78, -20.18, -21.46, -19.60, -22.93, -23.29, -30.60, -23.60, -24.45, -19.98, 0.000, 0.000, 0.000, 16:50:13.242
5, -29.01, -21.73, -26.80, -19.92, -18.98, -25.28, -23.87, -20.52, -21.46, -19.60, -22.93, -23.29, -30.60, -23.60, -24.45, -19.98, 0.000, 0.000, 0.000, 16:50:13.242
6, -29.01, -21.73, -26.80, -19.92, -18.98, -25.28, -23.87, -20.52, -21.41, -19.65, -22.71, -23.49, -30.76, -23.72, -24.70, -19.85, 0.084, 0.954, -0.140, 16:50:13.242
7, -29.15, -21.73, -27.09, -19.98, -18.98, -25.30, -23.60, -20.54, -21.41, -19.65, -22.71, -23.49, -30.76, -23.72, -24.70, -19.85, 0.000, 0.000, 0.000, 16:50:13.243
8, -29.15, -21.73, -27.09, -19.98, -18.98, -25.30, -23.60, -20.54, -21.32, -19.58, -22.71, -23.47, -30.80, -23.58, -24.59, -19.65, 0.000, 0.000, 0.000, 16:50:13.243
9, -28.77, -21.77, -26.98, -19.96, -18.91, -25.35, -23.74, -20.65, -21.32, -19.58, -22.71, -23.47, -30.80, -23.58, -24.59, -19.65, 0.000, 0.000, 0.000, 16:50:13.244
10, -28.77, -21.77, -26.98, -19.96, -18.91, -25.35, -23.74, -20.65, -21.52, -19.92, -22.51, -23.54, -30.82, -23.74, -24.52, -19.94, 0.000, 0.000, 0.000, 16:50:13.244
11, -28.81, -22.02, -26.84, -20.03, -18.95, -25.19, -23.83, -20.56, -21.52, -19.92, -22.51, -23.54, -30.82, -23.74, -24.52, -19.94, 0.000, 0.000, 0.000, 16:50:13.245
12, -28.81, -22.02, -26.84, -20.03, -18.95, -25.19, -23.83, -20.56, -21.41, -19.98, -22.87, -23.20, -30.96, -23.56, -24.52, -20.12, 0.000, 0.000, 0.000, 16:50:13.245
13, -28.92, -21.86, -27.00, -19.98, -19.00, -25.44, -23.72, -20.12, -21.41, -19.98, -22.87, -23.20, -30.96, -23.56, -24.52, -20.12, 0.000, 0.000, 0.000, 16:50:13.245
14, -28.92, -21.86, -27.00, -19.98, -19.00, -25.44, -23.72, -20.12, -21.55, -19.89, -22.73, -23.22, -30.96, -23.58, -24.48, -19.74, 0.000, 0.000, 0.000, 16:50:13.246
15, -29.06, -21.93, -26.82, -19.85, -19.13, -25.24, -23.74, -20.34, -21.55, -19.89, -22.73, -23.22, -30.96, -23.58, -24.48, -19.74, 0.000, 0.000, 0.000, 16:50:13.246
16, -29.06, -21.93, -26.82, -19.85, -19.13, -25.24, -23.74, -20.34, -21.35, -19.76, -22.82, -23.31, -31.05, -23.58, -24.36, -19.76, 0.084, 0.964, -0.140, 16:50:13.247
17, -29.03, -21.66, -26.73, -20.18, -19.00, -25.35, -23.94, -20.45, -21.35, -19.76, -22.82, -23.31, -31.05, -23.58, -24.36, -19.76, 0.000, 0.000, 0.000, 16:50:13.247
18, -29.03, -21.66, -26.73, -20.18, -19.00, -25.35, -23.94, -20.45, -21.19, -19.47, -22.80, -23.51, -30.87, -23.63, -24.68, -19.78, 0.000, 0.000, 0.000, 16:50:13.247
19, -29.06, -21.79, -27.14, -19.92, -19.09, -25.44, -23.78, -20.59, -21.19, -19.47, -22.80, -23.51, -30.87, -23.63, -24.68, -19.78, 0.000, 0.000, 0.000, 16:50:13.248
20, -29.06, -21.79, -27.14, -19.92, -19.09, -25.44, -23.78, -20.59, -21.21, -19.56, -22.89, -23.49, -30.89, -23.56, -24.45, -20.12, 0.000, 0.000, 0.000, 16:50:13.248
21, -29.01, -21.82, -27.05, -19.80, -18.95, -25.21, -23.83, -20.34, -21.21, -19.56, -22.89, -23.49, -30.89, -23.56, -24.45, -20.12, 0.000, 0.000, 0.000, 16:50:13.248
22, -29.01, -21.82, -27.05, -19.80, -18.95, -25.21, -23.83, -20.34, -21.39, -19.65, -22.73, -23.40, -31.00, -23.36, -24.61, -20.07, 0.000, 0.000, 0.000, 16:50:13.249
23, -29.03, -21.75, -26.91, -20.00, -18.80, -25.35, -23.92, -20.27, -21.39, -19.65, -22.73, -23.40, -31.00, -23.36, -24.61, -20.07, 0.000, 0.000, 0.000, 16:50:13.249
24, -29.03, -21.75, -26.91, -20.00, -18.80, -25.35, -23.92, -20.27, -21.21, -19.49, -22.69, -23.36, -30.87, -23.63, -24.59, -19.87, 0.000, 0.000, 0.000, 16:50:13.250
25, -28.86, -21.90, -27.00, -19.89, -18.84, -25.28, -23.51, -20.34, -21.21, -19.49, -22.69, -23.36, -30.87, -23.63, -24.59, -19.87, 0.000, 0.000, 0.000, 16:50:13.534
26, -28.86, -21.90, -27.00, -19.89, -18.84, -25.28, -23.51, -20.34, -21.39, -19.69, -22.80, -23.40, -30.78, -23.49, -24.56, -19.83, 0.086, 0.952, -0.134, 16:50:13.535
27, -28.74, -21.90, -26.84, -20.05, -18.98, -25.41, -23.78, -20.43, -21.39, -19.69, -22.80, -23.40, -30.78, -23.49, -24.56, -19.83, 0.000, 0.000, 0.000, 16:50:13.536
28, -28.74, -21.90, -26.84, -20.05, -18.98, -25.41, -23.78, -20.43, -21.37, -19.76, -22.82, -23.20, -30.73, -23.60, -24.41, -19.94, 0.000, 0.000, 0.000, 16:50:13.536
29, -29.15, -21.73, -27.07, -19.80, -19.00, -25.41, -23.76, -20.70, -21.37, -19.76, -22.82, -23.20, -30.73, -23.60, -24.41, -19.94, 0.000, 0.000, 0.000, 16:50:13.537
30, -29.15, -21.73, -27.07, -19.80, -19.00, -25.41, -23.76, -20.70, -21.35, -19.85, -22.84, -23.22, -30.78, -23.54, -24.54, -19.85, 0.000, 0.000, 0.000, 16:50:13.537
31, -28.95, -21.70, -27.18, -20.05, -19.07, -25.17, -23.94, -20.52, -21.35, -19.85, -22.84, -23.22, -30.78, -23.54, -24.54, -19.85, 0.000, 0.000, 0.000, 16:50:13.538
32, -28.95, -21.70, -27.18, -20.05, -19.07, -25.17, -23.94, -20.52, -21.64, -20.05, -22.84, -23.40, -30.93, -23.67, -24.54, -19.78, 0.000, 0.000, 0.000, 16:50:13.538
33, -29.10, -21.75, -26.98, -20.00, -18.93, -25.32, -23.76, -20.30, -21.64, -20.05, -22.84, -23.40, -30.93, -23.67, -24.54, -19.78, 0.000, 0.000, 0.000, 16:50:13.538
34, -29.10, -21.75, -26.98, -20.00, -18.93, -25.32, -23.76, -20.30, -21.35, -19.94, -22.53, -23.31, -30.91, -23.54, -24.48, -20.03, 0.000, 0.000, 0.000, 16:50:13.539
35, -28.97, -21.75, -27.11, -20.18, -18.84, -25.26, -23.74, -20.34, -21.35, -19.94, -22.53, -23.31, -30.91, -23.54, -24.48, -20.03, 0.088, 0.950, -0.132, 16:50:13.539
36, -28.97, -21.75, -27.11, -20.18, -18.84, -25.26, -23.74, -20.34, -21.41, -19.89, -22.80, -23.36, -30.96, -23.47, -24.56, -19.92, 0.000, 0.000, 0.000, 16:50:13.540
37, -29.06, -21.90, -27.05, -20.07, -18.84, -25.19, -23.69, -20.38, -21.41, -19.89, -22.80, -23.36, -30.96, -23.47, -24.56, -19.92, 0.000, 0.000, 0.000, 16:50:13.540
38, -29.06, -21.90, -27.05, -20.07, -18.84, -25.19, -23.69, -20.38, -21.21, -19.80, -22.78, -23.22, -31.05, -23.60, -24.70, -19.80, 0.000, 0.000, 0.000, 16:50:13.541
39, -28.90, -21.77, -27.00, -19.89, -18.86, -25.21, -23.80, -20.21, -21.21, -19.80, -22.78, -23.22, -31.05, -23.60, -24.70, -19.80, 0.000, 0.000, 0.000, 16:50:13.541
40, -28.90, -21.77, -27.00, -19.89, -18.86, -25.21, -23.80, -20.21, -21.50, -19.80, -22.82, -23.49, -30.80, -23.58, -24.63, -19.85, 0.000, 0.000, 0.000, 16:50:13.541
41, -29.06, -21.68, -27.11, -19.92, -18.91, -25.24, -23.74, -20.14, -21.50, -19.80, -22.82, -23.49, -30.80, -23.58, -24.63, -19.85, 0.000, 0.000, 0.000, 16:50:13.542
42, -29.06, -21.68, -27.11, -19.92, -18.91, -25.24, -23.74, -20.14, -21.26, -19.65, -22.82, -23.34, -30.96, -23.36, -24.50, -19.89, 0.000, 0.000, 0.000, 16:50:13.543
43, -28.83, -21.86, -27.11, -19.92, -18.93, -25.35, -23.96, -20.45, -21.26, -19.65, -22.82, -23.34, -30.96, -23.36, -24.50, -19.89, 0.000, 0.000, 0.000, 16:50:13.543
44, -28.83, -21.86, -27.11, -19.92, -18.93, -25.35, -23.96, -20.45, -21.26, -19.71, -22.82, -23.49, -30.76, -23.60, -24.43, -20.07, 0.000, 0.000, 0.000, 16:50:13.543
45, -28.65, -21.75, -26.84, -20.12, -19.09, -25.35, -23.74, -20.43, -21.26, -19.71, -22.82, -23.49, -30.76, -23.60, -24.43, -20.07, 0.090, 0.954, -0.132, 16:50:13.544
46, -28.65, -21.75, -26.84, -20.12, -19.09, -25.35, -23.74, -20.43, -21.57, -19.65, -22.66, -23.47, -30.78, -23.45, -24.59, -19.98, 0.000, 0.000, 0.000, 16:50:13.544
47, -29.06, -21.86, -26.96, -19.87, -18.93, -25.17, -23.92, -20.41, -21.57, -19.65, -22.66, -23.47, -30.78, -23.45, -24.59, -19.98, 0.000, 0.000, 0.000, 16:50:13.545
48, -29.06, -21.86, -26.96, -19.87, -18.93, -25.17, -23.92, -20.41, -21.32, -19.71, -22.84, -23.31, -31.07, -23.60, -24.63, -20.00, 0.000, 0.000, 0.000, 16:50:13.545
49, -28.92, -21.79, -26.87, -20.09, -18.84, -25.39, -24.03, -20.59, -21.32, -19.71, -22.84, -23.31, -31.07, -23.60, -24.63, -20.00, 0.000, 0.000, 0.000, 16:50:13.546
50, -28.92, -21.79, -26.87, -20.09, -18.84, -25.39, -24.03, -20.59, -21.48, -19.85, -22.78, -23.40, -31.05, -23.56, -24.39, -19.83, 0.000, 0.000, 0.000, 16:50:13.546
51, -28.97, -21.64, -26.89, -19.98, -19.00, -25.37, -23.98, -20.38, -21.48, -19.85, -22.78, -23.40, -31.05, -23.56, -24.39, -19.83, 0.000, 0.000, 0.000, 16:50:13.546
52, -28.97, -21.64, -26.89, -19.98, -19.00, -25.37, -23.98, -20.38, -21.52, -19.94, -22.60, -23.40, -30.85, -23.45, -24.41, -19.96, 0.000, 0.000, 0.000, 16:50:13.547
53, -29.03, -21.75, -26.98, -19.92, -19.09, -25.37, -23.72, -20.47, -21.52, -19.94, -22.60, -23.40, -30.85, -23.45, -24.41, -19.96, 0.000, 0.000, 0.000, 16:50:13.547
54, -29.03, -21.75, -26.98, -19.92, -19.09, -25.37, -23.72, -20.47, -21.19, -19.69, -22.69, -23.22, -30.89, -23.40, -24.61, -19.65, 0.000, 0.000, 0.000, 16:50:13.548
55, -28.88, -21.77, -27.05, -19.92, -19.20, -25.30, -23.72, -20.52, -21.19, -19.69, -22.69, -23.22, -30.89, -23.40, -24.61, -19.65, 0.088, 0.960, -0.132, 16:50:13.548
56, -28.88, -21.77, -27.05, -19.92, -19.20, -25.30, -23.72, -20.52, -21.17, -19.92, -22.87, -23.27, -31.05, -23.42, -24.48, -19.69, 0.000, 0.000, 0.000, 16:50:13.549
57, -29.10, -21.88, -26.98, -20.03, -19.13, -25.28, -23.89, -20.34, -21.17, -19.92, -22.87, -23.27, -31.05, -23.42, -24.48, -19.69, 0.000, 0.000, 0.000, 16:50:13.549
58, -29.10, -21.88, -26.98, -20.03, -19.13, -25.28, -23.89, -20.34, -21.46, -19.76, -22.78, -23.25, -30.60, -23.58, -24.54, -20.03, 0.000, 0.000, 0.000, 16:50:13.550
59, -29.08, -21.93, -27.05, -20.07, -18.93, -25.28, -23.94, -20.54, -21.46, -19.76, -22.78, -23.25, -30.60, -23.58, -24.54, -20.03, 0.000, 0.000, 0.000, 16:50:13.550
60, -29.08, -21.93, -27.05, -20.07, -18.93, -25.28, -23.94, -20.54, -21.35, -19.71, -23.02, -23.45, -30.76, -23.65, -24.81, -19.78, 0.000, 0.000, 0.000, 16:50:13.550
61, -28.92, -21.88, -27.00, -19.92, -19.04, -25.15, -23.92, -20.23, -21.35, -19.71, -23.02, -23.45, -30.76, -23.65, -24.81, -19.78, 0.000, 0.000, 0.000, 16:50:13.551
62, -28.92, -21.88, -27.00, -19.92, -19.04, -25.15, -23.92, -20.23, -21.44, -19.54, -23.07, -23.34, -30.67, -23.72, -24.59, -19.94, 0.000, 0.000, 0.000, 16:50:13.551
63, -29.06, -21.82, -26.82, -20.05, -18.89, -25.28, -23.80, -20.65, -21.44, -19.54, -23.07, -23.34, -30.67, -23.72, -24.59, -19.94, 0.000, 0.000, 0.000, 16:50:13.552
64, -29.06, -21.82, -26.82, -20.05, -18.89, -25.28, -23.80, -20.65, -21.28, -19.87, -22.87, -23.29, -30.85, -23.56, -24.52, -19.92, 0.000, 0.000, 0.000, 16:50:13.552
65, -28.97, -21.79, -27.00, -19.92, -18.93, -25.21, -23.76, -20.43, -21.28, -19.87, -22.87, -23.29, -30.85, -23.56, -24.52, -19.92, 0.086, 0.960, -0.130, 16:50:13.552
66, -28.97, -21.79, -27.00, -19.92, -18.93, -25.21, -23.76, -20.43, -21.26, -19.67, -22.84, -23.51, -30.85, -23.45, -24.59, -19.89, 0.000, 0.000, 0.000, 16:50:13.553
67, -28.95, -21.95, -27.05, -19.76, -19.11, -25.39, -23.78, -20.54, -21.26, -19.67, -22.84, -23.51, -30.85, -23.45, -24.59, -19.89, 0.000, 0.000, 0.000, 16:50:13.553
68, -28.95, -21.95, -27.05, -19.76, -19.11, -25.39, -23.78, -20.54, -21.46, -19.58, -22.55, -23.38, -30.96, -23.51, -24.56, -19.89, 0.000, 0.000, 0.000, 16:50:13.553
69, -29.21, -21.86, -26.96, -19.83, -18.98, -24.94, -23.67, -20.54, -21.46, -19.58, -22.55, -23.38, -30.96, -23.51, -24.56, -19.89, 0.000, 0.000, 0.000, 16:50:13.554
70, -29.21, -21.86, -26.96, -19.83, -18.98, -24.94, -23.67, -20.54, -21.10, -19.80, -22.69, -23.38, -30.78, -23.56, -24.56, -19.80, 0.000, 0.000, 0.000, 16:50:13.554
71, -29.26, -21.86, -27.07, -19.78, -19.13, -25.17, -23.83, -20.50, -21.10, -19.80, -22.69, -23.38, -30.78, -23.56, -24.56, -19.80, 0.000, 0.000, 0.000, 16:50:13.555
72, -29.26, -21.86, -27.07, -19.78, -19.13, -25.17, -23.83, -20.50, -21.37, -19.85, -22.89, -23.45, -30.78, -23.49, -24.50, -19.92, 0.000, 0.000, 0.000, 16:50:13.555
73, -28.90, -21.99, -27.16, -19.71, -18.95, -25.41, -23.51, -20.56, -21.37, -19.85, -22.89, -23.45, -30.78, -23.49, -24.50, -19.92, 0.000, 0.000, 0.000, 16:50:13.556
74, -28.90, -21.99, -27.16, -19.71, -18.95, -25.41, -23.51, -20.56, -21.26, -19.78, -22.55, -23.42, -31.14, -23.40, -24.36, -19.85, 0.000, 0.000, 0.000, 16:50:13.556
75, -28.99, -21.64, -26.82, -19.85, -18.86, -25.41, -23.85, -20.34, -21.26, -19.78, -22.55, -23.42, -31.14, -23.40, -24.36, -19.85, 0.088, 0.952, -0.130, 16:50:13.557
76, -28.99, -21.64, -26.82, -19.85, -18.86, -25.41, -23.85, -20.34, -21.10, -19.92, -22.58, -23.63, -30.89, -23.58, -24.43, -19.74, 0.000, 0.000, 0.000, 16:50:13.557
77, -28.90, -21.79, -26.71, -20.03, -18.75, -25.26, -23.80, -20.43, -21.10, -19.92, -22.58, -23.63, -30.89, -23.58, -24.43, -19.74, 0.000, 0.000, 0.000, 16:50:13.557
78, -28.90, -21.79, -26.71, -20.03, -18.75, -25.26, -23.80, -20.43, -21.06, -19.56, -23.00, -23.34, -30.98, -23.56, -24.59, -19.87, 0.000, 0.000, 0.000, 16:50:13.558
79, -28.72, -21.75, -27.00, -20.25, -19.11, -25.28, -23.80, -20.34, -21.06, -19.56, -23.00, -23.34, -30.98, -23.56, -24.59, -19.87, 0.000, 0.000, 0.000, 16:50:13.558
80, -28.72, -21.75, -27.00, -20.25, -19.11, -25.28, -23.80, -20.34, -21.52, -19.51, -22.87, -23.31, -30.98, -23.49, -24.61, -19.83, 0.000, 0.000, 0.000, 16:50:13.559
81, -28.83, -21.82, -27.00, -20.27, -19.07, -25.44, -23.80, -20.41, -21.52, -19.51, -22.87, -23.31, -30.98, -23.49, -24.61, -19.83, 0.000, 0.000, 0.000, 16:50:13.559
82, -28.83, -21.82, -27.00, -20.27, -19.07, -25.44, -23.80, -20.41, -21.41, -19.85, -22.58, -23.34, -30.93, -23.69, -24.56, -20.05, 0.000, 0.000, 0.000, 16:50:13.560
83, -28.74, -21.70, -26.93, -19.98, -18.95, -25.21, -23.54, -20.43, -21.41, -19.85, -22.58, -23.34, -30.93, -23.69, -24.56, -20.05, 0.000, 0.000, 0.000, 16:50:13.560
84, -28.74, -21.70, -26.93, -19.98, -18.95, -25.21, -23.54, -20.43, -21.32, -19.74, -22.60, -23.31, -30.76, -23.63, -24.48, -19.96, 0.092, 0.954, -0.130, 16:50:13.560
85, -28.99, -21.99, -26.89, -19.94, -18.91, -25.30, -23.72, -20.47, -21.32, -19.74, -22.60, -23.31, -30.76, -23.63, -24.48, -19.96, 0.000, 0.000, 0.000, 16:50:13.561
86, -28.99, -21.99, -26.89, -19.94, -18.91, -25.30, -23.72, -20.47, -21.32, -19.80, -22.62, -23.34, -30.91, -23.47, -24.45, -20.00, 0.000, 0.000, 0.000, 16:50:13.561
87, -28.88, -21.84, -27.07, -19.89, -18.93, -25.35, -23.80, -20.27, -21.32, -19.80, -22.62, -23.34, -30.91, -23.47, -24.45, -20.00, 0.000, 0.000, 0.000, 16:50:13.561
88, -28.88, -21.84, -27.07, -19.89, -18.93, -25.35, -23.80, -20.27, -21.14, -19.80, -22.78, -23.34, -30.80, -23.51, -24.45, -19.67, 0.000, 0.000, 0.000, 16:50:13.562
89, -28.83, -21.99, -27.02, -20.16, -18.84, -25.39, -23.67, -20.43, -21.14, -19.80, -22.78, -23.34, -30.80, -23.51, -24.45, -19.67, 0.000, 0.000, 0.000, 16:50:13.562
90, -28.83, -21.99, -27.02, -20.16, -18.84, -25.39, -23.67, -20.43, -21.41, -19.89, -22.91, -23.27, -30.71, -23.67, -24.34, -19.92, 0.000, 0.000, 0.000, 16:50:13.562
91, -29.01, -21.90, -26.98, -20.03, -18.93, -25.32, -23.63, -20.45, -21.41, -19.89, -22.91, -23.27, -30.71, -23.67, -24.34, -19.92, 0.000, 0.000, 0.000, 16:50:13.563
92, -29.01, -21.90, -26.98, -20.03, -18.93, -25.32, -23.63, -20.45, -21.35, -19.87, -22.96, -23.45, -30.91, -23.69, -24.50, -19.96, 0.000, 0.000, 0.000, 16:50:13.563
93, -29.12, -21.77, -26.98, -20.09, -18.98, -25.10, -23.72, -20.45, -21.35, -19.87, -22.96, -23.45, -30.91, -23.69, -24.50, -19.96, 0.000, 0.000, 0.000, 16:50:13.564
94, -29.12, -21.77, -26.98, -20.09, -18.98, -25.10, -23.72, -20.45, -21.41, -19.76, -22.73, -23.29, -30.80, -23.36, -24.63, -20.07, 0.090, 0.956, -0.130, 16:50:13.565
95, -28.77, -21.86, -27.07, -20.07, -18.64, -25.24, -23.96, -20.38, -21.41, -19.76, -22.73, -23.29, -30.80, -23.36, -24.63, -20.07, 0.000, 0.000, 0.000, 16:50:13.565
96, -28.77, -21.86, -27.07, -20.07, -18.64, -25.24, -23.96, -20.38, -21.61, -19.65, -22.87, -23.11, -30.76, -23.83, -24.48, -20.16, 0.000, 0.000, 0.000, 16:50:13.566
97, -28.90, -21.59, -27.00, -20.16, -18.80, -25.35, -23.74, -20.41, -21.61, -19.65, -22.87, -23.11, -30.76, -23.83, -24.48, -20.16, 0.000, 0.000, 0.000, 16:50:13.566
98, -28.90, -21.59, -27.00, -20.16, -18.80, -25.35, -23.74, -20.41, -21.35, -19.83, -22.80, -23.20, -30.89, -23.47, -24.41, -19.98, 0.000, 0.000, 0.000, 16:50:13.567
99, -28.99, -21.88, -26.91, -20.09, -18.86, -25.32, -23.89, -20.27, -21.35, -19.83, -22.80, -23.20, -30.89, -23.47, -24.41, -19.98, 0.000, 0.000, 0.000, 16:50:13.568
100, -28.99, -21.88, -26.91, -20.09, -18.86, -25.32, -23.89, -20.27, -21.50, -19.74, -22.78, -23.54, -30.80, -23.63, -24.56, -19.80, 0.000, 0.000, 0.000, 16:50:13.569
101, -28.92, -21.90, -26.93, -19.94, -19.11, -25.19, -23.67, -20.41, -21.50, -19.74, -22.78, -23.54, -30.80, -23.63, -24.56, -19.80, 0.000, 0.000, 0.000, 16:50:13.569
102, -28.92, -21.90, -26.93, -19.94, -19.11, -25.19, -23.67, -20.41, -21.44, -19.87, -22.84, -23.45, -30.76, -23.65, -24.43, -19.87, 0.000, 0.000, 0.000, 16:50:13.570
103, -28.90, -21.77, -27.05, -19.76, -18.78, -25.15, -23.65, -20.34, -21.44, -19.87, -22.84, -23.45, -30.76, -23.65, -24.43, -19.87, 0.000, 0.000, 0.000, 16:50:13.571
104, -28.90, -21.77, -27.05, -19.76, -18.78, -25.15, -23.65, -20.34, -21.12, -19.58, -22.82, -23.22, -30.73, -23.65, -24.70, -19.76, 0.094, 0.958, -0.128, 16:50:13.571
105, -28.95, -21.55, -27.09, -19.87, -19.02, -25.24, -23.80, -20.25, -21.12, -19.58, -22.82, -23.22, -30.73, -23.65, -24.70, -19.76, 0.000, 0.000, 0.000, 16:50:13.572
106, -28.95, -21.55, -27.09, -19.87, -19.02, -25.24, -23.80, -20.25, -21.44, -19.80, -22.87, -23.40, -30.64, -23.56, -24.63, -20.03, 0.000, 0.000, 0.000, 16:50:13.572
107, -28.86, -21.79, -27.05, -19.87, -18.78, -25.15, -23.60, -20.41, -21.44, -19.80, -22.87, -23.40, -30.64, -23.56, -24.63, -20.03, 0.000, 0.000, 0.000, 16:50:13.572
108, -28.86, -21.79, -27.05, -19.87, -18.78, -25.15, -23.60, -20.41, -21.44, -19.71, -22.78, -23.45, -30.87, -23.49, -24.65, -19.92, 0.000, 0.000, 0.000, 16:50:13.573
109, -28.90, -21.86, -27.07, -19.87, -19.09, -25.35, -23.58, -20.74, -21.44, -19.71, -22.78, -23.45, -30.87, -23.49, -24.65, -19.92, 0.000, 0.000, 0.000, 16:50:13.573
110, -28.90, -21.86, -27.07, -19.87, -19.09, -25.35, -23.58, -20.74, -21.28, -19.78, -22.87, -23.45, -30.80, -23.63, -24.34, -19.80, 0.000, 0.000, 0.000, 16:50:13.574
111, -28.92, -21.90, -26.96, -19.92, -19.02, -25.37, -23.69, -20.59, -21.28, -19.78, -22.87, -23.45, -30.80, -23.63, -24.34, -19.80, 0.000, 0.000, 0.000, 16:50:14.005
112, -28.92, -21.90, -26.96, -19.92, -19.02, -25.37, -23.69, -20.59, -21.55, -19.74, -22.82, -23.49, -30.62, -23.56, -24.43, -19.80, 0.000, 0.000, 0.000, 16:50:14.006
113, -28.95, -22.02, -26.91, -19.74, -19.02, -25.41, -23.72, -20.50, -21.55, -19.74, -22.82, -23.49, -30.62, -23.56, -24.43, -19.80, 0.000, 0.000, 0.000, 16:50:14.006
114, -28.95, -22.02, -26.91, -19.74, -19.02, -25.41, -23.72, -20.50, -21.48, -19.87, -23.00, -23.47, -30.76, -23.58, -24.74, -19.65, 0.092, 0.956, -0.126, 16:50:14.007
115, -28.88, -21.90, -26.98, -19.85, -18.91, -25.26, -23.54, -20.56, -21.48, -19.87, -23.00, -23.47, -30.76, -23.58, -24.74, -19.65, 0.000, 0.000, 0.000, 16:50:14.008
116, -28.88, -21.90, -26.98, -19.85, -18.91, -25.26, -23.54, -20.56, -21.52, -19.98, -22.91, -23.31, -30.82, -23.65, -24.68, -19.85, 0.000, 0.000, 0.000, 16:50:14.008
117, -28.92, -21.77, -26.78, -20.21, -18.93, -25.24, -23.60, -20.41, -21.52, -19.98, -22.91, -23.31, -30.82, -23.65, -24.68, -19.85, 0.000, 0.000, 0.000, 16:50:14.009
118, -28.92, -21.77, -26.78, -20.21, -18.93, -25.24, -23.60, -20.41, -21.23, -19.85, -22.73, -23.25, -30.87, -23.72, -24.74, -20.03, 0.000, 0.000, 0.000, 16:50:14.010
119, -28.99, -21.68, -27.05, -19.92, -18.95, -25.48, -23.94, -20.27, -21.23, -19.85, -22.73, -23.25, -30.87, -23.72, -24.74, -20.03, 0.000, 0.000, 0.000, 16:50:14.011
120, -28.99, -21.68, -27.05, -19.92, -18.95, -25.48, -23.94, -20.27, -21.26, -19.80, -22.69, -23.31, -30.71, -23.85, -24.63, -19.94, 0.000, 0.000, 0.000, 16:50:14.011
121, -29.03, -21.84, -27.07, -20.12, -19.00, -25.21, -23.96, -20.45, -21.26, -19.80, -22.69, -23.31, -30.71, -23.85, -24.63, -19.94, 0.000, 0.000, 0.000, 16:50:14.011
122, -29.03, -21.84, -27.07, -20.12, -19.00, -25.21, -23.96, -20.45, -21.28, -19.83, -22.78, -23.34, -30.60, -23.67, -24.50, -19.89, 0.000, 0.000, 0.000, 16:50:14.012
123, -28.83, -21.77, -27.02, -20.07, -18.86, -25.21, -23.89, -20.16, -21.28, -19.83, -22.78, -23.34, -30.60, -23.67, -24.50, -19.89, 0.000, 0.000, 0.000, 16:50:14.012
124, -28.83, -21.77, -27.02, -20.07, -18.86, -25.21, -23.89, -20.16, -21.32, -19.85, -22.87, -23.38, -30.67, -23.58, -24.77, -19.92, 0.094, 0.958, -0.120, 16:50:14.013
125, -28.92, -21.70, -26.96, -20.16, -18.91, -25.12, -23.76, -20.56, -21.32, -19.85, -22.87, -23.38, -30.67, -23.58, -24.77, -19.92, 0.000, 0.000, 0.000, 16:50:14.013
126, -28.92, -21.70, -26.96, -20.16, -18.91, -25.12, -23.76, -20.56, -21.28, -19.87, -22.75, -23.40, -30.76, -23.58, -24.83, -19.94, 0.000, 0.000, 0.000, 16:50:14.013
127, -28.92, -21.82, -26.98, -19.87, -18.98, -25.15, -23.87, -20.61, -21.28, -19.87, -22.75, -23.40, -30.76, -23.58, -24.83, -19.94, 0.000, 0.000, 0.000, 16:50:14.014
128, -28.92, -21.82, -26.98, -19.87, -18.98, -25.15, -23.87, -20.61, -21.30, -19.58, -22.82, -23.51, -30.85, -23.60, -24.54, -20.12, 0.000, 0.000, 0.000, 16:50:14.014
129, -29.10, -21.79, -27.38, -19.71, -18.91, -25.10, -23.74, -20.54, -21.30, -19.58, -22.82, -23.51, -30.85, -23.60, -24.54, -20.12, 0.000, 0.000, 0.000, 16:50:14.014
130, -29.10, -21.79, -27.38, -19.71, -18.91, -25.10, -23.74, -20.54, -21.19, -19.92, -22.80, -23.16, -30.96, -23.60, -24.43, -19.96, 0.000, 0.000, 0.000, 16:50:14.015
131, -28.99, -21.64, -26.73, -20.05, -18.95, -25.53, -23.80, -20.43, -21.19, -19.92, -22.80, -23.16, -30.96, -23.60, -24.43, -19.96, 0.000, 0.000, 0.000, 16:50:14.015
132, -28.99, -21.64, -26.73, -20.05, -18.95, -25.53, -23.80, -20.43, -21.64, -19.98, -22.80, -23.38, -31.00, -23.54, -24.65, -19.92, 0.000, 0.000, 0.000, 16:50:14.016
133, -29.03, -21.73, -26.87, -19.96, -18.84, -25.44, -23.76, -20.32, -21.64, -19.98, -22.80, -23.38, -31.00, -23.54, -24.65, -19.92, 0.000, 0.000, 0.000, 16:50:14.016
134, -29.03, -21.73, -26.87, -19.96, -18.84, -25.44, -23.76, -20.32, -21.50, -19.83, -22.71, -23.38, -30.93, -23.42, -24.36, -19.89, 0.096, 0.960, -0.126, 16:50:14.017
135, -28.92, -21.77, -27.00, -20.05, -19.00, -25.32, -23.65, -20.45, -21.50, -19.83, -22.71, -23.38, -30.93, -23.42, -24.36, -19.89, 0.000, 0.000, 0.000, 16:50:14.017
136, -28.92, -21.77, -27.00, -20.05, -19.00, -25.32, -23.65, -20.45, -21.39, -19.69, -22.75, -23.58, -30.76, -23.40, -24.43, -19.80, 0.000, 0.000, 0.000, 16:50:14.017
137, -29.01, -21.84, -26.96, -20.03, -18.75, -25.39, -23.65, -20.59, -21.39, -19.69, -22.75, -23.58, -30.76, -23.40, -24.43, -19.80, 0.000, 0.000, 0.000, 16:50:14.018
138, -29.01, -21.84, -26.96, -20.03, -18.75, -25.39, -23.65, -20.59, -21.26, -19.58, -22.53, -23.29, -30.85, -23.47, -24.61, -19.89, 0.000, 0.000, 0.000, 16:50:14.018
139, -28.99, -21.77, -27.05, -20.07, -18.95, -25.48, -23.78, -20.70, -21.26, -19.58, -22.53, -23.29, -30.85, -23.47, -24.61, -19.89, 0.000, 0.000, 0.000, 16:50:14.018
140, -28.99, -21.77, -27.05, -20.07, -18.95, -25.48, -23.78, -20.70, -21.32, -19.78, -22.69, -23.56, -30.85, -23.65, -24.68, -19.96, 0.000, 0.000, 0.000, 16:50:14.018
141, -28.99, -21.73, -27.09, -19.80, -19.02, -25.46, -23.74, -20.41, -21.32, -19.78, -22.69, -23.56, -30.85, -23.65, -24.68, -19.96, 0.000, 0.000, 0.000, 16:50:14.019
142, -28.99, -21.73, -27.09, -19.80, -19.02, -25.46, -23.74, -20.41, -21.32, -19.56, -23.00, -23.34, -30.76, -23.69, -24.50, -19.96, 0.000, 0.000, 0.000, 16:50:14.019
143, -28.90, -21.79, -27.25, -19.92, -19.11, -25.24, -23.56, -20.50, -21.32, -19.56, -23.00, -23.34, -30.76, -23.69, -24.50, -19.96, 0.094, 0.958, -0.122, 16:50:14.019
144, -28.90, -21.79, -27.25, -19.92, -19.11, -25.24, -23.56, -20.50, -21.28, -19.65, -22.91, -23.22, -30.93, -23.45, -24.50, -20.07, 0.000, 0.000, 0.000, 16:50:14.020
145, -28.90, -21.95, -27.11, -20.03, -19.02, -25.32, -23.74, -20.38, -21.28, -19.65, -22.91, -23.22, -30.93, -23.45, -24.50, -20.07, 0.000, 0.000, 0.000, 16:50:14.020
146, -28.90, -21.95, -27.11, -20.03, -19.02, -25.32, -23.74, -20.38, -21.44, -19.62, -22.80, -23.34, -30.76, -23.60, -24.61, -20.14, 0.000, 0.000, 0.000, 16:50:14.020
147, -28.99, -21.93, -27.07, -19.98, -19.04, -25.28, -24.05, -20.54, -21.44, -19.62, -22.80, -23.34, -30.76, -23.60, -24.61, -20.14, 0.000, 0.000, 0.000, 16:50:14.021
148, -28.99, -21.93, -27.07, -19.98, -19.04, -25.28, -24.05, -20.54, -21.35, -19.58, -22.91, -23.40, -30.76, -23.60, -24.50, -19.89, 0.000, 0.000, 0.000, 16:50:14.021
149, -29.03, -21.79, -26.82, -19.98, -18.91, -25.41, -23.80, -20.50, -21.35, -19.58, -22.91, -23.40, -30.76, -23.60, -24.50, -19.89, 0.000, 0.000, 0.000, 16:50:14.021
150, -29.03, -21.79, -26.82, -19.98, -18.91, -25.41, -23.80, -20.50, -21.30, -19.47, -22.80, -23.25, -30.71, -23.38, -24.41, -19.89, 0.000, 0.000, 0.000, 16:50:14.022
151, -29.06, -21.93, -26.82, -19.96, -19.07, -25.32, -23.89, -20.32, -21.30, -19.47, -22.80, -23.25, -30.71, -23.38, -24.41, -19.89, 0.000, 0.000, 0.000, 16:50:14.022
152, -29.06, -21.93, -26.82, -19.96, -19.07, -25.32, -23.89, -20.32, -21.48, -19.62, -22.93, -23.29, -30.80, -23.58, -24.45, -20.09, 0.000, 0.000, 0.000, 16:50:14.022
153, -28.88, -21.70, -26.96, -19.89, -18.71, -25.39, -23.78, -20.30, -21.48, -19.62, -22.93, -23.29, -30.80, -23.58, -24.45, -20.09, 0.088, 0.960, -0.128, 16:50:14.022
154, -28.88, -21.70, -26.96, -19.89, -18.71, -25.39, -23.78, -20.30, -21.39, -19.85, -22.84, -23.31, -30.82, -23.38, -24.41, -19.98, 0.000, 0.000, 0.000, 16:50:14.023
155, -29.08, -21.99, -26.96, -19.83, -18.82, -25.28, -23.78, -20.30, -21.39, -19.85, -22.84, -23.31, -30.82, -23.38, -24.41, -19.98, 0.000, 0.000, 0.000, 16:50:14.023
156, -29.08, -21.99, -26.96, -19.83, -18.82, -25.28, -23.78, -20.30, -21.30, -19.76, -22.91, -23.42, -30.87, -23.58, -24.52, -19.83, 0.000, 0.000, 0.000, 16:50:14.024
157, -28.97, -21.90, -26.82, -19.96, -19.02, -25.17, -23.58, -20.50, -21.30, -19.76, -22.91, -23.42, -30.87, -23.58, -24.52, -19.83, 0.000, 0.000, 0.000, 16:50:14.024
158, -28.97, -21.90, -26.82, -19.96, -19.02, -25.17, -23.58, -20.50, -21.59, -19.71, -22.84, -23.20, -31.07, -23.63, -24.50, -19.62, 0.000, 0.000, 0.000, 16:50:14.024
159, -28.90, -21.75, -27.05, -20.21, -18.93, -25.35, -23.63, -20.41, -21.59, -19.71, -22.84, -23.20, -31.07, -23.63, -24.50, -19.62, 0.000, 0.000, 0.000, 16:50:14.025
160, -28.90, -21.75, -27.05, -20.21, -18.93, -25.35, -23.63, -20.41, -21.59, -19.89, -22.58, -23.34, -30.91, -23.51, -24.68, -19.74, 0.000, 0.000, 0.000, 16:50:14.025
161, -28.88, -21.82, -27.18, -20.14, -18.84, -25.48, -23.92, -20.36, -21.59, -19.89, -22.58, -23.34, -30.91, -23.51, -24.68, -19.74, 0.000, 0.000, 0.000, 16:50:14.025
162, -28.88, -21.82, -27.18, -20.14, -18.84, -25.48, -23.92, -20.36, -21.39, -19.67, -22.62, -23.25, -30.85, -23.63, -24.52, -19.92, 0.000, 0.000, 0.000, 16:50:14.026
163, -28.83, -21.84, -26.96, -20.14, -18.98, -25.24, -23.85, -20.68, -21.39, -19.67, -22.62, -23.25, -30.85, -23.63, -24.52, -19.92, 0.084, 0.956, -0.130, 16:50:14.026
164, -28.83, -21.84, -26.96, -20.14, -18.98, -25.24, -23.85, -20.68, -21.17, -19.69, -22.62, -23.29, -30.98, -23.54, -24.32, -20.03, 0.000, 0.000, 0.000, 16:50:14.026
165, -28.95, -21.82, -26.98, -20.00, -18.95, -25.39, -23.69, -20.61, -21.17, -19.69, -22.62, -23.29, -30.98, -23.54, -24.32, -20.03, 0.000, 0.000, 0.000, 16:50:14.026
166, -28.95, -21.82, -26.98, -20.00, -18.95, -25.39, -23.69, -20.61, -21.37, -19.80, -22.78, -23.36, -30.67, -23.80, -24.25, -20.09, 0.000, 0.000, 0.000, 16:50:14.027
167, -29.01, -21.73, -27.00, -19.94, -18.93, -25.32, -23.58, -20.65, -21.37, -19.80, -22.78, -23.36, -30.67, -23.80, -24.25, -20.09, 0.000, 0.000, 0.000, 16:50:14.027
168, -29.01, -21.73, -27.00, -19.94, -18.93, -25.32, -23.58, -20.65, -21.57, -19.65, -22.75, -23.54, -30.91, -23.65, -24.59, -20.00, 0.000, 0.000, 0.000, 16:50:14.028
169, -28.90, -21.57, -27.09, -19.98, -19.13, -25.37, -23.69, -20.43, -21.57, -19.65, -22.75, -23.54, -30.91, -23.65, -24.59, -20.00, 0.000, 0.000, 0.000, 16:50:14.028
170, -28.90, -21.57, -27.09, -19.98, -19.13, -25.37, -23.69, -20.43, -21.35, -19.83, -22.82, -23.45, -31.07, -23.36, -24.48, -19.98, 0.000, 0.000, 0.000, 16:50:14.029
171, -28.95, -21.68, -27.09, -20.05, -19.18, -25.28, -23.78, -20.43, -21.35, -19.83, -22.82, -23.45, -31.07, -23.36, -24.48, -19.98, 0.000, 0.000, 0.000, 16:50:14.029
172, -28.95, -21.68, -27.09, -20.05, -19.18, -25.28, -23.78, -20.43, -21.28, -19.62, -22.89, -23.36, -31.05, -23.63, -24.56, -19.92, 0.000, 0.000, 0.000, 16:50:14.030
173, -29.01, -21.64, -27.05, -20.12, -18.98, -25.32, -23.72, -20.34, -21.28, -19.62, -22.89, -23.36, -31.05, -23.63, -24.56, -19.92, 0.082, 0.950, -0.130, 16:50:14.030
174, -29.01, -21.64, -27.05, -20.12, -18.98, -25.32, -23.72, -20.34, -21.12, -19.71, -22.89, -23.29, -30.89, -23.56, -24.52, -20.18, 0.000, 0.000, 0.000, 16:50:14.030
175, -28.92, -21.75, -27.07, -19.96, -18.78, -25.50, -23.60, -20.32, -21.12, -19.71, -22.89, -23.29, -30.89, -23.56, -24.52, -20.18, 0.000, 0.000, 0.000, 16:50:14.031
176, -28.92, -21.75, -27.07, -19.96, -18.78, -25.50, -23.60, -20.32, -21.17, -19.74, -22.64, -23.20, -30.91, -23.51, -24.56, -19.92, 0.000, 0.000, 0.000, 16:50:14.031
177, -28.70, -21.95, -27.14, -20.05, -18.98, -25.46, -23.80, -20.30, -21.17, -19.74, -22.64, -23.20, -30.91, -23.51, -24.56, -19.92, 0.000, 0.000, 0.000, 16:50:14.032
178, -28.70, -21.95, -27.14, -20.05, -18.98, -25.46, -23.80, -20.30, -21.14, -19.83, -22.80, -23.25, -31.02, -23.45, -24.41, -20.00, 0.000, 0.000, 0.000, 16:50:14.032
179, -28.88, -21.70, -26.96, -20.09, -19.09, -25.50, -23.89, -20.34, -21.14, -19.83, -22.80, -23.25, -31.02, -23.45, -24.41, -20.00, 0.000, 0.000, 0.000, 16:50:14.033
180, -28.88, -21.70, -26.96, -20.09, -19.09, -25.50, -23.89, -20.34, -21.35, -19.71, -22.84, -23.25, -30.78, -23.85, -24.45, -19.89, 0.000, 0.000, 0.000, 16:50:14.033
181, -29.19, -21.79, -27.00, -20.12, -19.00, -25.48, -23.72, -20.54, -21.35, -19.71, -22.84, -23.25, -30.78, -23.85, -24.45, -19.89, 0.000, 0.000, 0.000, 16:50:14.033
182, -29.19, -21.79, -27.00, -20.12, -19.00, -25.48, -23.72, -20.54, -21.41, -19.47, -22.58, -23.47, -30.73, -23.63, -24.48, -19.92, 0.000, 0.000, 0.000, 16:50:14.034
183, -29.10, -21.75, -27.00, -20.09, -19.00, -25.30, -23.89, -20.36, -21.41, -19.47, -22.58, -23.47, -30.73, -23.63, -24.48, -19.92, 0.088, 0.952, -0.124, 16:50:14.034
184, -29.10, -21.75, -27.00, -20.09, -19.00, -25.30, -23.89, -20.36, -21.32, -19.78, -22.78, -23.31, -31.00, -23.63, -24.56, -19.96, 0.000, 0.000, 0.000, 16:50:14.035
185, -28.92, -21.73, -27.27, -19.87, -19.09, -25.28, -23.96, -20.34, -21.32, -19.78, -22.78, -23.31, -31.00, -23.63, -24.56, -19.96, 0.000, 0.000, 0.000, 16:50:14.035
186, -28.92, -21.73, -27.27, -19.87, -19.09, -25.28, -23.96, -20.34, -21.46, -19.67, -22.75, -23.38, -30.60, -23.56, -24.52, -19.89, 0.000, 0.000, 0.000, 16:50:14.035
187, -28.79, -21.93, -26.84, -20.05, -18.95, -25.35, -23.74, -20.21, -21.46, -19.67, -22.75, -23.38, -30.60, -23.56, -24.52, -19.89, 0.000, 0.000, 0.000, 16:50:14.036
188, -28.79, -21.93, -26.84, -20.05, -18.95, -25.35, -23.74, -20.21, -21.21, -19.71, -22.91, -23.54, -30.71, -23.60, -24.61, -19.83, 0.000, 0.000, 0.000, 16:50:14.036
189, -28.74, -21.88, -27.14, -19.94, -18.93, -25.28, -23.80, -20.52, -21.21, -19.71, -22.91, -23.54, -30.71, -23.60, -24.61, -19.83, 0.000, 0.000, 0.000, 16:50:14.036
190, -28.74, -21.88, -27.14, -19.94, -18.93, -25.28, -23.80, -20.52, -21.17, -19.87, -22.84, -23.29, -30.93, -23.74, -24.74, -19.96, 0.000, 0.000, 0.000, 16:50:14.037
191, -28.88, -21.73, -26.91, -20.03, -18.71, -25.19, -23.83, -20.72, -21.17, -19.87, -22.84, -23.29, -30.93, -23.74, -24.74, -19.96, 0.000, 0.000, 0.000, 16:50:14.037
192, -28.88, -21.73, -26.91, -20.03, -18.71, -25.19, -23.83, -20.72, -21.30, -19.85, -22.91, -23.45, -30.82, -23.56, -24.61, -19.89, 0.086, 0.952, -0.120, 16:50:14.038
193, -29.10, -21.84, -27.05, -20.00, -18.78, -25.28, -23.94, -20.47, -21.30, -19.85, -22.91, -23.45, -30.82, -23.56, -24.61, -19.89, 0.000, 0.000, 0.000, 16:50:14.038
194, -29.10, -21.84, -27.05, -20.00, -18.78, -25.28, -23.94, -20.47, -21.21, -19.74, -22.82, -23.34, -30.98, -23.51, -24.65, -19.85, 0.000, 0.000, 0.000, 16:50:14.038
195, -28.86, -21.99, -26.82, -19.89, -18.95, -25.37, -23.85, -20.52, -21.21, -19.74, -22.82, -23.34, -30.98, -23.51, -24.65, -19.85, 0.000, 0.000, 0.000, 16:50:14.039
196, -28.86, -21.99, -26.82, -19.89, -18.95, -25.37, -23.85, -20.52, -21.32, -19.76, -22.87, -23.29, -31.16, -23.58, -24.56, -19.96, 0.000, 0.000, 0.000, 16:50:14.039
197, -28.79, -21.86, -26.76, -19.98, -18.98, -25.48, -23.78, -20.52, -21.32, -19.76, -22.87, -23.29, -31.16, -23.58, -24.56, -19.96, 0.000, 0.000, 0.000, 16:50:14.040
198, -28.79, -21.86, -26.76, -19.98, -18.98, -25.48, -23.78, -20.52, -21.26, -19.62, -22.78, -23.27, -30.89, -23.58, -24.50, -20.05, 0.000, 0.000, 0.000, 16:50:14.040
199, -28.79, -21.84, -27.02, -19.94, -18.89, -25.26, -23.69, -20.43, -21.26, -19.62, -22.78, -23.27, -30.89, -23.58, -24.50, -20.05, 0.000, 0.000, 0.000, 16:50:14.040
200, -28.79, -21.84, -27.02, -19.94, -18.89, -25.26, -23.69, -20.43, -21.44, -19.78, -22.91, -23.42, -30.80, -23.78, -24.61, -19.83, 0.000, 0.000, 0.000, 16:50:14.041
201, -28.97, -21.70, -26.87, -19.98, -19.16, -25.15, -23.78, -20.34, -21.44, -19.78, -22.91, -23.42, -30.80, -23.78, -24.61, -19.83, 0.000, 0.000, 0.000, 16:50:14.041
202, -28.97, -21.70, -26.87, -19.98, -19.16, -25.15, -23.78, -20.34, -21.32, -19.49, -22.73, -23.40, -30.96, -23.54, -24.50, -19.87, 0.098, 0.952, -0.120, 16:50:14.041
203, -28.81, -21.52, -27.07, -19.96, -19.00, -25.28, -23.98, -20.50, -21.32, -19.49, -22.73, -23.40, -30.96, -23.54, -24.50, -19.87, 0.000, 0.000, 0.000, 16:50:14.042
204, -28.81, -21.52, -27.07, -19.96, -19.00, -25.28, -23.98, -20.50, -21.55, -19.85, -22.96, -23.09, -30.78, -23.49, -24.63, -19.87, 0.000, 0.000, 0.000, 16:50:14.042
205, -28.95, -21.84, -26.98, -19.89, -19.18, -25.32, -23.87, -20.43, -21.55, -19.85, -22.96, -23.09, -30.78, -23.49, -24.63, -19.87, 0.000, 0.000, 0.000, 16:50:14.042
206, -28.95, -21.84, -26.98, -19.89, -19.18, -25.32, -23.87, -20.43, -21.48, -19.56, -22.73, -23.27, -30.69, -23.56, -24.56, -19.83, 0.000, 0.000, 0.000, 16:50:14.043
207, -29.08, -21.66, -26.89, -19.98, -18.78, -25.39, -23.63, -20.56, -21.48, -19.56, -22.73, -23.27, -30.69, -23.56, -24.56, -19.83, 0.000, 0.000, 0.000, 16:50:14.043
208, -29.08, -21.66, -26.89, -19.98, -18.78, -25.39, -23.63, -20.56, -21.39, -19.62, -22.71, -23.25, -30.98, -23.83, -24.39, -19.74, 0.000, 0.000, 0.000, 16:50:14.044
209, -29.03, -21.59, -26.89, -19.98, -18.80, -25.21, -23.72, -20.52, -21.39, -19.62, -22.71, -23.25, -30.98, -23.83, -24.39, -19.74, 0.000, 0.000, 0.000, 16:50:14.044
210, -29.03, -21.59, -26.89, -19.98, -18.80, -25.21, -23.72, -20.52, -21.50, -19.74, -22.75, -23.40, -30.67, -23.58, -24.61, -19.96, 0.000, 0.000, 0.000, 16:50:14.044
211, -29.01, -21.88, -27.00, -19.80, -18.95, -25.30, -23.54, -20.43, -21.50, -19.74, -22.75, -23.40, -30.67, -23.58, -24.61, -19.96, 0.000, 0.000, 0.000, 16:50:14.045
212, -29.01, -21.88, -27.00, -19.80, -18.95, -25.30, -23.54, -20.43, -21.37, -19.96, -22.84, -23.51, -30.80, -23.40, -24.70, -19.96, 0.104, 0.960, -0.120, 16:50:14.045
213, -29.12, -21.77, -27.11, -20.16, -19.09, -25.26, -23.60, -20.41, -21.37, -19.96, -22.84, -23.51, -30.80, -23.40, -24.70, -19.96, 0.000, 0.000, 0.000, 16:50:14.045
214, -29.12, -21.77, -27.11, -20.16, -19.09, -25.26, -23.60, -20.41, -21.30, -19.71, -22.91, -23.40, -30.89, -23.49, -24.34, -19.76, 0.000, 0.000, 0.000, 16:50:14.046
215, -29.08, -21.75, -26.96, -20.14, -18.80, -25.30, -23.85, -20.43, -21.30, -19.71, -22.91, -23.40, -30.89, -23.49, -24.34, -19.76, 0.000, 0.000, 0.000, 16:50:14.046
216, -29.08, -21.75, -26.96, -20.14, -18.80, -25.30, -23.85, -20.43, -21.48, -19.60, -22.62, -23.42, -30.85, -23.72, -24.61, -19.96, 0.000, 0.000, 0.000, 16:50:14.047
217, -29.06, -21.82, -27.16, -20.07, -18.91, -25.30, -23.78, -20.25, -21.48, -19.60, -22.62, -23.42, -30.85, -23.72, -24.61, -19.96, 0.000, 0.000, 0.000, 16:50:14.047
218, -29.06, -21.82, -27.16, -20.07, -18.91, -25.30, -23.78, -20.25, -21.21, -19.71, -22.87, -23.45, -30.98, -23.72, -24.61, -20.07, 0.000, 0.000, 0.000, 16:50:14.047
219, -28.79, -21.70, -26.98, -19.98, -18.80, -25.35, -23.78, -20.61, -21.21, -19.71, -22.87, -23.45, -30.98, -23.72, -24.61, -20.07, 0.000, 0.000, 0.000, 16:50:14.049
220, -28.79, -21.70, -26.98, -19.98, -18.80, -25.35, -23.78, -20.61, -21.28, -19.58, -22.84, -23.40, -30.85, -23.63, -24.50, -19.78, 0.000, 0.000, 0.000, 16:50:14.050
221, -28.83, -21.93, -26.96, -19.98, -18.73, -25.24, -23.74, -20.56, -21.28, -19.58, -22.84, -23.40, -30.85, -23.63, -24.50, -19.78, 0.000, 0.000, 0.000, 16:50:14.050
222, -28.83, -21.93, -26.96, -19.98, -18.73, -25.24, -23.74, -20.56, -21.26, -19.92, -22.73, -23.13, -30.73, -23.49, -24.50, -19.89, 0.100, 0.958, -0.124, 16:50:14.050
223, -29.06, -21.77, -27.16, -20.00, -18.89, -25.28, -23.80, -20.47, -21.26, -19.92, -22.73, -23.13, -30.73, -23.49, -24.50, -19.89, 0.000, 0.000, 0.000, 16:50:14.051
224, -29.06, -21.77, -27.16, -20.00, -18.89, -25.28, -23.80, -20.47, -21.41, -19.76, -22.78, -23.22, -30.85, -23.25, -24.45, -20.00, 0.000, 0.000, 0.000, 16:50:14.051
225, -28.92, -21.86, -27.07, -19.96, -18.84, -25.10, -23.92, -20.41, -21.41, -19.76, -22.78, -23.22, -30.85, -23.25, -24.45, -20.00, 0.000, 0.000, 0.000, 16:50:14.052
226, -28.92, -21.86, -27.07, -19.96, -18.84, -25.10, -23.92, -20.41, -21.41, -19.56, -22.98, -23.29, -30.80, -23.40, -24.36, -20.25, 0.000, 0.000, 0.000, 16:50:14.052
227, -28.86, -21.64, -27.02, -19.96, -18.93, -25.32, -23.80, -20.59, -21.41, -19.56, -22.98, -23.29, -30.80, -23.40, -24.36, -20.25, 0.000, 0.000, 0.000, 16:50:14.052
228, -28.86, -21.64, -27.02, -19.96, -18.93, -25.32, -23.80, -20.59, -21.39, -19.83, -22.66, -23.47, -30.60, -23.58, -24.43, -19.85, 0.000, 0.000, 0.000, 16:50:14.053
229, -28.97, -21.68, -26.98, -19.94, -19.22, -25.39, -23.80, -20.50, -21.39, -19.83, -22.66, -23.47, -30.60, -23.58, -24.43, -19.85, 0.000, 0.000, 0.000, 16:50:14.053
230, -28.97, -21.68, -26.98, -19.94, -19.22, -25.39, -23.80, -20.50, -21.23, -19.40, -22.78, -23.34, -30.76, -23.58, -24.34, -19.87, 0.000, 0.000, 0.000, 16:50:14.053
231, -28.86, -21.61, -27.02, -20.07, -19.24, -25.39, -23.89, -20.25, -21.23, -19.40, -22.78, -23.34, -30.76, -23.58, -24.34, -19.87, 0.000, 0.000, 0.000, 16:50:14.486
232, -28.86, -21.61, -27.02, -20.07, -19.24, -25.39, -23.89, -20.25, -21.28, -19.83, -22.80, -23.27, -30.62, -23.45, -24.61, -19.71, 0.102, 0.962, -0.114, 16:50:14.487
233, -28.97, -21.79, -26.89, -20.16, -19.20, -24.99, -23.83, -20.52, -21.28, -19.83, -22.80, -23.27, -30.62, -23.45, -24.61, -19.71, 0.000, 0.000, 0.000, 16:50:14.487
234, -28.97, -21.79, -26.89, -20.16, -19.20, -24.99, -23.83, -20.52, -21.28, -19.62, -22.71, -23.56, -30.69, -23.63, -24.45, -19.94, 0.000, 0.000, 0.000, 16:50:14.487
235, -28.92, -21.79, -26.87, -19.92, -18.80, -25.48, -23.78, -20.45, -21.28, -19.62, -22.71, -23.56, -30.69, -23.63, -24.45, -19.94, 0.000, 0.000, 0.000, 16:50:14.488
236, -28.92, -21.79, -26.87, -19.92, -18.80, -25.48, -23.78, -20.45, -21.39, -19.80, -22.87, -23.38, -30.73, -23.58, -24.54, -19.96, 0.000, 0.000, 0.000, 16:50:14.488
237, -29.03, -21.88, -27.11, -20.03, -19.09, -25.37, -23.58, -20.41, -21.39, -19.80, -22.87, -23.38, -30.73, -23.58, -24.54, -19.96, 0.000, 0.000, 0.000, 16:50:14.489
238, -29.03, -21.88, -27.11, -20.03, -19.09, -25.37, -23.58, -20.41, -21.41, -19.80, -22.93, -23.49, -31.00, -23.63, -24.56, -19.56, 0.000, 0.000, 0.000, 16:50:14.489
239, -28.95, -21.99, -26.82, -20.05, -19.04, -25.50, -23.49, -20.38, -21.41, -19.80, -22.93, -23.49, -31.00, -23.63, -24.56, -19.56, 0.000, 0.000, 0.000, 16:50:14.489
240, -28.95, -21.99, -26.82, -20.05, -19.04, -25.50, -23.49, -20.38, -21.28, -19.89, -22.89, -23.45, -30.89, -23.45, -24.45, -20.03, 0.000, 0.000, 0.000, 16:50:14.489
241, -28.77, -21.79, -26.93, -19.96, -18.89, -24.97, -23.92, -19.96, -21.28, -19.89, -22.89, -23.45, -30.89, -23.45, -24.45, -20.03, 0.000, 0.000, 0.000, 16:50:14.490
242, -28.77, -21.79, -26.93, -19.96, -18.89, -24.97, -23.92, -19.96, -21.30, -19.78, -22.75, -23.31, -30.78, -23.65, -24.45, -20.07, 0.090, 0.954, -0.114, 16:50:14.490
243, -28.90, -21.75, -27.00, -19.94, -18.95, -25.57, -23.80, -20.45, -21.30, -19.78, -22.75, -23.31, -30.78, -23.65, -24.45, -20.07, 0.000, 0.000, 0.000, 16:50:14.490
244, -28.90, -21.75, -27.00, -19.94, -18.95, -25.57, -23.80, -20.45, -21.37, -19.87, -22.71, -23.49, -30.76, -23.56, -24.36, -19.87, 0.000, 0.000, 0.000, 16:50:14.491
245, -29.12, -21.88, -27.25, -19.83, -18.84, -25.28, -23.76, -20.59, -21.37, -19.87, -22.71, -23.49, -30.76, -23.56, -24.36, -19.87, 0.000, 0.000, 0.000, 16:50:14.491
246, -29.12, -21.88, -27.25, -19.83, -18.84, -25.28, -23.76, -20.59, -21.39, -19.71, -22.82, -23.34, -30.64, -23.63, -24.48, -20.05, 0.000, 0.000, 0.000, 16:50:14.491
247, -29.01, -21.88, -26.89, -19.83, -18.98, -25.15, -23.63, -20.41, -21.39, -19.71, -22.82, -23.34, -30.64, -23.63, -24.48, -20.05, 0.000, 0.000, 0.000, 16:50:14.492
248, -29.01, -21.88, -26.89, -19.83, -18.98, -25.15, -23.63, -20.41, -21.28, -19.54, -22.87, -23.38, -30.55, -23.54, -24.56, -20.03, 0.000, 0.000, 0.000, 16:50:14.492
249, -28.72, -21.93, -27.09, -19.85, -18.86, -25.28, -23.83, -20.41, -21.28, -19.54, -22.87, -23.38, -30.55, -23.54, -24.56, -20.03, 0.000, 0.000, 0.000, 16:50:14.493
250, -28.72, -21.93, -27.09, -19.85, -18.86, -25.28, -23.83, -20.41, -21.48, -19.45, -22.78, -23.42, -30.71, -23.54, -24.50, -19.83, 0.000, 0.000, 0.000, 16:50:14.493
251, -28.99, -21.86, -26.98, -19.92, -18.86, -25.30, -23.67, -20.38, -21.48, -19.45, -22.78, -23.42, -30.71, -23.54, -24.50, -19.83, 0.088, 0.952, -0.114, 16:50:14.493
252, -28.99, -21.86, -26.98, -19.92, -18.86, -25.30, -23.67, -20.38, -21.32, -19.71, -22.75, -23.07, -31.05, -23.54, -24.65, -20.07, 0.000, 0.000, 0.000, 16:50:14.493
253, -28.95, -21.84, -26.89, -19.94, -18.84, -25.21, -23.94, -20.34, -21.32, -19.71, -22.75, -23.07, -31.05, -23.54, -24.65, -20.07, 0.000, 0.000, 0.000, 16:50:14.494
254, -28.95, -21.84, -26.89, -19.94, -18.84, -25.21, -23.94, -20.34, -21.32, -19.76, -22.69, -23.27, -30.76, -23.74, -24.54, -20.05, 0.000, 0.000, 0.000, 16:50:14.494
255, -28.99, -21.82, -27.07, -20.23, -18.89, -25.28, -23.72, -20.47, -21.32, -19.76, -22.69, -23.27, -30.76, -23.74, -24.54, -20.05, 0.000, 0.000, 0.000, 16:50:14.494
0, -28.99, -21.82, -27.07, -20.23, -18.89, -25.28, -23.72, -20.47, -21.35, -19.76, -22.78, -23.31, -30.78, -23.74, -24.50, -19.89, 0.000, 0.000, 0.000, 16:50:14.495
1, -29.01, -21.77, -27.07, -20.14, -18.98, -24.94, -23.96, -20.45, -21.35, -19.76, -22.78, -23.31, -30.78, -23.74, -24.50, -19.89, 0.000, 0.000, 0.000, 16:50:14.495
2, -29.01, -21.77, -27.07, -20.14, -18.98, -24.94, -23.96, -20.45, -21.44, -19.49, -22.84, -23.31, -30.76, -23.65, -24.63, -19.83, 0.000, 0.000, 0.000, 16:50:14.495
3, -28.81, -21.59, -27.09, -19.80, -19.04, -25.32, -23.94, -20.25, -21.44, -19.49, -22.84, -23.31, -30.76, -23.65, -24.63, -19.83, 0.000, 0.000, 0.000, 16:50:14.495
4, -28.81, -21.59, -27.09, -19.80, -19.04, -25.32, -23.94, -20.25, -21.23, -19.65, -22.71, -23.40, -31.00, -23.56, -24.43, -19.65, 0.000, 0.000, 0.000, 16:50:14.496
5, -28.79, -21.97, -27.05, -19.94, -18.73, -25.21, -23.89, -20.34, -21.23, -19.65, -22.71, -23.40, -31.00, -23.56, -24.43, -19.65, 0.092, 0.962, -0.118, 16:50:14.496
6, -28.79, -21.97, -27.05, -19.94, -18.73, -25.21, -23.89, -20.34, -21.03, -19.45, -22.82, -23.18, -30.76, -23.69, -24.63, -19.96, 0.000, 0.000, 0.000, 16:50:14.496
7, -29.12, -21.68, -26.91, -19.87, -18.89, -25.37, -23.65, -20.63, -21.03, -19.45, -22.82, -23.18, -30.76, -23.69, -24.63, -19.96, 0.000, 0.000, 0.000, 16:50:14.496
8, -29.12, -21.68, -26.91, -19.87, -18.89, -25.37, -23.65, -20.63, -21.26, -19.71, -22.73, -23.34, -31.00, -23.63, -24.65, -19.85, 0.000, 0.000, 0.000, 16:50:14.497
9, -28.92, -21.75, -27.00, -19.98, -19.02, -25.37, -23.69, -20.61, -21.26, -19.71, -22.73, -23.34, -31.00, -23.63, -24.65, -19.85, 0.000, 0.000, 0.000, 16:50:14.497
10, -28.92, -21.75, -27.00, -19.98, -19.02, -25.37, -23.69, -20.61, -21.21, -19.62, -22.53, -23.36, -30.96, -23.74, -24.52, -19.74, 0.000, 0.000, 0.000, 16:50:14.497
11, -28.92, -21.99, -27.18, -19.78, -19.07, -25.17, -23.58, -20.56, -21.21, -19.62, -22.53, -23.36, -30.96, -23.74, -24.52, -19.74, 0.000, 0.000, 0.000, 16:50:14.497
12, -28.92, -21.99, -27.18, -19.78, -19.07, -25.17, -23.58, -20.56, -21.55, -19.78, -22.64, -23.27, -30.80, -23.54, -24.56, -19.71, 0.000, 0.000, 0.000, 16:50:14.498
13, -28.95, -21.82, -26.89, -19.76, -18.89, -25.10, -23.85, -20.52, -21.55, -19.78, -22.64, -23.27, -30.80, -23.54, -24.56, -19.71, 0.000, 0.000, 0.000, 16:50:14.498
14, -28.95, -21.82, -26.89, -19.76, -18.89, -25.10, -23.85, -20.52, -21.37, -19.78, -22.82, -23.31, -30.98, -23.63, -24.43, -19.62, 0.000, 0.000, 0.000, 16:50:14.498
15, -29.03, -21.79, -27.11, -19.80, -19.09, -25.35, -23.56, -20.38, -21.37, -19.78, -22.82, -23.31, -30.98, -23.63, -24.43, -19.62, 0.096, 0.960, -0.114, 16:50:14.499
16, -29.03, -21.79, -27.11, -19.80, -19.09, -25.35, -23.56, -20.38, -21.37, -19.78, -22.78, -23.29, -31.00, -23.49, -24.45, -19.89, 0.000, 0.000, 0.000, 16:50:14.499
17, -29.03, -21.84, -26.96, -20.12, -18.93, -25.48, -23.72, -20.47, -21.37, -19.78, -22.78, -23.29, -31.00, -23.49, -24.45, -19.89, 0.000, 0.000, 0.000, 16:50:14.499
18, -29.03, -21.84, -26.96, -20.12, -18.93, -25.48, -23.72, -20.47, -21.19, -19.71, -22.78, -23.31, -30.78, -23.49, -24.61, -19.98, 0.000, 0.000, 0.000, 16:50:14.499
19, -28.86, -21.70, -26.93, -19.87, -18.91, -25.46, -23.54, -20.47, -21.19, -19.71, -22.78, -23.31, -30.78, -23.49, -24.61, -19.98, 0.000, 0.000, 0.000, 16:50:14.500
20, -28.86, -21.70, -26.93, -19.87, -18.91, -25.46, -23.54, -20.47, -21.35, -19.65, -22.66, -23.18, -30.85, -23.54, -24.43, -19.96, 0.000, 0.000, 0.000, 16:50:14.500
21, -28.92, -21.82, -26.89, -19.98, -18.84, -25.44, -23.80, -20.41, -21.35, -19.65, -22.66, -23.18, -30.85, -23.54, -24.43, -19.96, 0.000, 0.000, 0.000, 16:50:14.500
22, -28.92, -21.82, -26.89, -19.98, -18.84, -25.44, -23.80, -20.41, -21.41, -19.65, -22.73, -23.25, -30.78, -23.72, -24.56, -20.00, 0.000, 0.000, 0.000, 16:50:14.501
23, -28.99, -21.77, -27.11, -20.07, -19.04, -25.35, -23.85, -20.34, -21.41, -19.65, -22.73, -23.25, -30.78, -23.72, -24.56, -20.00, 0.000, 0.000, 0.000, 16:50:14.501
24, -28.99, -21.77, -27.11, -20.07, -19.04, -25.35, -23.85, -20.34, -21.37, -19.69, -22.84, -23.16, -30.85, -23.67, -24.34, -19.96, 0.000, 0.000, 0.000, 16:50:14.501
25, -28.92, -21.88, -26.91, -19.83, -19.00, -25.30, -23.74, -20.36, -21.37, -19.69, -22.84, -23.16, -30.85, -23.67, -24.34, -19.96, 0.096, 0.960, -0.114, 16:50:14.502
26, -28.92, -21.88, -26.91, -19.83, -19.00, -25.30, -23.74, -20.36, -21.19, -19.71, -22.87, -23.36, -30.93, -23.65, -24.41, -19.67, 0.000, 0.000, 0.000, 16:50:14.502
27, -28.99, -21.64, -27.07, -19.98, -19.13, -25.41, -23.80, -20.61, -21.19, -19.71, -22.87, -23.36, -30.93, -23.65, -24.41, -19.67, 0.000, 0.000, 0.000, 16:50:14.502
28, -28.99, -21.64, -27.07, -19.98, -19.13, -25.41, -23.80, -20.61, -21.48, -19.60, -22.69, -23.11, -31.00, -23.78, -24.61, -19.85, 0.000, 0.000, 0.000, 16:50:14.503
29, -28.88, -21.88, -26.71, -19.76, -19.09, -25.32, -23.80, -20.41, -21.48, -19.60, -22.69, -23.11, -31.00, -23.78, -24.61, -19.85, 0.000, 0.000, 0.000, 16:50:14.503
30, -28.88, -21.88, -26.71, -19.76, -19.09, -25.32, -23.80, -20.41, -21.48, -19.78, -22.66, -23.13, -30.76, -23.54, -24.68, -19.85, 0.000, 0.000, 0.000, 16:50:14.504
31, -29.03, -21.84, -27.07, -20.09, -19.07, -25.24, -23.69, -20.38, -21.48, -19.78, -22.66, -23.13, -30.76, -23.54, -24.68, -19.85, 0.000, 0.000, 0.000, 16:50:14.504
32, -29.03, -21.84, -27.07, -20.09, -19.07, -25.24, -23.69, -20.38, -21.37, -19.74, -22.87, -23.40, -30.87, -23.49, -24.56, -19.94, 0.000, 0.000, 0.000, 16:50:14.504
33, -28.77, -21.95, -27.16, -19.67, -18.95, -25.48, -23.49, -20.34, -21.37, -19.74, -22.87, -23.40, -30.87, -23.49, -24.56, -19.94, 0.000, 0.000, 0.000, 16:50:14.505
34, -28.77, -21.95, -27.16, -19.67, -18.95, -25.48, -23.49, -20.34, -21.28, -19.60, -22.82, -23.36, -30.69, -23.54, -24.65, -19.78, 0.000, 0.000, 0.000, 16:50:14.505
35, -28.88, -21.95, -27.00, -19.89, -19.13, -25.26, -23.56, -20.43, -21.28, -19.60, -22.82, -23.36, -30.69, -23.54, -24.65, -19.78, 0.094, 0.960, -0.114, 16:50:14.506
36, -28.88, -21.95, -27.00, -19.89, -19.13, -25.26, -23.56, -20.43, -21.55, -19.92, -22.66, -23.29, -30.89, -23.45, -24.70, -20.05, 0.000, 0.000, 0.000, 16:50:14.506
37, -28.90, -22.02, -26.84, -19.87, -19.16, -25.24, -23.72, -20.30, -21.55, -19.92, -22.66, -23.29, -30.89, -23.45, -24.70, -20.05, 0.000, 0.000, 0.000, 16:50:14.506
38, -28.90, -22.02, -26.84, -19.87, -19.16, -25.24, -23.72, -20.30, -21.32, -19.71, -22.73, -23.36, -30.89, -23.47, -24.54, -19.89, 0.000, 0.000, 0.000, 16:50:14.507
39, -29.01, -21.82, -26.91, -19.98, -19.07, -25.32, -23.69, -20.47, -21.32, -19.71, -22.73, -23.36, -30.89, -23.47, -24.54, -19.89, 0.000, 0.000, 0.000, 16:50:14.507
40, -29.01, -21.82, -26.91, -19.98, -19.07, -25.32, -23.69, -20.47, -21.59, -19.54, -22.71, -23.34, -30.93, -23.63, -24.56, -20.00, 0.000, 0.000, 0.000, 16:50:14.508
41, -28.99, -21.75, -26.98, -19.85, -19.04, -25.10, -23.69, -20.43, -21.59, -19.54, -22.71, -23.34, -30.93, -23.63, -24.56, -20.00, 0.000, 0.000, 0.000, 16:50:14.508
42, -28.99, -21.75, -26.98, -19.85, -19.04, -25.10, -23.69, -20.43, -21.57, -19.67, -22.64, -23.38, -30.80, -23.92, -24.72, -20.03, 0.000, 0.000, 0.000, 16:50:14.508
43, -29.21, -21.79, -26.89, -20.05, -18.91, -25.41, -23.78, -20.45, -21.57, -19.67, -22.64, -23.38, -30.80, -23.92, -24.72, -20.03, 0.000, 0.000, 0.000, 16:50:14.509
44, -29.21, -21.79, -26.89, -20.05, -18.91, -25.41, -23.78, -20.45, -21.32, -19.69, -22.46, -23.27, -30.73, -23.78, -24.61, -19.87, 0.094, 0.960, -0.112, 16:50:14.510
45, -29.03, -21.59, -26.82, -19.98, -19.04, -25.48, -23.65, -20.45, -21.32, -19.69, -22.46, -23.27, -30.73, -23.78, -24.61, -19.87, 0.000, 0.000, 0.000, 16:50:14.511
46, -29.03, -21.59, -26.82, -19.98, -19.04, -25.48, -23.65, -20.45, -21.06, -19.67, -22.78, -23.40, -30.64, -23.58, -24.30, -19.98, 0.000, 0.000, 0.000, 16:50:14.511
47, -29.03, -21.73, -27.07, -19.96, -19.13, -25.50, -23.85, -20.23, -21.06, -19.67, -22.78, -23.40, -30.64, -23.58, -24.30, -19.98, 0.000, 0.000, 0.000, 16:50:14.512
48, -29.03, -21.73, -27.07, -19.96, -19.13, -25.50, -23.85, -20.23, -21.35, -19.69, -22.75, -23.22, -30.73, -23.51, -24.39, -20.07, 0.000, 0.000, 0.000, 16:50:14.513
49, -28.95, -21.86, -26.84, -19.96, -19.00, -25.12, -23.80, -20.56, -21.35, -19.69, -22.75, -23.22, -30.73, -23.51, -24.39, -20.07, 0.000, 0.000, 0.000, 16:50:14.513
50, -28.95, -21.86, -26.84, -19.96, -19.00, -25.12, -23.80, -20.56, -21.44, -19.80, -22.91, -23.45, -30.87, -23.67, -24.45, -19.83, 0.000, 0.000, 0.000, 16:50:14.514
51, -28.61, -21.95, -27.02, -20.07, -19.04, -25.28, -23.67, -20.56, -21.44, -19.80, -22.91, -23.45, -30.87, -23.67, -24.45, -19.83, 0.000, 0.000, 0.000, 16:50:14.514
52, -28.61, -21.95, -27.02, -20.07, -19.04, -25.28, -23.67, -20.56, -21.37, -19.85, -22.87, -23.47, -30.78, -23.51, -24.30, -19.85, 0.000, 0.000, 0.000, 16:50:14.515
53, -29.03, -21.79, -26.89, -19.98, -18.82, -25.32, -23.63, -20.54, -21.37, -19.85, -22.87, -23.47, -30.78, -23.51, -24.30, -19.85, 0.000, 0.000, 0.000, 16:50:14.515
54, -29.03, -21.79, -26.89, -19.98, -18.82, -25.32, -23.63, -20.54, -21.26, -19.83, -22.62, -23.09, -30.82, -23.78, -24.48, -19.74, 0.092, 0.958, -0.112, 16:50:14.515
55, -28.88, -21.82, -26.78, -20.12, -19.07, -25.46, -23.80, -20.36, -21.26, -19.83, -22.62, -23.09, -30.82, -23.78, -24.48, -19.74, 0.000, 0.000, 0.000, 16:50:14.516
56, -28.88, -21.82, -26.78, -20.12, -19.07, -25.46, -23.80, -20.36, -21.35, -19.94, -22.78, -23.18, -30.82, -23.40, -24.32, -19.87, 0.000, 0.000, 0.000, 16:50:14.516
57, -28.97, -21.97, -26.89, -19.96, -18.89, -25.32, -23.80, -20.38, -21.35, -19.94, -22.78, -23.18, -30.82, -23.40, -24.32, -19.87, 0.000, 0.000, 0.000, 16:50:14.517
58, -28.97, -21.97, -26.89, -19.96, -18.89, -25.32, -23.80, -20.38, -21.37, -19.78, -22.75, -23.18, -30.98, -23.63, -24.41, -20.07, 0.000, 0.000, 0.000, 16:50:14.518
59, -28.95, -21.86, -27.00, -20.00, -18.82, -25.37, -23.78, -20.41, -21.37, -19.78, -22.75, -23.18, -30.98, -23.63, -24.41, -20.07, 0.000, 0.000, 0.000, 16:50:14.519
60, -28.95, -21.86, -27.00, -20.00, -18.82, -25.37, -23.78, -20.41, -21.39, -19.69, -22.55, -23.07, -30.87, -23.58, -24.45, -20.07, 0.000, 0.000, 0.000, 16:50:14.519
61, -28.97, -22.06, -26.89, -19.92, -18.78, -25.19, -23.69, -20.54, -21.39, -19.69, -22.55, -23.07, -30.87, -23.58, -24.45, -20.07, 0.000, 0.000, 0.000, 16:50:14.519
62, -28.97, -22.06, -26.89, -19.92, -18.78, -25.19, -23.69, -20.54, -21.35, -19.71, -22.89, -23.22, -30.93, -23.69, -24.50, -19.85, 0.000, 0.000, 0.000, 16:50:14.520
63, -28.63, -21.88, -26.93, -19.89, -18.98, -25.26, -23.76, -20.61, -21.35, -19.71, -22.89, -23.22, -30.93, -23.69, -24.50, -19.85, 0.000, 0.000, 0.000, 16:50:14.520
64, -28.63, -21.88, -26.93, -19.89, -18.98, -25.26, -23.76, -20.61, -21.35, -19.76, -22.80, -23.29, -31.02, -23.47, -24.54, -19.74, 0.078, 0.956, -0.106, 16:50:14.520
65, -28.95, -21.59, -27.00, -20.16, -18.95, -25.39, -23.78, -20.68, -21.35, -19.76, -22.80, -23.29, -31.02, -23.47, -24.54, -19.74, 0.000, 0.000, 0.000, 16:50:14.521
66, -28.95, -21.59, -27.00, -20.16, -18.95, -25.39, -23.78, -20.68, -21.55, -19.69, -22.75, -23.20, -31.18, -23.56, -24.50, -20.09, 0.000, 0.000, 0.000, 16:50:14.521
67, -29.08, -21.82, -27.02, -20.07, -19.00, -25.46, -23.69, -20.52, -21.55, -19.69, -22.75, -23.20, -31.18, -23.56, -24.50, -20.09, 0.000, 0.000, 0.000, 16:50:14.522
68, -29.08, -21.82, -27.02, -20.07, -19.00, -25.46, -23.69, -20.52, -21.41, -20.00, -22.66, -23.34, -30.85, -23.83, -24.59, -19.87, 0.000, 0.000, 0.000, 16:50:14.522
69, -28.83, -21.82, -26.98, -19.89, -19.02, -25.15, -23.85, -20.56, -21.41, -20.00, -22.66, -23.34, -30.85, -23.83, -24.59, -19.87, 0.000, 0.000, 0.000, 16:50:14.522
70, -28.83, -21.82, -26.98, -19.89, -19.02, -25.15, -23.85, -20.56, -21.37, -19.76, -22.84, -23.22, -30.89, -23.60, -24.77, -19.87, 0.000, 0.000, 0.000, 16:50:14.523
71, -28.97, -21.84, -27.02, -20.05, -18.93, -25.30, -23.74, -20.61, -21.37, -19.76, -22.84, -23.22, -30.89, -23.60, -24.77, -19.87, 0.000, 0.000, 0.000, 16:50:14.523
72, -28.97, -21.84, -27.02, -20.05, -18.93, -25.30, -23.74, -20.61, -21.08, -19.69, -23.04, -23.31, -31.02, -23.56, -24.59, -19.96, 0.000, 0.000, 0.000, 16:50:14.523
73, -28.95, -21.64, -27.16, -19.87, -19.02, -25.44, -23.78, -20.27, -21.08, -19.69, -23.04, -23.31, -31.02, -23.56, -24.59, -19.96, 0.000, 0.000, 0.000, 16:50:14.524
74, -28.95, -21.64, -27.16, -19.87, -19.02, -25.44, -23.78, -20.27, -21.35, -19.74, -22.80, -23.38, -30.89, -23.54, -24.39, -19.87, 0.068, 0.960, -0.110, 16:50:14.524
75, -28.88, -21.73, -26.87, -20.07, -19.11, -25.44, -23.72, -20.38, -21.35, -19.74, -22.80, -23.38, -30.89, -23.54, -24.39, -19.87, 0.000, 0.000, 0.000, 16:50:14.525
76, -28.88, -21.73, -26.87, -20.07, -19.11, -25.44, -23.72, -20.38, -21.28, -19.60, -22.75, -23.34, -30.89, -23.56, -24.72, -19.71, 0.000, 0.000, 0.000, 16:50:14.525
77, -28.74, -21.79, -27.22, -19.96, -18.89, -25.24, -23.74, -20.61, -21.28, -19.60, -22.75, -23.34, -30.89, -23.56, -24.72, -19.71, 0.000, 0.000, 0.000, 16:50:14.525
78, -28.74, -21.79, -27.22, -19.96, -18.89, -25.24, -23.74, -20.61, -21.23, -19.65, -22.98, -23.27, -30.73, -23.67, -24.45, -19.92, 0.000, 0.000, 0.000, 16:50:14.526
79, -28.72, -21.90, -27.00, -20.00, -18.84, -25.12, -23.67, -20.76, -21.23, -19.65, -22.98, -23.27, -30.73, -23.67, -24.45, -19.92, 0.000, 0.000, 0.000, 16:50:14.526
80, -28.72, -21.90, -27.00, -20.00, -18.84, -25.12, -23.67, -20.76, -21.32, -19.69, -22.80, -23.11, -30.87, -23.92, -24.74, -20.00, 0.000, 0.000, 0.000, 16:50:14.526
81, -28.83, -21.84, -26.91, -20.12, -18.80, -25.41, -23.76, -20.76, -21.32, -19.69, -22.80, -23.11, -30.87, -23.92, -24.74, -20.00, 0.000, 0.000, 0.000, 16:50:14.527
82, -28.83, -21.84, -26.91, -20.12, -18.80, -25.41, -23.76, -20.76, -21.57, -19.67, -22.69, -23.25, -30.96, -23.69, -24.54, -19.92, 0.000, 0.000, 0.000, 16:50:14.528
83, -28.83, -21.84, -27.00, -20.16, -18.86, -25.12, -23.65, -20.38, -21.57, -19.67, -22.69, -23.25, -30.96, -23.69, -24.54, -19.92, 0.000, 0.000, 0.000, 16:50:14.528
84, -28.83, -21.84, -27.00, -20.16, -18.86, -25.12, -23.65, -20.38, -21.52, -19.51, -22.78, -23.36, -30.91, -23.72, -24.68, -19.83, 0.068, 0.956, -0.112, 16:50:14.528
85, -28.97, -21.84, -27.05, -20.05, -18.84, -25.08, -23.85, -20.34, -21.52, -19.51, -22.78, -23.36, -30.91, -23.72, -24.68, -19.83, 0.000, 0.000, 0.000, 16:50:14.529
86, -28.97, -21.84, -27.05, -20.05, -18.84, -25.08, -23.85, -20.34, -21.37, -19.67, -22.82, -23.20, -30.85, -23.45, -24.79, -19.78, 0.000, 0.000, 0.000, 16:50:14.529
87, -28.92, -21.75, -26.91, -19.87, -18.84, -25.28, -23.67, -20.79, -21.37, -19.67, -22.82, -23.20, -30.85, -23.45, -24.79, -19.78, 0.000, 0.000, 0.000, 16:50:14.530
88, -28.92, -21.75, -26.91, -19.87, -18.84, -25.28, -23.67, -20.79, -21.19, -19.78, -22.51, -23.20, -30.85, -23.54, -24.70, -19.98, 0.000, 0.000, 0.000, 16:50:14.530
89, -28.83, -22.13, -27.11, -19.65, -19.13, -25.41, -23.67, -20.68, -21.19, -19.78, -22.51, -23.20, -30.85, -23.54, -24.70, -19.98, 0.000, 0.000, 0.000, 16:50:14.531
90, -28.83, -22.13, -27.11, -19.65, -19.13, -25.41, -23.67, -20.68, -21.55, -20.00, -22.80, -23.45, -30.80, -23.54, -24.72, -20.03, 0.000, 0.000, 0.000, 16:50:14.531
91, -29.01, -21.73, -26.93, -19.89, -19.09, -25.30, -23.74, -20.65, -21.55, -20.00, -22.80, -23.45, -30.80, -23.54, -24.72, -20.03, 0.000, 0.000, 0.000, 16:50:14.531
92, -29.01, -21.73, -26.93, -19.89, -19.09, -25.30, -23.74, -20.65, -21.48, -19.56, -22.93, -23.34, -30.76, -23.67, -24.50, -19.94, 0.000, 0.000, 0.000, 16:50:14.532
93, -28.99, -21.82, -27.00, -20.18, -18.98, -25.08, -23.54, -20.59, -21.48, -19.56, -22.93, -23.34, -30.76, -23.67, -24.50, -19.94, 0.072, 0.960, -0.110, 16:50:14.533
94, -28.99, -21.82, -27.00, -20.18, -18.98, -25.08, -23.54, -20.59, -21.39, -19.45, -23.02, -23.20, -30.80, -23.36, -24.39, -19.74, 0.000, 0.000, 0.000, 16:50:14.534
95, -28.97, -21.90, -27.07, -20.07, -18.71, -25.32, -23.80, -20.52, -21.39, -19.45, -23.02, -23.20, -30.80, -23.36, -24.39, -19.74, 0.000, 0.000, 0.000, 16:50:14.861
96, -28.97, -21.90, -27.07, -20.07, -18.71, -25.32, -23.80, -20.52, -21.44, -19.67, -22.75, -23.22, -30.82, -23.72, -24.48, -20.00, 0.000, 0.000, 0.000, 16:50:14.862
97, -28.86, -21.97, -27.22, -20.12, -19.11, -25.17, -23.94, -20.50, -21.44, -19.67, -22.75, -23.22, -30.82, -23.72, -24.48, -20.00, 0.000, 0.000, 0.000, 16:50:14.862
98, -28.86, -21.97, -27.22, -20.12, -19.11, -25.17, -23.94, -20.50, -21.19, -19.65, -22.84, -23.47, -30.96, -23.74, -24.54, -19.96, 0.000, 0.000, 0.000, 16:50:14.862
99, -28.90, -22.02, -26.96, -19.94, -18.93, -25.35, -23.87, -20.54, -21.19, -19.65, -22.84, -23.47, -30.96, -23.74, -24.54, -19.96, 0.000, 0.000, 0.000, 16:50:14.863
100, -28.90, -22.02, -26.96, -19.94, -18.93, -25.35, -23.87, -20.54, -21.32, -19.87, -22.53, -23.09, -30.82, -23.58, -24.61, -19.78, 0.000, 0.000, 0.000, 16:50:14.863
101, -29.15, -21.82, -26.78, -19.94, -18.89, -25.37, -23.89, -20.54, -21.32, -19.87, -22.53, -23.09, -30.82, -23.58, -24.61, -19.78, 0.000, 0.000, 0.000, 16:50:14.864
102, -29.15, -21.82, -26.78, -19.94, -18.89, -25.37, -23.89, -20.54, -21.28, -19.89, -22.64, -23.31, -30.73, -23.65, -24.56, -19.80, 0.000, 0.000, 0.000, 16:50:14.864
103, -28.83, -21.61, -26.76, -20.00, -18.98, -25.21, -23.80, -20.59, -21.28, -19.89, -22.64, -23.31, -30.73, -23.65, -24.56, -19.80, 0.088, 0.954, -0.112, 16:50:14.864
104, -28.83, -21.61, -26.76, -20.00, -18.98, -25.21, -23.80, -20.59, -21.37, -19.83, -22.84, -23.36, -30.71, -23.51, -24.56, -19.83, 0.000, 0.000, 0.000, 16:50:14.865
105, -28.99, -21.79, -27.09, -20.07, -19.09, -25.17, -23.60, -20.54, -21.37, -19.83, -22.84, -23.36, -30.71, -23.51, -24.56, -19.83, 0.000, 0.000, 0.000, 16:50:14.865
106, -28.99, -21.79, -27.09, -20.07, -19.09, -25.17, -23.60, -20.54, -21.19, -19.74, -22.71, -23.22, -30.78, -23.54, -24.43, -20.03, 0.000, 0.000, 0.000, 16:50:14.865
107, -28.99, -21.55, -26.78, -20.03, -19.00, -25.28, -23.78, -20.45, -21.19, -19.74, -22.71, -23.22, -30.78, -23.54, -24.43, -20.03, 0.000, 0.000, 0.000, 16:50:14.866
108, -28.99, -21.55, -26.78, -20.03, -19.00, -25.28, -23.78, -20.45, -21.23, -19.69, -22.82, -23.42, -30.82, -23.78, -24.65, -20.05, 0.000, 0.000, 0.000, 16:50:14.866
109, -28.81, -21.66, -26.98, -20.05, -19.00, -25.32, -23.69, -20.36, -21.23, -19.69, -22.82, -23.42, -30.82, -23.78, -24.65, -20.05, 0.000, 0.000, 0.000, 16:50:14.867
110, -28.81, -21.66, -26.98, -20.05, -19.00, -25.32, -23.69, -20.36, -21.08, -19.76, -22.55, -23.36, -30.80, -23.67, -24.68, -19.98, 0.000, 0.000, 0.000, 16:50:14.867
111, -29.03, -21.97, -26.98, -19.83, -19.09, -25.28, -23.80, -20.54, -21.08, -19.76, -22.55, -23.36, -30.80, -23.67, -24.68, -19.98, 0.000, 0.000, 0.000, 16:50:14.867
112, -29.03, -21.97, -26.98, -19.83, -19.09, -25.28, -23.80, -20.54, -21.26, -19.58, -22.87, -23.22, -30.87, -23.67, -24.74, -19.94, 0.000, 0.000, 0.000, 16:50:14.868
113, -28.95, -21.90, -27.16, -19.96, -19.18, -25.26, -23.67, -20.54, -21.26, -19.58, -22.87, -23.22, -30.87, -23.67, -24.74, -19.94, 0.106, 0.958, -0.108, 16:50:14.868
114, -28.95, -21.90, -27.16, -19.96, -19.18, -25.26, -23.67, -20.54, -21.30, -19.76, -22.84, -23.36, -30.85, -23.49, -24.56, -19.78, 0.000, 0.000, 0.000, 16:50:14.869
115, -29.06, -21.61, -26.98, -19.83, -19.09, -25.19, -23.49, -20.36, -21.30, -19.76, -22.84, -23.36, -30.85, -23.49, -24.56, -19.78, 0.000, 0.000, 0.000, 16:50:14.869
116, -29.06, -21.61, -26.98, -19.83, -19.09, -25.19, -23.49, -20.36, -21.32, -19.65, -22.78, -23.36, -30.98, -23.54, -24.39, -19.94, 0.000, 0.000, 0.000, 16:50:14.869
117, -28.92, -21.84, -27.16, -20.12, -19.07, -25.21, -23.89, -20.50, -21.32, -19.65, -22.78, -23.36, -30.98, -23.54, -24.39, -19.94, 0.000, 0.000, 0.000, 16:50:14.870
118, -28.92, -21.84, -27.16, -20.12, -19.07, -25.21, -23.89, -20.50, -21.50, -19.67, -22.58, -23.31, -30.78, -23.51, -24.54, -20.05, 0.000, 0.000, 0.000, 16:50:14.870
119, -28.99, -22.20, -27.34, -19.74, -19.07, -25.19, -23.69, -20.32, -21.50, -19.67, -22.58, -23.31, -30.78, -23.51, -24.54, -20.05, 0.000, 0.000, 0.000, 16:50:14.870
120, -28.99, -22.20, -27.34, -19.74, -19.07, -25.19, -23.69, -20.32, -21.35, -19.85, -22.87, -23.36, -30.96, -23.54, -24.54, -20.07, 0.000, 0.000, 0.000, 16:50:14.871
121, -28.90, -22.06, -26.98, -19.80, -18.73, -25.39, -23.67, -20.56, -21.35, -19.85, -22.87, -23.36, -30.96, -23.54, -24.54, -20.07, 0.000, 0.000, 0.000, 16:50:14.871
122, -28.90, -22.06, -26.98, -19.80, -18.73, -25.39, -23.67, -20.56, -21.41, -19.74, -22.71, -23.42, -30.82, -23.60, -24.86, -19.96, 0.000, 0.000, 0.000, 16:50:14.872
123, -28.86, -21.70, -26.73, -20.07, -19.09, -25.28, -23.60, -20.18, -21.41, -19.74, -22.71, -23.42, -30.82, -23.60, -24.86, -19.96, 0.124, 0.960, -0.106, 16:50:14.872
124, -28.86, -21.70, -26.73, -20.07, -19.09, -25.28, -23.60, -20.18, -21.37, -19.62, -22.62, -23.34, -30.85, -23.54, -24.48, -19.92, 0.000, 0.000, 0.000, 16:50:14.872
125, -28.99, -21.97, -26.80, -19.92, -18.91, -25.26, -23.63, -20.34, -21.37, -19.62, -22.62, -23.34, -30.85, -23.54, -24.48, -19.92, 0.000, 0.000, 0.000, 16:50:14.873
126, -28.99, -21.97, -26.80, -19.92, -18.91, -25.26, -23.63, -20.34, -21.21, -19.67, -22.69, -23.45, -30.80, -23.65, -24.59, -19.94, 0.000, 0.000, 0.000, 16:50:14.873
127, -29.37, -21.90, -26.87, -20.03, -18.86, -25.21, -23.76, -20.47, -21.21, -19.67, -22.69, -23.45, -30.80, -23.65, -24.59, -19.94, 0.000, 0.000, 0.000, 16:50:14.874
128, -29.37, -21.90, -26.87, -20.03, -18.86, -25.21, -23.76, -20.47, -21.52, -19.65, -22.64, -23.29, -30.82, -23.58, -24.45, -19.78, 0.000, 0.000, 0.000, 16:50:14.874
129, -28.77, -21.79, -26.71, -20.18, -18.95, -25.46, -23.65, -20.32, -21.52, -19.65, -22.64, -23.29, -30.82, -23.58, -24.45, -19.78, 0.000, 0.000, 0.000, 16:50:14.874
130, -28.77, -21.79, -26.71, -20.18, -18.95, -25.46, -23.65, -20.32, -21.37, -19.76, -22.75, -23.22, -30.93, -23.63, -24.56, -19.83, 0.000, 0.000, 0.000, 16:50:14.875
131, -29.01, -21.88, -27.07, -20.09, -18.86, -25.32, -23.63, -20.25, -21.37, -19.76, -22.75, -23.22, -30.93, -23.63, -24.56, -19.83, 0.000, 0.000, 0.000, 16:50:14.875
132, -29.01, -21.88, -27.07, -20.09, -18.86, -25.32, -23.63, -20.25, -21.50, -19.76, -22.93, -23.58, -30.71, -23.60, -24.34, -19.80, 0.000, 0.000, 0.000, 16:50:14.875
133, -28.99, -21.99, -27.22, -20.09, -18.84, -25.53, -23.69, -20.23, -21.50, -19.76, -22.93, -23.58, -30.71, -23.60, -24.34, -19.80, 0.120, 0.950, -0.100, 16:50:14.876
134, -28.99, -21.99, -27.22, -20.09, -18.84, -25.53, -23.69, -20.23, -21.32, -19.67, -22.75, -23.27, -30.76, -23.63, -24.48, -20.12, 0.000, 0.000, 0.000, 16:50:14.876
135, -28.99, -21.70, -26.84, -19.85, -19.11, -25.41, -23.76, -20.30, -21.32, -19.67, -22.75, -23.27, -30.76, -23.63, -24.48, -20.12, 0.000, 0.000, 0.000, 16:50:14.876
136, -28.99, -21.70, -26.84, -19.85, -19.11, -25.41, -23.76, -20.30, -21.32, -19.58, -22.73, -23.20, -30.62, -23.60, -24.41, -19.92, 0.000, 0.000, 0.000, 16:50:14.877
137, -28.86, -21.79, -26.91, -20.12, -18.89, -25.21, -23.98, -20.50, -21.32, -19.58, -22.73, -23.20, -30.62, -23.60, -24.41, -19.92, 0.000, 0.000, 0.000, 16:50:14.877
138, -28.86, -21.79, -26.91, -20.12, -18.89, -25.21, -23.98, -20.50, -21.14, -19.89, -22.84, -23.27, -30.69, -23.45, -24.52, -19.94, 0.000, 0.000, 0.000, 16:50:14.877
139, -28.79, -21.79, -27.25, -19.87, -19.04, -25.41, -23.65, -20.47, -21.14, -19.89, -22.84, -23.27, -30.69, -23.45, -24.52, -19.94, 0.000, 0.000, 0.000, 16:50:14.878
140, -28.79, -21.79, -27.25, -19.87, -19.04, -25.41, -23.65, -20.47, -21.28, -19.78, -22.73, -23.22, -30.98, -23.67, -24.48, -19.98, 0.000, 0.000, 0.000, 16:50:14.878
141, -28.86, -21.84, -27.16, -19.85, -18.95, -25.19, -23.87, -20.32, -21.28, -19.78, -22.73, -23.22, -30.98, -23.67, -24.48, -19.98, 0.000, 0.000, 0.000, 16:50:14.878
142, -28.86, -21.84, -27.16, -19.85, -18.95, -25.19, -23.87, -20.32, -21.48, -19.92, -22.75, -23.22, -30.93, -23.72, -24.41, -19.89, 0.000, 0.000, 0.000, 16:50:14.879
143, -28.83, -21.50, -27.00, -19.80, -18.89, -25.32, -23.94, -20.36, -21.48, -19.92, -22.75, -23.22, -30.93, -23.72, -24.41, -19.89, 0.104, 0.948, -0.110, 16:50:14.879
144, -28.83, -21.50, -27.00, -19.80, -18.89, -25.32, -23.94, -20.36, -21.39, -19.83, -22.84, -23.27, -30.89, -23.76, -24.68, -19.87, 0.000, 0.000, 0.000, 16:50:14.880
145, -28.79, -21.82, -27.05, -20.03, -19.09, -25.19, -23.60, -20.38, -21.39, -19.83, -22.84, -23.27, -30.89, -23.76, -24.68, -19.87, 0.000, 0.000, 0.000, 16:50:14.880
146, -28.79, -21.82, -27.05, -20.03, -19.09, -25.19, -23.60, -20.38, -21.50, -19.87, -22.78, -23.29, -31.00, -23.60, -24.63, -20.03, 0.000, 0.000, 0.000, 16:50:14.880
147, -28.88, -21.68, -27.05, -20.03, -19.02, -25.32, -23.67, -20.34, -21.50, -19.87, -22.78, -23.29, -31.00, -23.60, -24.63, -20.03, 0.000, 0.000, 0.000, 16:50:14.881
148, -28.88, -21.68, -27.05, -20.03, -19.02, -25.32, -23.67, -20.34, -21.48, -19.87, -22.80, -23.47, -30.93, -23.49, -24.45, -20.14, 0.000, 0.000, 0.000, 16:50:14.881
149, -29.15, -21.79, -27.00, -19.96, -18.91, -25.26, -23.76, -20.41, -21.48, -19.87, -22.80, -23.47, -30.93, -23.49, -24.45, -20.14, 0.000, 0.000, 0.000, 16:50:14.884
150, -29.15, -21.79, -27.00, -19.96, -18.91, -25.26, -23.76, -20.41, -21.37, -19.94, -22.69, -23.36, -30.98, -23.51, -24.56, -19.80, 0.000, 0.000, 0.000, 16:50:14.884
151, -28.95, -21.82, -27.05, -19.89, -19.11, -25.35, -23.63, -20.41, -21.37, -19.94, -22.69, -23.36, -30.98, -23.51, -24.56, -19.80, 0.000, 0.000, 0.000, 16:50:14.885
152, -28.95, -21.82, -27.05, -19.89, -19.11, -25.35, -23.63, -20.41, -21.57, -19.76, -22.75, -23.27, -30.89, -23.54, -24.52, -19.89, 0.082, 0.954, -0.114, 16:50:14.885
153, -29.08, -21.79, -27.07, -19.80, -19.02, -25.17, -23.63, -20.45, -21.57, -19.76, -22.75, -23.27, -30.89, -23.54, -24.52, -19.89, 0.000, 0.000, 0.000, 16:50:14.886
154, -29.08, -21.79, -27.07, -19.80, -19.02, -25.17, -23.63, -20.45, -21.39, -19.80, -22.96, -23.38, -30.80, -23.40, -24.70, -19.69, 0.000, 0.000, 0.000, 16:50:14.886
155, -28.90, -21.84, -26.89, -19.94, -18.98, -25.21, -23.51, -20.45, -21.39, -19.80, -22.96, -23.38, -30.80, -23.40, -24.70, -19.69, 0.000, 0.000, 0.000, 16:50:14.887
156, -28.90, -21.84, -26.89, -19.94, -18.98, -25.21, -23.51, -20.45, -21.41, -19.74, -22.89, -23.29, -30.80, -23.69, -24.52, -19.80, 0.000, 0.000, 0.000, 16:50:14.887
157, -28.92, -21.90, -26.89, -20.05, -19.00, -25.35, -23.80, -20.52, -21.41, -19.74, -22.89, -23.29, -30.80, -23.69, -24.52, -19.80, 0.000, 0.000, 0.000, 16:50:14.888
158, -28.92, -21.90, -26.89, -20.05, -19.00, -25.35, -23.80, -20.52, -21.50, -19.71, -22.80, -23.13, -30.96, -23.49, -24.45, -20.07, 0.000, 0.000, 0.000, 16:50:14.888
159, -28.88, -21.99, -27.05, -20.18, -18.91, -25.15, -23.60, -20.45, -21.50, -19.71, -22.80, -23.13, -30.96, -23.49, -24.45, -20.07, 0.000, 0.000, 0.000, 16:50:14.889
160, -28.88, -21.99, -27.05, -20.18, -18.91, -25.15, -23.60, -20.45, -21.37, -19.76, -22.80, -23.40, -30.69, -23.54, -24.54, -20.00, 0.000, 0.000, 0.000, 16:50:14.889
161, -28.74, -21.82, -27.09, -20.00, -18.84, -25.19, -23.58, -20.36, -21.37, -19.76, -22.80, -23.40, -30.69, -23.54, -24.54, -20.00, 0.000, 0.000, 0.000, 16:50:14.890
162, -28.74, -21.82, -27.09, -20.00, -18.84, -25.19, -23.58, -20.36, -21.50, -19.58, -22.78, -23.40, -30.80, -23.63, -24.59, -19.85, 0.066, 0.972, -0.126, 16:50:14.890
163, -28.86, -21.77, -27.00, -19.96, -19.13, -25.41, -23.47, -20.34, -21.50, -19.58, -22.78, -23.40, -30.80, -23.63, -24.59, -19.85, 0.000, 0.000, 0.000, 16:50:14.890
164, -28.86, -21.77, -27.00, -19.96, -19.13, -25.41, -23.47, -20.34, -21.52, -19.62, -23.02, -23.40, -30.85, -23.60, -24.52, -20.03, 0.000, 0.000, 0.000, 16:50:14.891
165, -29.06, -21.93, -27.07, -20.09, -19.09, -25.26, -23.69, -20.34, -21.52, -19.62, -23.02, -23.40, -30.85, -23.60, -24.52, -20.03, 0.000, 0.000, 0.000, 16:50:14.891
166, -29.06, -21.93, -27.07, -20.09, -19.09, -25.26, -23.69, -20.34, -21.59, -19.87, -22.82, -23.36, -31.00, -23.63, -24.77, -19.94, 0.000, 0.000, 0.000, 16:50:14.892
167, -28.81, -21.75, -27.20, -20.07, -19.04, -25.17, -23.67, -20.56, -21.59, -19.87, -22.82, -23.36, -31.00, -23.63, -24.77, -19.94, 0.000, 0.000, 0.000, 16:50:14.892
168, -28.81, -21.75, -27.20, -20.07, -19.04, -25.17, -23.67, -20.56, -21.19, -19.51, -22.66, -23.36, -30.89, -23.42, -24.48, -19.87, 0.000, 0.000, 0.000, 16:50:14.892
169, -28.72, -21.88, -27.07, -20.00, -18.95, -25.37, -23.85, -20.52, -21.19, -19.51, -22.66, -23.36, -30.89, -23.42, -24.48, -19.87, 0.000, 0.000, 0.000, 16:50:14.893
170, -28.72, -21.88, -27.07, -20.00, -18.95, -25.37, -23.85, -20.52, -21.32, -19.74, -22.62, -23.38, -30.98, -23.45, -24.54, -19.71, 0.000, 0.000, 0.000, 16:50:14.894
171, -28.95, -21.90, -27.16, -20.18, -18.91, -25.35, -23.72, -20.47, -21.32, -19.74, -22.62, -23.38, -30.98, -23.45, -24.54, -19.71, 0.000, 0.000, 0.000, 16:50:14.894
172, -28.95, -21.90, -27.16, -20.18, -18.91, -25.35, -23.72, -20.47, -21.52, -19.65, -22.71, -23.38, -30.93, -23.69, -24.50, -19.89, 0.050, 0.970, -0.132, 16:50:14.895
173, -28.90, -21.84, -27.11, -20.05, -19.09, -25.17, -23.51, -20.47, -21.52, -19.65, -22.71, -23.38, -30.93, -23.69, -24.50, -19.89, 0.000, 0.000, 0.000, 16:50:14.895
174, -28.90, -21.84, -27.11, -20.05, -19.09, -25.17, -23.51, -20.47, -21.48, -19.76, -22.93, -23.29, -30.98, -23.56, -24.65, -19.80, 0.000, 0.000, 0.000, 16:50:14.896
175, -28.72, -21.88, -26.78, -19.76, -19.02, -25.32, -23.63, -20.54, -21.48, -19.76, -22.93, -23.29, -30.98, -23.56, -24.65, -19.80, 0.000, 0.000, 0.000, 16:50:14.896
176, -28.72, -21.88, -26.78, -19.76, -19.02, -25.32, -23.63, -20.54, -21.50, -19.87, -22.66, -23.29, -31.02, -23.51, -24.63, -20.05, 0.000, 0.000, 0.000, 16:50:14.896
177, -28.95, -21.86, -27.18, -19.78, -18.80, -25.41, -23.94, -20.45, -21.50, -19.87, -22.66, -23.29, -31.02, -23.51, -24.63, -20.05, 0.000, 0.000, 0.000, 16:50:14.897
178, -28.95, -21.86, -27.18, -19.78, -18.80, -25.41, -23.94, -20.45, -21.41, -19.80, -22.82, -23.27, -30.93, -23.63, -24.50, -19.74, 0.000, 0.000, 0.000, 16:50:14.897
179, -28.86, -21.86, -27.02, -19.85, -18.91, -25.41, -23.87, -20.38, -21.41, -19.80, -22.82, -23.27, -30.93, -23.63, -24.50, -19.74, 0.000, 0.000, 0.000, 16:50:14.897
180, -28.86, -21.86, -27.02, -19.85, -18.91, -25.41, -23.87, -20.38, -21.35, -19.60, -22.69, -23.29, -30.93, -23.72, -24.65, -19.85, 0.000, 0.000, 0.000, 16:50:14.898
181, -28.88, -21.88, -27.00, -19.85, -18.82, -25.17, -23.87, -20.47, -21.35, -19.60, -22.69, -23.29, -30.93, -23.72, -24.65, -19.85, 0.000, 0.000, 0.000, 16:50:14.898
182, -28.88, -21.88, -27.00, -19.85, -18.82, -25.17, -23.87, -20.47, -21.23, -19.62, -22.78, -23.38, -30.96, -23.69, -24.52, -19.85, 0.046, 0.978, -0.132, 16:50:14.898
183, -28.92, -21.73, -26.93, -19.92, -18.93, -25.37, -23.56, -20.52, -21.23, -19.62, -22.78, -23.38, -30.96, -23.69, -24.52, -19.85, 0.000, 0.000, 0.000, 16:50:14.899
184, -28.92, -21.73, -26.93, -19.92, -18.93, -25.37, -23.56, -20.52, -21.32, -19.62, -22.89, -23.22, -30.76, -23.58, -24.30, -19.92, 0.000, 0.000, 0.000, 16:50:14.899
185, -28.92, -21.93, -26.93, -19.85, -18.80, -25.24, -23.56, -20.36, -21.32, -19.62, -22.89, -23.22, -30.76, -23.58, -24.30, -19.92, 0.000, 0.000, 0.000, 16:50:14.899
186, -28.92, -21.93, -26.93, -19.85, -18.80, -25.24, -23.56, -20.36, -21.41, -19.80, -22.82, -23.13, -30.89, -23.51, -24.52, -19.78, 0.000, 0.000, 0.000, 16:50:14.900
187, -28.95, -21.82, -27.09, -19.94, -18.82, -25.12, -23.60, -20.59, -21.41, -19.80, -22.82, -23.13, -30.89, -23.51, -24.52, -19.78, 0.000, 0.000, 0.000, 16:50:15.184
188, -28.95, -21.82, -27.09, -19.94, -18.82, -25.12, -23.60, -20.59, -21.57, -19.69, -22.84, -23.34, -30.93, -23.67, -24.43, -19.94, 0.000, 0.000, 0.000, 16:50:15.185
189, -28.81, -21.86, -26.98, -20.07, -18.75, -25.21, -23.63, -20.45, -21.57, -19.69, -22.84, -23.34, -30.93, -23.67, -24.43, -19.94, 0.000, 0.000, 0.000, 16:50:15.185
190, -28.81, -21.86, -26.98, -20.07, -18.75, -25.21, -23.63, -20.45, -21.44, -19.65, -22.87, -23.13, -30.73, -23.56, -24.39, -19.96, 0.000, 0.000, 0.000, 16:50:15.186
191, -28.83, -21.90, -27.02, -19.71, -19.13, -25.28, -23.69, -20.27, -21.44, -19.65, -22.87, -23.13, -30.73, -23.56, -24.39, -19.96, 0.000, 0.000, 0.000, 16:50:15.186
192, -28.83, -21.90, -27.02, -19.71, -19.13, -25.28, -23.69, -20.27, -21.39, -19.69, -22.80, -23.29, -30.89, -23.54, -24.52, -20.16, 0.048, 0.980, -0.134, 16:50:15.186
193, -28.95, -21.88, -27.05, -19.80, -19.07, -25.32, -23.76, -20.59, -21.39, -19.69, -22.80, -23.29, -30.89, -23.54, -24.52, -20.16, 0.000, 0.000, 0.000, 16:50:15.187
194, -28.95, -21.88, -27.05, -19.80, -19.07, -25.32, -23.76, -20.59, -21.46, -19.89, -22.80, -23.34, -30.85, -23.80, -24.63, -19.71, 0.000, 0.000, 0.000, 16:50:15.187
195, -28.90, -21.97, -27.02, -19.92, -18.86, -25.24, -23.74, -20.38, -21.46, -19.89, -22.80, -23.34, -30.85, -23.80, -24.63, -19.71, 0.000, 0.000, 0.000, 16:50:15.188
196, -28.90, -21.97, -27.02, -19.92, -18.86, -25.24, -23.74, -20.38, -21.23, -19.54, -22.55, -23.27, -30.76, -23.54, -24.50, -19.78, 0.000, 0.000, 0.000, 16:50:15.188
197, -28.72, -21.57, -26.89, -20.05, -18.89, -25.41, -23.56, -20.65, -21.23, -19.54, -22.55, -23.27, -30.76, -23.54, -24.50, -19.78, 0.000, 0.000, 0.000, 16:50:15.189
198, -28.72, -21.57, -26.89, -20.05, -18.89, -25.41, -23.56, -20.65, -21.37, -19.69, -22.78, -23.09, -30.93, -23.60, -24.52, -19.92, 0.000, 0.000, 0.000, 16:50:15.189
199, -28.97, -21.77, -26.96, -19.98, -18.82, -25.28, -23.63, -20.65, -21.37, -19.69, -22.78, -23.09, -30.93, -23.60, -24.52, -19.92, 0.000, 0.000, 0.000, 16:50:15.189
200, -28.97, -21.77, -26.96, -19.98, -18.82, -25.28, -23.63, -20.65, -21.48, -20.00, -22.80, -23.47, -30.82, -23.69, -24.61, -20.03, 0.000, 0.000, 0.000, 16:50:15.190
201, -29.03, -21.70, -27.14, -19.96, -19.00, -25.30, -23.58, -20.43, -21.48, -20.00, -22.80, -23.47, -30.82, -23.69, -24.61, -20.03, 0.058, 0.980, -0.120, 16:50:15.190
202, -29.03, -21.70, -27.14, -19.96, -19.00, -25.30, -23.58, -20.43, -21.30, -19.83, -22.91, -23.29, -30.76, -23.51, -24.45, -19.76, 0.000, 0.000, 0.000, 16:50:15.191
203, -28.86, -21.86, -27.00, -19.85, -18.93, -25.28, -23.65, -20.21, -21.30, -19.83, -22.91, -23.29, -30.76, -23.51, -24.45, -19.76, 0.000, 0.000, 0.000, 16:50:15.191
204, -28.86, -21.86, -27.00, -19.85, -18.93, -25.28, -23.65, -20.21, -21.48, -19.62, -22.98, -23.16, -30.80, -23.51, -24.61, -19.98, 0.000, 0.000, 0.000, 16:50:15.192
205, -28.92, -21.75, -26.78, -19.92, -18.86, -25.26, -23.54, -20.32, -21.48, -19.62, -22.98, -23.16, -30.80, -23.51, -24.61, -19.98, 0.000, 0.000, 0.000, 16:50:15.195
206, -28.92, -21.75, -26.78, -19.92, -18.86, -25.26, -23.54, -20.32, -21.48, -19.67, -22.96, -23.22, -30.76, -23.54, -24.54, -19.92, 0.000, 0.000, 0.000, 16:50:15.195
207, -29.01, -21.61, -26.91, -20.09, -19.00, -25.46, -23.72, -20.41, -21.48, -19.67, -22.96, -23.22, -30.76, -23.54, -24.54, -19.92, 0.000, 0.000, 0.000, 16:50:15.196
208, -29.01, -21.61, -26.91, -20.09, -19.00, -25.46, -23.72, -20.41, -21.44, -19.71, -22.93, -23.34, -30.89, -23.60, -24.63, -19.62, 0.000, 0.000, 0.000, 16:50:15.196
209, -28.81, -21.68, -26.98, -20.07, -19.13, -25.35, -23.89, -20.41, -21.44, -19.71, -22.93, -23.34, -30.89, -23.60, -24.63, -19.62, 0.000, 0.000, 0.000, 16:50:15.196
210, -28.81, -21.68, -26.98, -20.07, -19.13, -25.35, -23.89, -20.41, -21.39, -19.89, -22.80, -23.13, -30.82, -23.58, -24.52, -19.76, 0.000, 0.000, 0.000, 16:50:15.197
211, -29.06, -21.79, -27.02, -19.89, -19.02, -25.39, -23.65, -20.43, -21.39, -19.89, -22.80, -23.13, -30.82, -23.58, -24.52, -19.76, 0.064, 0.966, -0.106, 16:50:15.197
212, -29.06, -21.79, -27.02, -19.89, -19.02, -25.39, -23.65, -20.43, -21.52, -19.69, -22.84, -23.22, -30.82, -23.31, -24.61, -19.96, 0.000, 0.000, 0.000, 16:50:15.197
213, -28.81, -21.93, -27.02, -20.05, -18.98, -25.17, -23.80, -20.63, -21.52, -19.69, -22.84, -23.22, -30.82, -23.31, -24.61, -19.96, 0.000, 0.000, 0.000, 16:50:15.198
214, -28.81, -21.93, -27.02, -20.05, -18.98, -25.17, -23.80, -20.63, -21.21, -19.62, -22.69, -23.34, -30.91, -23.45, -24.50, -20.00, 0.000, 0.000, 0.000, 16:50:15.198
215, -28.83, -21.97, -27.05, -19.78, -19.13, -25.41, -23.42, -20.43, -21.21, -19.62, -22.69, -23.34, -30.91, -23.45, -24.50, -20.00, 0.000, 0.000, 0.000, 16:50:15.198
216, -28.83, -21.97, -27.05, -19.78, -19.13, -25.41, -23.42, -20.43, -21.48, -19.56, -22.82, -23.47, -30.93, -23.58, -24.74, -20.00, 0.000, 0.000, 0.000, 16:50:15.198
217, -28.95, -21.61, -27.05, -19.89, -18.91, -25.37, -23.51, -20.23, -21.48, -19.56, -22.82, -23.47, -30.93, -23.58, -24.74, -20.00, 0.000, 0.000, 0.000, 16:50:15.199
218, -28.95, -21.61, -27.05, -19.89, -18.91, -25.37, -23.51, -20.23, -21.41, -19.67, -22.60, -23.38, -30.91, -23.78, -24.74, -19.69, 0.000, 0.000, 0.000, 16:50:15.199
219, -29.01, -21.55, -27.00, -19.92, -18.86, -25.30, -23.76, -20.23, -21.41, -19.67, -22.60, -23.38, -30.91, -23.78, -24.74, -19.69, 0.000, 0.000, 0.000, 16:50:15.199
220, -29.01, -21.55, -27.00, -19.92, -18.86, -25.30, -23.76, -20.23, -21.39, -19.67, -22.69, -23.31, -30.87, -23.51, -24.68, -19.80, 0.000, 0.000, 0.000, 16:50:15.199
221, -28.99, -21.50, -26.96, -20.09, -19.00, -25.19, -23.67, -20.38, -21.39, -19.67, -22.69, -23.31, -30.87, -23.51, -24.68, -19.80, 0.070, 0.958, -0.102, 16:50:15.200
222, -28.99, -21.50, -26.96, -20.09, -19.00, -25.19, -23.67, -20.38, -21.35, -19.83, -22.80, -23.42, -30.96, -23.54, -24.65, -19.92, 0.000, 0.000, 0.000, 16:50:15.200
223, -28.74, -21.70, -26.84, -19.96, -19.09, -25.26, -23.47, -20.36, -21.35, -19.83, -22.80, -23.42, -30.96, -23.54, -24.65, -19.92, 0.000, 0.000, 0.000, 16:50:15.200
224, -28.74, -21.70, -26.84, -19.96, -19.09, -25.26, -23.47, -20.36, -21.32, -19.62, -22.66, -23.38, -30.91, -23.83, -24.56, -20.05, 0.000, 0.000, 0.000, 16:50:15.200
225, -29.12, -22.02, -27.16, -20.05, -18.89, -24.97, -23.67, -20.68, -21.32, -19.62, -22.66, -23.38, -30.91, -23.83, -24.56, -20.05, 0.000, 0.000, 0.000, 16:50:15.201
226, -29.12, -22.02, -27.16, -20.05, -18.89, -24.97, -23.67, -20.68, -21.17, -19.65, -22.71, -23.40, -30.85, -23.56, -24.45, -19.83, 0.000, 0.000, 0.000, 16:50:15.201
227, -29.03, -21.90, -26.98, -20.07, -18.84, -25.39, -23.78, -20.50, -21.17, -19.65, -22.71, -23.40, -30.85, -23.56, -24.45, -19.83, 0.000, 0.000, 0.000, 16:50:15.201
228, -29.03, -21.90, -26.98, -20.07, -18.84, -25.39, -23.78, -20.50, -21.41, -19.67, -22.84, -23.11, -31.00, -23.54, -24.59, -19.85, 0.000, 0.000, 0.000, 16:50:15.202
229, -29.03, -21.73, -26.93, -19.85, -19.13, -25.44, -23.85, -20.47, -21.41, -19.67, -22.84, -23.11, -31.00, -23.54, -24.59, -19.85, 0.000, 0.000, 0.000, 16:50:15.202
230, -29.03, -21.73, -26.93, -19.85, -19.13, -25.44, -23.85, -20.47, -21.35, -19.94, -22.78, -23.04, -30.85, -23.47, -24.54, -19.92, 0.000, 0.000, 0.000, 16:50:15.203
231, -28.99, -21.90, -27.05, -19.87, -19.11, -25.32, -23.69, -20.34, -21.35, -19.94, -22.78, -23.04, -30.85, -23.47, -24.54, -19.92, 0.072, 0.966, -0.092, 16:50:15.203
232, -28.99, -21.90, -27.05, -19.87, -19.11, -25.32, -23.69, -20.34, -21.35, -19.65, -22.78, -23.20, -30.89, -23.58, -24.52, -19.74, 0.000, 0.000, 0.000, 16:50:15.203
233, -28.95, -21.88, -26.80, -19.87, -19.07, -25.44, -23.74, -20.41, -21.35, -19.65, -22.78, -23.20, -30.89, -23.58, -24.52, -19.74, 0.000, 0.000, 0.000, 16:50:15.204
234, -28.95, -21.88, -26.80, -19.87, -19.07, -25.44, -23.74, -20.41, -21.28, -19.69, -22.71, -23.16, -30.96, -23.45, -24.59, -19.94, 0.000, 0.000, 0.000, 16:50:15.204
