%OpenBCI Raw EEG Data
%
%Sample Rate = 250.0 Hz
%First Column = SampleIndex
%Last Column = Timestamp 
%Other Columns = EEG data in microvolts followed by Accel Data (in G) interleaved with Aux Data
0, 0.00, 0.00, 0.00, 0.00, 0.00, 0.00, 0.00, 0.00, -93750.01, -93750.01, -93750.01, -93750.01, -93750.01, -93750.01, -93750.01, -93750.01, 0.046, 0.448, 0.156, 16:27:30.223
1, -84729.85, -19648.19, -162519.34, -81812.77, -63604.46, -151435.95, 187500.00, -166037.38, -93750.01, -93750.01, -93750.01, -93750.01, -93750.01, -93750.01, -93750.01, -93750.01, 0.000, 0.000, 0.000, 16:27:30.224
2, -84729.85, -19648.19, -162519.34, -81812.77, -63604.46, -151435.95, 187500.00, -166037.38, -187500.02, -187500.02, -187500.02, -187500.02, -187500.02, -187500.02, -187500.02, -187500.02, 0.000, 0.000, 0.000, 16:27:30.224
3, -72884.03, -12821.70, -159707.91, -89696.90, -57026.36, -161709.92, 187500.00, -170115.02, -187500.02, -187500.02, -187500.02, -187500.02, -187500.02, -187500.02, -187500.02, -187500.02, 0.000, 0.000, 0.000, 16:27:30.225
4, -72884.03, -12821.70, -159707.91, -89696.90, -57026.36, -161709.92, 187500.00, -170115.02, -187500.02, -187500.02, -187500.02, -187500.02, -187500.02, -187500.02, -187500.02, -187500.02, 0.000, 0.000, 0.000, 16:27:30.225
5, -88093.90, -22079.57, -163685.80, -80275.04, -65703.62, -149377.33, 187500.00, -165313.81, -187500.02, -187500.02, -187500.02, -187500.02, -187500.02, -187500.02, -187500.02, -187500.02, 0.000, 0.000, 0.000, 16:27:30.226
6, -88093.90, -22079.57, -163685.80, -80275.04, -65703.62, -149377.33, 187500.00, -165313.81, -187500.02, -187500.02, -187500.02, -187500.02, -187500.02, -187500.02, -187500.02, -187500.02, 0.000, 0.000, 0.000, 16:27:30.226
7, -75479.89, -14146.82, -160134.02, -87652.45, -58191.25, -159110.89, 187500.00, -168986.02, -187500.02, -187500.02, -187500.02, -187500.02, -187500.02, -187500.02, -187500.02, -187500.02, 0.088, 0.888, 0.320, 16:27:30.227
8, -75479.89, -14146.82, -160134.02, -87652.45, -58191.25, -159110.89, 187500.00, -168986.02, -187500.02, -187500.02, -187500.02, -187500.02, -187500.02, -187500.02, -187500.02, -187500.02, 0.000, 0.000, 0.000, 16:27:30.227
9, -80074.56, -17436.89, -161853.33, -85622.29, -61186.13, -156438.25, 187500.00, -168024.92, -187500.02, -187500.02, -187500.02, -187500.02, -187500.02, -187500.02, -187500.02, -187500.02, 0.000, 0.000, 0.000, 16:27:30.228
10, -80074.56, -17436.89, -161853.33, -85622.29, -61186.13, -156438.25, 187500.00, -168024.92, -187500.02, -187500.02, -187500.02, -187500.02, -187500.02, -187500.02, -187500.02, -187500.02, 0.000, 0.000, 0.000, 16:27:30.228
11, -84867.98, -19846.92, -162524.05, -81754.03, -63483.07, -151386.27, 187500.00, -166000.72, -187500.02, -187500.02, -187500.02, -187500.02, -187500.02, -187500.02, -187500.02, -187500.02, 0.000, 0.000, 0.000, 16:27:30.229
12, -84867.98, -19846.92, -162524.05, -81754.03, -63483.07, -151386.27, 187500.00, -166000.72, -187500.02, -187500.02, -187500.02, -187500.02, -187500.02, -187500.02, -187500.02, -187500.02, 0.000, 0.000, 0.000, 16:27:30.229
13, -72787.27, -12841.37, -159642.25, -89748.64, -56779.38, -161801.02, 187500.00, -170128.94, -187500.02, -187500.02, -187500.02, -187500.02, -187500.02, -187500.02, -187500.02, -187500.02, 0.000, 0.000, 0.000, 16:27:30.230
14, -72787.27, -12841.37, -159642.25, -89748.64, -56779.38, -161801.02, 187500.00, -170128.94, -187500.02, -187500.02, -187500.02, -187500.02, -187500.02, -187500.02, -187500.02, -187500.02, 0.000, 0.000, 0.000, 16:27:30.230
15, -87898.57, -22024.34, -163621.11, -80387.55, -65435.78, -149539.53, 187500.00, -165346.48, -187500.02, -187500.02, -187500.02, -187500.02, -187500.02, -187500.02, -187500.02, -187500.02, 0.000, 0.000, 0.000, 16:27:30.231
16, -87898.57, -22024.34, -163621.11, -80387.55, -65435.78, -149539.53, 187500.00, -165346.48, -187500.02, -187500.02, -187500.02, -187500.02, -187500.02, -187500.02, -187500.02, -187500.02, 0.000, 0.000, 0.000, 16:27:30.231
17, -75367.76, -14112.35, -160093.58, -87698.81, -58000.36, -159173.03, 187500.00, -168992.69, -187500.02, -187500.02, -187500.02, -187500.02, -187500.02, -187500.02, -187500.02, -187500.02, 0.092, 0.892, 0.324, 16:27:30.232
18, -75367.76, -14112.35, -160093.58, -87698.81, -58000.36, -159173.03, 187500.00, -168992.69, -187500.02, -187500.02, -187500.02, -187500.02, -187500.02, -187500.02, -187500.02, -187500.02, 0.000, 0.000, 0.000, 16:27:30.232
19, -79772.55, -17273.94, -161777.67, -85785.50, -60921.89, -156643.64, 187500.00, -168096.88, -187500.02, -187500.02, -187500.02, -187500.02, -187500.02, -187500.02, -187500.02, -187500.02, 0.000, 0.000, 0.000, 16:27:30.232
20, -79772.55, -17273.94, -161777.67, -85785.50, -60921.89, -156643.64, 187500.00, -168096.88, -187500.02, -187500.02, -187500.02, -187500.02, -187500.02, -187500.02, -187500.02, -187500.02, 0.000, 0.000, 0.000, 16:27:30.233
21, -84847.02, -19848.30, -162547.98, -81751.10, -63416.46, -151365.83, 187500.00, -165986.50, -187500.02, -187500.02, -187500.02, -187500.02, -187500.02, -187500.02, -187500.02, -187500.02, 0.000, 0.000, 0.000, 16:27:30.233
22, -84847.02, -19848.30, -162547.98, -81751.10, -63416.46, -151365.83, 187500.00, -165986.50, -187500.02, -187500.02, -187500.02, -187500.02, -187500.02, -187500.02, -187500.02, -187500.02, 0.000, 0.000, 0.000, 16:27:30.234
23, -72707.43, -12797.69, -159650.77, -89769.84, -56695.11, -161808.98, 187500.00, -170132.06, -187500.02, -187500.02, -187500.02, -187500.02, -187500.02, -187500.02, -187500.02, -187500.02, 0.000, 0.000, 0.000, 16:27:30.234
24, -72707.43, -12797.69, -159650.77, -89769.84, -56695.11, -161808.98, 187500.00, -170132.06, -187500.02, -187500.02, -187500.02, -187500.02, -187500.02, -187500.02, -187500.02, -187500.02, 0.000, 0.000, 0.000, 16:27:30.235
25, -87879.19, -22014.32, -163647.69, -80379.24, -65402.50, -149506.75, 187500.00, -165338.27, -187500.02, -187500.02, -187500.02, -187500.02, -187500.02, -187500.02, -187500.02, -187500.02, 0.000, 0.000, 0.000, 16:27:30.235
26, -87879.19, -22014.32, -163647.69, -80379.24, -65402.50, -149506.75, 187500.00, -165338.27, -187500.02, -187500.02, -187500.02, -187500.02, -187500.02, -187500.02, -187500.02, -187500.02, 0.088, 0.890, 0.318, 16:27:30.236
27, -75527.55, -14192.73, -160158.48, -87557.93, -58067.75, -158965.52, 187500.00, -168907.44, -187500.02, -187500.02, -187500.02, -187500.02, -187500.02, -187500.02, -187500.02, -187500.02, 0.000, 0.000, 0.000, 16:27:30.236
28, -75527.55, -14192.73, -160158.48, -87557.93, -58067.75, -158965.52, 187500.00, -168907.44, -187500.02, -187500.02, -187500.02, -187500.02, -187500.02, -187500.02, -187500.02, -187500.02, 0.000, 0.000, 0.000, 16:27:30.237
29, -79683.34, -17198.55, -161775.22, -85791.16, -60850.86, -156628.02, 187500.00, -168087.86, -187500.02, -187500.02, -187500.02, -187500.02, -187500.02, -187500.02, -187500.02, -187500.02, 0.000, 0.000, 0.000, 16:27:30.237
30, -79683.34, -17198.55, -161775.22, -85791.16, -60850.86, -156628.02, 187500.00, -168087.86, -187500.02, -187500.02, -187500.02, -187500.02, -187500.02, -187500.02, -187500.02, -187500.02, 0.000, 0.000, 0.000, 16:27:30.237
31, -84931.20, -19878.08, -162586.16, -81646.02, -63450.57, -151197.14, 187500.00, -165934.41, -187500.02, -187500.02, -187500.02, -187500.02, -187500.02, -187500.02, -187500.02, -187500.02, 0.000, 0.000, 0.000, 16:27:30.238
32, -84931.20, -19878.08, -162586.16, -81646.02, -63450.57, -151197.14, 187500.00, -165934.41, -187500.02, -187500.02, -187500.02, -187500.02, -187500.02, -187500.02, -187500.02, -187500.02, 0.000, 0.000, 0.000, 16:27:30.238
33, -72574.86, -12687.16, -159630.14, -89788.20, -56605.79, -161799.78, 187500.00, -170135.44, -187500.02, -187500.02, -187500.02, -187500.02, -187500.02, -187500.02, -187500.02, -187500.02, 0.000, 0.000, 0.000, 16:27:30.239
34, -72574.86, -12687.16, -159630.14, -89788.20, -56605.79, -161799.78, 187500.00, -170135.44, -187500.02, -187500.02, -187500.02, -187500.02, -187500.02, -187500.02, -187500.02, -187500.02, 0.000, 0.000, 0.000, 16:27:30.239
35, -87668.34, -21868.61, -163628.27, -80477.52, -65294.65, -149598.98, 187500.00, -165381.45, -187500.02, -187500.02, -187500.02, -187500.02, -187500.02, -187500.02, -187500.02, -187500.02, 0.000, 0.000, 0.000, 16:27:30.240
36, -87668.34, -21868.61, -163628.27, -80477.52, -65294.65, -149598.98, 187500.00, -165381.45, -187500.02, -187500.02, -187500.02, -187500.02, -187500.02, -187500.02, -187500.02, -187500.02, 0.090, 0.896, 0.320, 16:27:30.240
37, -75436.51, -14121.34, -160174.27, -87585.95, -58042.63, -158964.84, 187500.00, -168930.55, -187500.02, -187500.02, -187500.02, -187500.02, -187500.02, -187500.02, -187500.02, -187500.02, 0.000, 0.000, 0.000, 16:27:30.241
38, -75436.51, -14121.34, -160174.27, -87585.95, -58042.63, -158964.84, 187500.00, -168930.55, -187500.02, -187500.02, -187500.02, -187500.02, -187500.02, -187500.02, -187500.02, -187500.02, 0.000, 0.000, 0.000, 16:27:30.241
39, -79406.18, -17019.42, -161746.81, -85948.16, -60736.73, -156791.67, 187500.00, -168174.83, -187500.02, -187500.02, -187500.02, -187500.02, -187500.02, -187500.02, -187500.02, -187500.02, 0.000, 0.000, 0.000, 16:27:30.242
40, -79406.18, -17019.42, -161746.81, -85948.16, -60736.73, -156791.67, 187500.00, -168174.83, -187500.02, -187500.02, -187500.02, -187500.02, -187500.02, -187500.02, -187500.02, -187500.02, 0.000, 0.000, 0.000, 16:27:30.242
41, -84921.25, -19863.79, -162621.86, -81640.41, -63503.90, -151144.50, 187500.00, -165925.06, -187500.02, -187500.02, -187500.02, -187500.02, -187500.02, -187500.02, -187500.02, -187500.02, 0.000, 0.000, 0.000, 16:27:30.242
42, -84921.25, -19863.79, -162621.86, -81640.41, -63503.90, -151144.50, 187500.00, -165925.06, -187500.02, -187500.02, -187500.02, -187500.02, -187500.02, -187500.02, -187500.02, -187500.02, 0.000, 0.000, 0.000, 16:27:30.243
43, -72517.57, -12635.78, -159654.89, -89804.73, -56632.66, -161772.52, 187500.00, -170141.42, -187500.02, -187500.02, -187500.02, -187500.02, -187500.02, -187500.02, -187500.02, -187500.02, 0.000, 0.000, 0.000, 16:27:30.243
44, -72517.57, -12635.78, -159654.89, -89804.73, -56632.66, -161772.52, 187500.00, -170141.42, -187500.02, -187500.02, -187500.02, -187500.02, -187500.02, -187500.02, -187500.02, -187500.02, 0.000, 0.000, 0.000, 16:27:30.243
45, -87653.62, -21847.49, -163646.03, -80482.46, -65354.55, -149547.22, 187500.00, -165384.50, -187500.02, -187500.02, -187500.02, -187500.02, -187500.02, -187500.02, -187500.02, -187500.02, 0.000, 0.000, 0.000, 16:27:30.244
46, -87653.62, -21847.49, -163646.03, -80482.46, -65354.55, -149547.22, 187500.00, -165384.50, -187500.02, -187500.02, -187500.02, -187500.02, -187500.02, -187500.02, -187500.02, -187500.02, 0.088, 0.894, 0.318, 16:27:30.244
47, -75610.59, -14198.14, -160230.28, -87452.92, -58208.59, -158723.27, 187500.00, -168853.00, -187500.02, -187500.02, -187500.02, -187500.02, -187500.02, -187500.02, -187500.02, -187500.02, 0.000, 0.000, 0.000, 16:27:30.245
48, -75610.59, -14198.14, -160230.28, -87452.92, -58208.59, -158723.27, 187500.00, -168853.00, -187500.02, -187500.02, -187500.02, -187500.02, -187500.02, -187500.02, -187500.02, -187500.02, 0.000, 0.000, 0.000, 16:27:30.246
49, -79323.45, -16933.26, -161729.14, -85960.09, -60754.74, -156735.66, 187500.00, -168172.22, -187500.02, -187500.02, -187500.02, -187500.02, -187500.02, -187500.02, -187500.02, -187500.02, 0.000, 0.000, 0.000, 16:27:30.246
50, -79323.45, -16933.26, -161729.14, -85960.09, -60754.74, -156735.66, 187500.00, -168172.22, -187500.02, -187500.02, -187500.02, -187500.02, -187500.02, -187500.02, -187500.02, -187500.02, 0.000, 0.000, 0.000, 16:27:30.247
51, -85005.70, -19876.58, -162638.73, -81546.85, -63622.65, -150944.61, 187500.00, -165867.81, -187500.02, -187500.02, -187500.02, -187500.02, -187500.02, -187500.02, -187500.02, -187500.02, 0.000, 0.000, 0.000, 16:27:30.247
52, -85005.70, -19876.58, -162638.73, -81546.85, -63622.65, -150944.61, 187500.00, -165867.81, -187500.02, -187500.02, -187500.02, -187500.02, -187500.02, -187500.02, -187500.02, -187500.02, 0.000, 0.000, 0.000, 16:27:30.248
53, -72393.88, -12515.90, -159623.86, -89835.68, -56648.93, -161730.69, 187500.00, -170159.69, -187500.02, -187500.02, -187500.02, -187500.02, -187500.02, -187500.02, -187500.02, -187500.02, 0.000, 0.000, 0.000, 16:27:30.248
54, -72393.88, -12515.90, -159623.86, -89835.68, -56648.93, -161730.69, 187500.00, -170159.69, -187500.02, -187500.02, -187500.02, -187500.02, -187500.02, -187500.02, -187500.02, -187500.02, 0.000, 0.000, 0.000, 16:27:30.249
55, -87426.90, -21667.49, -163613.41, -80584.54, -65340.36, -149599.28, 187500.00, -165432.47, -187500.02, -187500.02, -187500.02, -187500.02, -187500.02, -187500.02, -187500.02, -187500.02, 0.000, 0.000, 0.000, 16:27:30.249
56, -87426.90, -21667.49, -163613.41, -80584.54, -65340.36, -149599.28, 187500.00, -165432.47, -187500.02, -187500.02, -187500.02, -187500.02, -187500.02, -187500.02, -187500.02, -187500.02, 0.092, 0.894, 0.322, 16:27:30.253
57, -75478.51, -14078.45, -160218.19, -87481.82, -58248.84, -158686.34, 187500.00, -168869.09, -187500.02, -187500.02, -187500.02, -187500.02, -187500.02, -187500.02, -187500.02, -187500.02, 0.000, 0.000, 0.000, 16:27:30.253
58, -75478.51, -14078.45, -160218.19, -87481.82, -58248.84, -158686.34, 187500.00, -168869.09, -187500.02, -187500.02, -187500.02, -187500.02, -187500.02, -187500.02, -187500.02, -187500.02, 0.000, 0.000, 0.000, 16:27:30.254
59, -79003.49, -16716.29, -161679.33, -86120.46, -60695.89, -156875.06, 187500.00, -168260.22, -187500.02, -187500.02, -187500.02, -187500.02, -187500.02, -187500.02, -187500.02, -187500.02, 0.000, 0.000, 0.000, 16:27:30.254
60, -79003.49, -16716.29, -161679.33, -86120.46, -60695.89, -156875.06, 187500.00, -168260.22, -187500.02, -187500.02, -187500.02, -187500.02, -187500.02, -187500.02, -187500.02, -187500.02, 0.000, 0.000, 0.000, 16:27:30.255
61, -84976.97, -19849.55, -162669.28, -81538.13, -63724.84, -150864.97, 187500.00, -165855.44, -187500.02, -187500.02, -187500.02, -187500.02, -187500.02, -187500.02, -187500.02, -187500.02, 0.000, 0.000, 0.000, 16:27:30.255
62, -84976.97, -19849.55, -162669.28, -81538.13, -63724.84, -150864.97, 187500.00, -165855.44, -187500.02, -187500.02, -187500.02, -187500.02, -187500.02, -187500.02, -187500.02, -187500.02, 0.000, 0.000, 0.000, 16:27:30.255
63, -72316.01, -12462.46, -159620.39, -89833.65, -56694.55, -161662.67, 187500.00, -170139.73, -187500.02, -187500.02, -187500.02, -187500.02, -187500.02, -187500.02, -187500.02, -187500.02, 0.000, 0.000, 0.000, 16:27:30.256
64, -72316.01, -12462.46, -159620.39, -89833.65, -56694.55, -161662.67, 187500.00, -170139.73, -187500.02, -187500.02, -187500.02, -187500.02, -187500.02, -187500.02, -187500.02, -187500.02, 0.000, 0.000, 0.000, 16:27:30.256
65, -87390.83, -21655.26, -163601.42, -80547.05, -65390.45, -149494.08, 187500.00, -165396.73, -187500.02, -187500.02, -187500.02, -187500.02, -187500.02, -187500.02, -187500.02, -187500.02, 0.000, 0.000, 0.000, 16:27:30.257
66, -87390.83, -21655.26, -163601.42, -80547.05, -65390.45, -149494.08, 187500.00, -165396.73, -187500.02, -187500.02, -187500.02, -187500.02, -187500.02, -187500.02, -187500.02, -187500.02, 0.088, 0.900, 0.318, 16:27:30.257
67, -75622.48, -14169.71, -160239.45, -87314.78, -58388.43, -158411.77, 187500.00, -168760.00, -187500.02, -187500.02, -187500.02, -187500.02, -187500.02, -187500.02, -187500.02, -187500.02, 0.000, 0.000, 0.000, 16:27:30.257
68, -75622.48, -14169.71, -160239.45, -87314.78, -58388.43, -158411.77, 187500.00, -168760.00, -187500.02, -187500.02, -187500.02, -187500.02, -187500.02, -187500.02, -187500.02, -187500.02, 0.000, 0.000, 0.000, 16:27:30.258
69, -78911.71, -16667.11, -161640.70, -86104.84, -60698.80, -156792.88, 187500.00, -168228.16, -187500.02, -187500.02, -187500.02, -187500.02, -187500.02, -187500.02, -187500.02, -187500.02, 0.000, 0.000, 0.000, 16:27:30.258
70, -78911.71, -16667.11, -161640.70, -86104.84, -60698.80, -156792.88, 187500.00, -168228.16, -187500.02, -187500.02, -187500.02, -187500.02, -187500.02, -187500.02, -187500.02, -187500.02, 0.000, 0.000, 0.000, 16:27:30.259
71, -85028.24, -19892.94, -162671.52, -81440.05, -63818.54, -150669.94, 187500.00, -165799.58, -187500.02, -187500.02, -187500.02, -187500.02, -187500.02, -187500.02, -187500.02, -187500.02, 0.000, 0.000, 0.000, 16:27:30.259
72, -85028.24, -19892.94, -162671.52, -81440.05, -63818.54, -150669.94, 187500.00, -165799.58, -187500.02, -187500.02, -187500.02, -187500.02, -187500.02, -187500.02, -187500.02, -187500.02, 0.000, 0.000, 0.000, 16:27:30.259
73, -72163.63, -12375.09, -159563.00, -89852.09, -56667.64, -161625.97, 187500.00, -170137.38, -187500.02, -187500.02, -187500.02, -187500.02, -187500.02, -187500.02, -187500.02, -187500.02, 0.000, 0.000, 0.000, 16:27:30.260
74, -72163.63, -12375.09, -159563.00, -89852.09, -56667.64, -161625.97, 187500.00, -170137.38, -187500.02, -187500.02, -187500.02, -187500.02, -187500.02, -187500.02, -187500.02, -187500.02, 0.000, 0.000, 0.000, 16:27:30.261
75, -87150.55, -21526.63, -163564.11, -80639.77, -65324.04, -149554.38, 187500.00, -165439.61, -187500.02, -187500.02, -187500.02, -187500.02, -187500.02, -187500.02, -187500.02, -187500.02, 0.000, 0.000, 0.000, 16:27:30.261
76, -87150.55, -21526.63, -163564.11, -80639.77, -65324.04, -149554.38, 187500.00, -165439.61, -187500.02, -187500.02, -187500.02, -187500.02, -187500.02, -187500.02, -187500.02, -187500.02, 0.088, 0.898, 0.316, 16:27:30.262
77, -75477.88, -14099.23, -160218.89, -87334.77, -58367.58, -158379.77, 187500.00, -168758.41, -187500.02, -187500.02, -187500.02, -187500.02, -187500.02, -187500.02, -187500.02, -187500.02, 0.000, 0.000, 0.000, 16:27:30.262
78, -75477.88, -14099.23, -160218.89, -87334.77, -58367.58, -158379.77, 187500.00, -168758.41, -187500.02, -187500.02, -187500.02, -187500.02, -187500.02, -187500.02, -187500.02, -187500.02, 0.000, 0.000, 0.000, 16:27:30.262
79, -78576.73, -16487.45, -161563.08, -86231.64, -60559.70, -156901.50, 187500.00, -168278.44, -187500.02, -187500.02, -187500.02, -187500.02, -187500.02, -187500.02, -187500.02, -187500.02, 0.000, 0.000, 0.000, 16:27:30.263
80, -78576.73, -16487.45, -161563.08, -86231.64, -60559.70, -156901.50, 187500.00, -168278.44, -187500.02, -187500.02, -187500.02, -187500.02, -187500.02, -187500.02, -187500.02, -187500.02, 0.000, 0.000, 0.000, 16:27:30.263
81, -84957.55, -19885.52, -162673.63, -81401.14, -63816.44, -150569.45, 187500.00, -165756.19, -187500.02, -187500.02, -187500.02, -187500.02, -187500.02, -187500.02, -187500.02, -187500.02, 0.000, 0.000, 0.000, 16:27:30.264
82, -84957.55, -19885.52, -162673.63, -81401.14, -63816.44, -150569.45, 187500.00, -165756.19, -187500.02, -187500.02, -187500.02, -187500.02, -187500.02, -187500.02, -187500.02, -187500.02, 0.000, 0.000, 0.000, 16:27:30.264
83, -72059.83, -12348.78, -159545.27, -89829.83, -56629.11, -161550.31, 187500.00, -170097.08, -187500.02, -187500.02, -187500.02, -187500.02, -187500.02, -187500.02, -187500.02, -187500.02, 0.000, 0.000, 0.000, 16:27:30.264
84, -72059.83, -12348.78, -159545.27, -89829.83, -56629.11, -161550.31, 187500.00, -170097.08, -187500.02, -187500.02, -187500.02, -187500.02, -187500.02, -187500.02, -187500.02, -187500.02, 0.000, 0.000, 0.000, 16:27:30.265
85, -87091.91, -21537.47, -163554.56, -80611.23, -65304.06, -149471.81, 187500.00, -165406.66, -187500.02, -187500.02, -187500.02, -187500.02, -187500.02, -187500.02, -187500.02, -187500.02, 0.000, 0.000, 0.000, 16:27:30.265
86, -87091.91, -21537.47, -163554.56, -80611.23, -65304.06, -149471.81, 187500.00, -165406.66, -187500.02, -187500.02, -187500.02, -187500.02, -187500.02, -187500.02, -187500.02, -187500.02, 0.088, 0.894, 0.320, 16:27:30.266
87, -75613.69, -14225.66, -160249.50, -87176.47, -58436.33, -158129.33, 187500.00, -168654.67, -187500.02, -187500.02, -187500.02, -187500.02, -187500.02, -187500.02, -187500.02, -187500.02, 0.000, 0.000, 0.000, 16:27:30.266
88, -75613.69, -14225.66, -160249.50, -87176.47, -58436.33, -158129.33, 187500.00, -168654.67, -187500.02, -187500.02, -187500.02, -187500.02, -187500.02, -187500.02, -187500.02, -187500.02, 0.000, 0.000, 0.000, 16:27:30.266
89, -78492.48, -16479.61, -161529.23, -86206.23, -60486.03, -156828.34, 187500.00, -168235.63, -187500.02, -187500.02, -187500.02, -187500.02, -187500.02, -187500.02, -187500.02, -187500.02, 0.000, 0.000, 0.000, 16:27:30.267
90, -78492.48, -16479.61, -161529.23, -86206.23, -60486.03, -156828.34, 187500.00, -168235.63, -187500.02, -187500.02, -187500.02, -187500.02, -187500.02, -187500.02, -187500.02, -187500.02, 0.000, 0.000, 0.000, 16:27:30.267
91, -85039.60, -19983.98, -162677.67, -81287.46, -63833.16, -150377.08, 187500.00, -165682.81, -187500.02, -187500.02, -187500.02, -187500.02, -187500.02, -187500.02, -187500.02, -187500.02, 0.000, 0.000, 0.000, 16:27:30.267
92, -85039.60, -19983.98, -162677.67, -81287.46, -63833.16, -150377.08, 187500.00, -165682.81, -187500.02, -187500.02, -187500.02, -187500.02, -187500.02, -187500.02, -187500.02, -187500.02, 0.000, 0.000, 0.000, 16:27:30.268
93, -71954.45, -12336.44, -159494.84, -89838.20, -56518.64, -161518.59, 187500.00, -170075.31, -187500.02, -187500.02, -187500.02, -187500.02, -187500.02, -187500.02, -187500.02, -187500.02, 0.000, 0.000, 0.000, 16:27:30.268
94, -71954.45, -12336.44, -159494.84, -89838.20, -56518.64, -161518.59, 187500.00, -170075.31, -187500.02, -187500.02, -187500.02, -187500.02, -187500.02, -187500.02, -187500.02, -187500.02, 0.000, 0.000, 0.000, 16:27:30.269
95, -86895.73, -21493.08, -163513.58, -80710.07, -65138.64, -149559.05, 187500.00, -165419.98, -187500.02, -187500.02, -187500.02, -187500.02, -187500.02, -187500.02, -187500.02, -187500.02, 0.000, 0.000, 0.000, 16:27:30.269
96, -86895.73, -21493.08, -163513.58, -80710.07, -65138.64, -149559.05, 187500.00, -165419.98, -187500.02, -187500.02, -187500.02, -187500.02, -187500.02, -187500.02, -187500.02, -187500.02, 0.090, 0.894, 0.314, 16:27:30.270
97, -75567.40, -14278.34, -160247.66, -87200.84, -58347.93, -158121.48, 187500.00, -168638.41, -187500.02, -187500.02, -187500.02, -187500.02, -187500.02, -187500.02, -187500.02, -187500.02, 0.000, 0.000, 0.000, 16:27:30.270
98, -75567.40, -14278.34, -160247.66, -87200.84, -58347.93, -158121.48, 187500.00, -168638.41, -187500.02, -187500.02, -187500.02, -187500.02, -187500.02, -187500.02, -187500.02, -187500.02, 0.000, 0.000, 0.000, 16:27:30.270
99, -78273.68, -16440.60, -161493.03, -86383.77, -60305.88, -157019.69, 187500.00, -168308.66, -187500.02, -187500.02, -187500.02, -187500.02, -187500.02, -187500.02, -187500.02, -187500.02, 0.000, 0.000, 0.000, 16:27:30.270
100, -78273.68, -16440.60, -161493.03, -86383.77, -60305.88, -157019.69, 187500.00, -168308.66, -187500.02, -187500.02, -187500.02, -187500.02, -187500.02, -187500.02, -187500.02, -187500.02, 0.000, 0.000, 0.000, 16:27:30.271
101, -85109.94, -20127.99, -162717.81, -81318.59, -63825.11, -150375.20, 187500.00, -165678.30, -187500.02, -187500.02, -187500.02, -187500.02, -187500.02, -187500.02, -187500.02, -187500.02, 0.000, 0.000, 0.000, 16:27:30.271
102, -85109.94, -20127.99, -162717.81, -81318.59, -63825.11, -150375.20, 187500.00, -165678.30, -187500.02, -187500.02, -187500.02, -187500.02, -187500.02, -187500.02, -187500.02, -187500.02, 0.000, 0.000, 0.000, 16:27:30.272
103, -72016.27, -12463.29, -159535.33, -89877.16, -56500.38, -161523.83, 187500.00, -170083.00, -187500.02, -187500.02, -187500.02, -187500.02, -187500.02, -187500.02, -187500.02, -187500.02, 0.000, 0.000, 0.000, 16:27:30.272
104, -72016.27, -12463.29, -159535.33, -89877.16, -56500.38, -161523.83, 187500.00, -170083.00, -187500.02, -187500.02, -187500.02, -187500.02, -187500.02, -187500.02, -187500.02, -187500.02, 0.000, 0.000, 0.000, 16:27:30.272
105, -86983.04, -21633.16, -163528.03, -80734.45, -65139.57, -149545.89, 187500.00, -165418.11, -187500.02, -187500.02, -187500.02, -187500.02, -187500.02, -187500.02, -187500.02, -187500.02, 0.000, 0.000, 0.000, 16:27:30.273
106, -86983.04, -21633.16, -163528.03, -80734.45, -65139.57, -149545.89, 187500.00, -165418.11, -187500.02, -187500.02, -187500.02, -187500.02, -187500.02, -187500.02, -187500.02, -187500.02, 0.086, 0.900, 0.316, 16:27:30.273
107, -75835.04, -14510.22, -160303.48, -87096.36, -58444.38, -157936.38, 187500.00, -168557.58, -187500.02, -187500.02, -187500.02, -187500.02, -187500.02, -187500.02, -187500.02, -187500.02, 0.000, 0.000, 0.000, 16:27:30.274
108, -75835.04, -14510.22, -160303.48, -87096.36, -58444.38, -157936.38, 187500.00, -168557.58, -187500.02, -187500.02, -187500.02, -187500.02, -187500.02, -187500.02, -187500.02, -187500.02, 0.000, 0.000, 0.000, 16:27:30.274
109, -78309.18, -16519.17, -161485.52, -86414.52, -60266.98, -157006.61, 187500.00, -168300.11, -187500.02, -187500.02, -187500.02, -187500.02, -187500.02, -187500.02, -187500.02, -187500.02, 0.000, 0.000, 0.000, 16:27:30.275
110, -78309.18, -16519.17, -161485.52, -86414.52, -60266.98, -157006.61, 187500.00, -168300.11, -187500.02, -187500.02, -187500.02, -187500.02, -187500.02, -187500.02, -187500.02, -187500.02, 0.000, 0.000, 0.000, 16:27:30.275
111, -85274.23, -20276.94, -162744.39, -81257.20, -63859.67, -150240.52, 187500.00, -165633.31, -187500.02, -187500.02, -187500.02, -187500.02, -187500.02, -187500.02, -187500.02, -187500.02, 0.000, 0.000, 0.000, 16:27:30.276
112, -85274.23, -20276.94, -162744.39, -81257.20, -63859.67, -150240.52, 187500.00, -165633.31, -187500.02, -187500.02, -187500.02, -187500.02, -187500.02, -187500.02, -187500.02, -187500.02, 0.000, 0.000, 0.000, 16:27:30.276
113, -71980.52, -12477.26, -159500.08, -89913.02, -56415.89, -161526.03, 187500.00, -170078.73, -187500.02, -187500.02, -187500.02, -187500.02, -187500.02, -187500.02, -187500.02, -187500.02, 0.000, 0.000, 0.000, 16:27:30.276
114, -71980.52, -12477.26, -159500.08, -89913.02, -56415.89, -161526.03, 187500.00, -170078.73, -187500.02, -187500.02, -187500.02, -187500.02, -187500.02, -187500.02, -187500.02, -187500.02, 0.000, 0.000, 0.000, 16:27:30.277
115, -86849.24, -21592.07, -163502.09, -80861.55, -65010.58, -149670.27, 187500.00, -165457.11, -187500.02, -187500.02, -187500.02, -187500.02, -187500.02, -187500.02, -187500.02, -187500.02, 0.090, 0.898, 0.320, 16:27:30.277
116, -86849.24, -21592.07, -163502.09, -80861.55, -65010.58, -149670.27, 187500.00, -165457.11, -187500.02, -187500.02, -187500.02, -187500.02, -187500.02, -187500.02, -187500.02, -187500.02, 0.000, 0.000, 0.000, 16:27:30.278
117, -75848.34, -14555.30, -160314.48, -87142.84, -58400.82, -157955.80, 187500.00, -168565.16, -187500.02, -187500.02, -187500.02, -187500.02, -187500.02, -187500.02, -187500.02, -187500.02, 0.000, 0.000, 0.000, 16:27:30.278
118, -75848.34, -14555.30, -160314.48, -87142.84, -58400.82, -157955.80, 187500.00, -168565.16, -187500.02, -187500.02, -187500.02, -187500.02, -187500.02, -187500.02, -187500.02, -187500.02, 0.000, 0.000, 0.000, 16:27:30.278
119, -78113.91, -16439.10, -161434.53, -86592.13, -60100.80, -157195.55, 187500.00, -168367.70, -187500.02, -187500.02, -187500.02, -187500.02, -187500.02, -187500.02, -187500.02, -187500.02, 0.000, 0.000, 0.000, 16:27:30.279
120, -78113.91, -16439.10, -161434.53, -86592.13, -60100.80, -157195.55, 187500.00, -168367.70, -187500.02, -187500.02, -187500.02, -187500.02, -187500.02, -187500.02, -187500.02, -187500.02, 0.000, 0.000, 0.000, 16:27:30.703
121, -85368.22, -20371.20, -162761.19, -81267.23, -63855.96, -150202.06, 187500.00, -165597.66, -187500.02, -187500.02, -187500.02, -187500.02, -187500.02, -187500.02, -187500.02, -187500.02, 0.000, 0.000, 0.000, 16:27:30.703
122, -85368.22, -20371.20, -162761.19, -81267.23, -63855.96, -150202.06, 187500.00, -165597.66, -187500.02, -187500.02, -187500.02, -187500.02, -187500.02, -187500.02, -187500.02, -187500.02, 0.000, 0.000, 0.000, 16:27:30.703
123, -72059.43, -12550.33, -159509.11, -89942.55, -56389.83, -161501.97, 187500.00, -170052.02, -187500.02, -187500.02, -187500.02, -187500.02, -187500.02, -187500.02, -187500.02, -187500.02, 0.000, 0.000, 0.000, 16:27:30.704
124, -72059.43, -12550.33, -159509.11, -89942.55, -56389.83, -161501.97, 187500.00, -170052.02, -187500.02, -187500.02, -187500.02, -187500.02, -187500.02, -187500.02, -187500.02, -187500.02, 0.000, 0.000, 0.000, 16:27:30.704
125, -86979.53, -21694.96, -163499.66, -80884.59, -65009.58, -149629.48, 187500.00, -165433.22, -187500.02, -187500.02, -187500.02, -187500.02, -187500.02, -187500.02, -187500.02, -187500.02, 0.094, 0.898, 0.320, 16:27:30.704
126, -86979.53, -21694.96, -163499.66, -80884.59, -65009.58, -149629.48, 187500.00, -165433.22, -187500.02, -187500.02, -187500.02, -187500.02, -187500.02, -187500.02, -187500.02, -187500.02, 0.000, 0.000, 0.000, 16:27:30.704
127, -76177.58, -14762.81, -160343.19, -87026.73, -58486.40, -157723.05, 187500.00, -168454.86, -187500.02, -187500.02, -187500.02, -187500.02, -187500.02, -187500.02, -187500.02, -187500.02, 0.000, 0.000, 0.000, 16:27:30.705
128, -76177.58, -14762.81, -160343.19, -87026.73, -58486.40, -157723.05, 187500.00, -168454.86, -187500.02, -187500.02, -187500.02, -187500.02, -187500.02, -187500.02, -187500.02, -187500.02, 0.000, 0.000, 0.000, 16:27:30.705
129, -78240.73, -16521.72, -161409.63, -86612.96, -60050.44, -157137.83, 187500.00, -168319.25, -187500.02, -187500.02, -187500.02, -187500.02, -187500.02, -187500.02, -187500.02, -187500.02, 0.000, 0.000, 0.000, 16:27:30.705
130, -78240.73, -16521.72, -161409.63, -86612.96, -60050.44, -157137.83, 187500.00, -168319.25, -187500.02, -187500.02, -187500.02, -187500.02, -187500.02, -187500.02, -187500.02, -187500.02, 0.000, 0.000, 0.000, 16:27:30.706
131, -85666.52, -20561.37, -162774.42, -81208.11, -63891.45, -150037.64, 187500.00, -165523.38, -187500.02, -187500.02, -187500.02, -187500.02, -187500.02, -187500.02, -187500.02, -187500.02, 0.000, 0.000, 0.000, 16:27:30.706
132, -85666.52, -20561.37, -162774.42, -81208.11, -63891.45, -150037.64, 187500.00, -165523.38, -187500.02, -187500.02, -187500.02, -187500.02, -187500.02, -187500.02, -187500.02, -187500.02, 0.000, 0.000, 0.000, 16:27:30.706
133, -72197.74, -12637.32, -159477.36, -89992.01, -56302.50, -161486.94, 187500.00, -170018.38, -187500.02, -187500.02, -187500.02, -187500.02, -187500.02, -187500.02, -187500.02, -187500.02, 0.000, 0.000, 0.000, 16:27:30.706
134, -72197.74, -12637.32, -159477.36, -89992.01, -56302.50, -161486.94, 187500.00, -170018.38, -187500.02, -187500.02, -187500.02, -187500.02, -187500.02, -187500.02, -187500.02, -187500.02, 0.000, 0.000, 0.000, 16:27:30.706
135, -87015.72, -21726.54, -163463.55, -81009.13, -64839.73, -149721.50, 187500.00, -165441.69, -187500.02, -187500.02, -187500.02, -187500.02, -187500.02, -187500.02, -187500.02, -187500.02, 0.094, 0.892, 0.320, 16:27:30.707
136, -87015.72, -21726.54, -163463.55, -81009.13, -64839.73, -149721.50, 187500.00, -165441.69, -187500.02, -187500.02, -187500.02, -187500.02, -187500.02, -187500.02, -187500.02, -187500.02, 0.000, 0.000, 0.000, 16:27:30.707
137, -76368.06, -14884.79, -160335.86, -87055.37, -58369.03, -157698.86, 187500.00, -168405.75, -187500.02, -187500.02, -187500.02, -187500.02, -187500.02, -187500.02, -187500.02, -187500.02, 0.000, 0.000, 0.000, 16:27:30.707
138, -76368.06, -14884.79, -160335.86, -87055.37, -58369.03, -157698.86, 187500.00, -168405.75, -187500.02, -187500.02, -187500.02, -187500.02, -187500.02, -187500.02, -187500.02, -187500.02, 0.000, 0.000, 0.000, 16:27:30.707
139, -78248.11, -16537.38, -161349.19, -86771.08, -59805.11, -157293.53, 187500.00, -168330.44, -187500.02, -187500.02, -187500.02, -187500.02, -187500.02, -187500.02, -187500.02, -187500.02, 0.000, 0.000, 0.000, 16:27:30.708
140, -78248.11, -16537.38, -161349.19, -86771.08, -59805.11, -157293.53, 187500.00, -168330.44, -187500.02, -187500.02, -187500.02, -187500.02, -187500.02, -187500.02, -187500.02, -187500.02, 0.000, 0.000, 0.000, 16:27:30.708
141, -85927.30, -20732.63, -162782.19, -81211.59, -63774.66, -149998.63, 187500.00, -165448.72, -187500.02, -187500.02, -187500.02, -187500.02, -187500.02, -187500.02, -187500.02, -187500.02, 0.000, 0.000, 0.000, 16:27:30.708
142, -85927.30, -20732.63, -162782.19, -81211.59, -63774.66, -149998.63, 187500.00, -165448.72, -187500.02, -187500.02, -187500.02, -187500.02, -187500.02, -187500.02, -187500.02, -187500.02, 0.000, 0.000, 0.000, 16:27:30.709
143, -72430.22, -12782.38, -159468.11, -89995.72, -56162.69, -161453.75, 187500.00, -169939.28, -187500.02, -187500.02, -187500.02, -187500.02, -187500.02, -187500.02, -187500.02, -187500.02, 0.000, 0.000, 0.000, 16:27:30.709
144, -72430.22, -12782.38, -159468.11, -89995.72, -56162.69, -161453.75, 187500.00, -169939.28, -187500.02, -187500.02, -187500.02, -187500.02, -187500.02, -187500.02, -187500.02, -187500.02, 0.000, 0.000, 0.000, 16:27:30.709
145, -87247.98, -21874.60, -163453.72, -81023.13, -64724.48, -149697.67, 187500.00, -165384.95, -187500.02, -187500.02, -187500.02, -187500.02, -187500.02, -187500.02, -187500.02, -187500.02, 0.098, 0.902, 0.316, 16:27:30.709
146, -87247.98, -21874.60, -163453.72, -81023.13, -64724.48, -149697.67, 187500.00, -165384.95, -187500.02, -187500.02, -187500.02, -187500.02, -187500.02, -187500.02, -187500.02, -187500.02, 0.000, 0.000, 0.000, 16:27:30.710
147, -76784.59, -15135.86, -160368.63, -86932.46, -58372.67, -157494.95, 187500.00, -168284.84, -187500.02, -187500.02, -187500.02, -187500.02, -187500.02, -187500.02, -187500.02, -187500.02, 0.000, 0.000, 0.000, 16:27:30.710
148, -76784.59, -15135.86, -160368.63, -86932.46, -58372.67, -157494.95, 187500.00, -168284.84, -187500.02, -187500.02, -187500.02, -187500.02, -187500.02, -187500.02, -187500.02, -187500.02, 0.000, 0.000, 0.000, 16:27:30.710
149, -78407.52, -16627.82, -161318.84, -86795.95, -59674.13, -157279.28, 187500.00, -168285.89, -187500.02, -187500.02, -187500.02, -187500.02, -187500.02, -187500.02, -187500.02, -187500.02, 0.000, 0.000, 0.000, 16:27:30.711
150, -78407.52, -16627.82, -161318.84, -86795.95, -59674.13, -157279.28, 187500.00, -168285.89, -187500.02, -187500.02, -187500.02, -187500.02, -187500.02, -187500.02, -187500.02, -187500.02, 0.000, 0.000, 0.000, 16:27:30.711
151, -86239.55, -20919.44, -162801.30, -81153.70, -63742.48, -149875.48, 187500.00, -165380.66, -187500.02, -187500.02, -187500.02, -187500.02, -187500.02, -187500.02, -187500.02, -187500.02, 0.000, 0.000, 0.000, 16:27:30.711
152, -86239.55, -20919.44, -162801.30, -81153.70, -63742.48, -149875.48, 187500.00, -165380.66, -187500.02, -187500.02, -187500.02, -187500.02, -187500.02, -187500.02, -187500.02, -187500.02, 0.000, 0.000, 0.000, 16:27:30.711
153, -72564.55, -12852.03, -159429.75, -90037.30, -56018.54, -161463.97, 187500.00, -169907.06, -187500.02, -187500.02, -187500.02, -187500.02, -187500.02, -187500.02, -187500.02, -187500.02, 0.000, 0.000, 0.000, 16:27:30.712
154, -72564.55, -12852.03, -159429.75, -90037.30, -56018.54, -161463.97, 187500.00, -169907.06, -187500.02, -187500.02, -187500.02, -187500.02, -187500.02, -187500.02, -187500.02, -187500.02, 0.000, 0.000, 0.000, 16:27:30.712
155, -87263.84, -21880.30, -163412.64, -81160.99, -64510.86, -149840.09, 187500.00, -165405.72, -187500.02, -187500.02, -187500.02, -187500.02, -187500.02, -187500.02, -187500.02, -187500.02, 0.100, 0.900, 0.312, 16:27:30.713
156, -87263.84, -21880.30, -163412.64, -81160.99, -64510.86, -149840.09, 187500.00, -165405.72, -187500.02, -187500.02, -187500.02, -187500.02, -187500.02, -187500.02, -187500.02, -187500.02, 0.000, 0.000, 0.000, 16:27:30.713
157, -76948.80, -15222.79, -160362.52, -86982.99, -58235.90, -157525.81, 187500.00, -168254.98, -187500.02, -187500.02, -187500.02, -187500.02, -187500.02, -187500.02, -187500.02, -187500.02, 0.000, 0.000, 0.000, 16:27:30.713
158, -76948.80, -15222.79, -160362.52, -86982.99, -58235.90, -157525.81, 187500.00, -168254.98, -187500.02, -187500.02, -187500.02, -187500.02, -187500.02, -187500.02, -187500.02, -187500.02, 0.000, 0.000, 0.000, 16:27:30.714
159, -78378.18, -16600.39, -161265.80, -86977.59, -59426.87, -157482.11, 187500.00, -168326.36, -187500.02, -187500.02, -187500.02, -187500.02, -187500.02, -187500.02, -187500.02, -187500.02, 0.000, 0.000, 0.000, 16:27:30.714
160, -78378.18, -16600.39, -161265.80, -86977.59, -59426.87, -157482.11, 187500.00, -168326.36, -187500.02, -187500.02, -187500.02, -187500.02, -187500.02, -187500.02, -187500.02, -187500.02, 0.000, 0.000, 0.000, 16:27:30.714
161, -86456.39, -21044.05, -162828.11, -81193.63, -63643.64, -149894.48, 187500.00, -165349.50, -187500.02, -187500.02, -187500.02, -187500.02, -187500.02, -187500.02, -187500.02, -187500.02, 0.000, 0.000, 0.000, 16:27:30.715
162, -86456.39, -21044.05, -162828.11, -81193.63, -63643.64, -149894.48, 187500.00, -165349.50, -187500.02, -187500.02, -187500.02, -187500.02, -187500.02, -187500.02, -187500.02, -187500.02, 0.000, 0.000, 0.000, 16:27:30.715
163, -72778.44, -12966.27, -159458.38, -90071.98, -55920.22, -161479.81, 187500.00, -169879.02, -187500.02, -187500.02, -187500.02, -187500.02, -187500.02, -187500.02, -187500.02, -187500.02, 0.000, 0.000, 0.000, 16:27:30.716
164, -72778.44, -12966.27, -159458.38, -90071.98, -55920.22, -161479.81, 187500.00, -169879.02, -187500.02, -187500.02, -187500.02, -187500.02, -187500.02, -187500.02, -187500.02, -187500.02, 0.000, 0.000, 0.000, 16:27:30.716
165, -87478.45, -21990.43, -163426.23, -81183.59, -64425.39, -149843.30, 187500.00, -165386.03, -187500.02, -187500.02, -187500.02, -187500.02, -187500.02, -187500.02, -187500.02, -187500.02, 0.096, 0.902, 0.312, 16:27:30.716
166, -87478.45, -21990.43, -163426.23, -81183.59, -64425.39, -149843.30, 187500.00, -165386.03, -187500.02, -187500.02, -187500.02, -187500.02, -187500.02, -187500.02, -187500.02, -187500.02, 0.000, 0.000, 0.000, 16:27:30.716
167, -77347.98, -15422.52, -160410.91, -86861.24, -58266.39, -157328.89, 187500.00, -168164.55, -187500.02, -187500.02, -187500.02, -187500.02, -187500.02, -187500.02, -187500.02, -187500.02, 0.000, 0.000, 0.000, 16:27:30.717
168, -77347.98, -15422.52, -160410.91, -86861.24, -58266.39, -157328.89, 187500.00, -168164.55, -187500.02, -187500.02, -187500.02, -187500.02, -187500.02, -187500.02, -187500.02, -187500.02, 0.000, 0.000, 0.000, 16:27:30.717
169, -78530.80, -16626.59, -161246.63, -86979.76, -59340.75, -157436.03, 187500.00, -168295.20, -187500.02, -187500.02, -187500.02, -187500.02, -187500.02, -187500.02, -187500.02, -187500.02, 0.000, 0.000, 0.000, 16:27:30.717
170, -78530.80, -16626.59, -161246.63, -86979.76, -59340.75, -157436.03, 187500.00, -168295.20, -187500.02, -187500.02, -187500.02, -187500.02, -187500.02, -187500.02, -187500.02, -187500.02, 0.000, 0.000, 0.000, 16:27:30.718
171, -86706.99, -21113.66, -162817.97, -81101.83, -63652.87, -149717.48, 187500.00, -165290.00, -187500.02, -187500.02, -187500.02, -187500.02, -187500.02, -187500.02, -187500.02, -187500.02, 0.000, 0.000, 0.000, 16:27:30.718
172, -86706.99, -21113.66, -162817.97, -81101.83, -63652.87, -149717.48, 187500.00, -165290.00, -187500.02, -187500.02, -187500.02, -187500.02, -187500.02, -187500.02, -187500.02, -187500.02, 0.000, 0.000, 0.000, 16:27:30.718
173, -72818.94, -12880.73, -159395.38, -90066.58, -55845.56, -161411.94, 187500.00, -169855.80, -187500.02, -187500.02, -187500.02, -187500.02, -187500.02, -187500.02, -187500.02, -187500.02, 0.000, 0.000, 0.000, 16:27:30.719
174, -72818.94, -12880.73, -159395.38, -90066.58, -55845.56, -161411.94, 187500.00, -169855.80, -187500.02, -187500.02, -187500.02, -187500.02, -187500.02, -187500.02, -187500.02, -187500.02, 0.000, 0.000, 0.000, 16:27:30.719
175, -87356.72, -21798.54, -163368.72, -81272.51, -64324.86, -149890.09, 187500.00, -165411.75, -187500.02, -187500.02, -187500.02, -187500.02, -187500.02, -187500.02, -187500.02, -187500.02, 0.090, 0.902, 0.312, 16:27:30.719
176, -87356.72, -21798.54, -163368.72, -81272.51, -64324.86, -149890.09, 187500.00, -165411.75, -187500.02, -187500.02, -187500.02, -187500.02, -187500.02, -187500.02, -187500.02, -187500.02, 0.000, 0.000, 0.000, 16:27:30.719
177, -77317.09, -15272.23, -160395.48, -86860.06, -58267.96, -157257.80, 187500.00, -168157.33, -187500.02, -187500.02, -187500.02, -187500.02, -187500.02, -187500.02, -187500.02, -187500.02, 0.000, 0.000, 0.000, 16:27:30.720
178, -77317.09, -15272.23, -160395.48, -86860.06, -58267.96, -157257.80, 187500.00, -168157.33, -187500.02, -187500.02, -187500.02, -187500.02, -187500.02, -187500.02, -187500.02, -187500.02, 0.000, 0.000, 0.000, 16:27:30.720
179, -78275.90, -16332.17, -161192.08, -87098.13, -59272.29, -157516.92, 187500.00, -168362.70, -187500.02, -187500.02, -187500.02, -187500.02, -187500.02, -187500.02, -187500.02, -187500.02, 0.000, 0.000, 0.000, 16:27:30.720
180, -78275.90, -16332.17, -161192.08, -87098.13, -59272.29, -157516.92, 187500.00, -168362.70, -187500.02, -187500.02, -187500.02, -187500.02, -187500.02, -187500.02, -187500.02, -187500.02, 0.000, 0.000, 0.000, 16:27:30.720
181, -86668.06, -20942.02, -162852.39, -81074.00, -63768.30, -149601.52, 187500.00, -165279.00, -187500.02, -187500.02, -187500.02, -187500.02, -187500.02, -187500.02, -187500.02, -187500.02, 0.000, 0.000, 0.000, 16:27:30.721
182, -86668.06, -20942.02, -162852.39, -81074.00, -63768.30, -149601.52, 187500.00, -165279.00, -187500.02, -187500.02, -187500.02, -187500.02, -187500.02, -187500.02, -187500.02, -187500.02, 0.000, 0.000, 0.000, 16:27:30.721
183, -72732.51, -12675.23, -159413.50, -90039.69, -55958.89, -161291.50, 187500.00, -169853.73, -187500.02, -187500.02, -187500.02, -187500.02, -187500.02, -187500.02, -187500.02, -187500.02, 0.000, 0.000, 0.000, 16:27:30.722
184, -72732.51, -12675.23, -159413.50, -90039.69, -55958.89, -161291.50, 187500.00, -169853.73, -187500.02, -187500.02, -187500.02, -187500.02, -187500.02, -187500.02, -187500.02, -187500.02, 0.000, 0.000, 0.000, 16:27:30.722
185, -87273.41, -21605.96, -163362.39, -81233.19, -64457.96, -149750.41, 187500.00, -165407.78, -187500.02, -187500.02, -187500.02, -187500.02, -187500.02, -187500.02, -187500.02, -187500.02, 0.092, 0.898, 0.316, 16:27:30.722
186, -87273.41, -21605.96, -163362.39, -81233.19, -64457.96, -149750.41, 187500.00, -165407.78, -187500.02, -187500.02, -187500.02, -187500.02, -187500.02, -187500.02, -187500.02, -187500.02, 0.000, 0.000, 0.000, 16:27:30.722
187, -77424.70, -15201.33, -160420.67, -86676.87, -58509.46, -156929.27, 187500.00, -168078.14, -187500.02, -187500.02, -187500.02, -187500.02, -187500.02, -187500.02, -187500.02, -187500.02, 0.000, 0.000, 0.000, 16:27:30.723
188, -77424.70, -15201.33, -160420.67, -86676.87, -58509.46, -156929.27, 187500.00, -168078.14, -187500.02, -187500.02, -187500.02, -187500.02, -187500.02, -187500.02, -187500.02, -187500.02, 0.000, 0.000, 0.000, 16:27:30.723
189, -78132.11, -16120.61, -161139.98, -87045.13, -59362.63, -157367.55, 187500.00, -168341.39, -187500.02, -187500.02, -187500.02, -187500.02, -187500.02, -187500.02, -187500.02, -187500.02, 0.000, 0.000, 0.000, 16:27:30.723
190, -78132.11, -16120.61, -161139.98, -87045.13, -59362.63, -157367.55, 187500.00, -168341.39, -187500.02, -187500.02, -187500.02, -187500.02, -187500.02, -187500.02, -187500.02, -187500.02, 0.000, 0.000, 0.000, 16:27:30.723
191, -86638.09, -20819.55, -162835.83, -80934.21, -63923.39, -149339.42, 187500.00, -165226.09, -187500.02, -187500.02, -187500.02, -187500.02, -187500.02, -187500.02, -187500.02, -187500.02, 0.000, 0.000, 0.000, 16:27:30.724
192, -86638.09, -20819.55, -162835.83, -80934.21, -63923.39, -149339.42, 187500.00, -165226.09, -187500.02, -187500.02, -187500.02, -187500.02, -187500.02, -187500.02, -187500.02, -187500.02, 0.000, 0.000, 0.000, 16:27:30.724
193, -72529.30, -12448.63, -159342.61, -89978.87, -56015.64, -161140.88, 187500.00, -169835.05, -187500.02, -187500.02, -187500.02, -187500.02, -187500.02, -187500.02, -187500.02, -187500.02, 0.000, 0.000, 0.000, 16:27:30.724
194, -72529.30, -12448.63, -159342.61, -89978.87, -56015.64, -161140.88, 187500.00, -169835.05, -187500.02, -187500.02, -187500.02, -187500.02, -187500.02, -187500.02, -187500.02, -187500.02, 0.000, 0.000, 0.000, 16:27:30.724
195, -86922.98, -21316.34, -163304.92, -81289.63, -64454.94, -149762.42, 187500.00, -165452.34, -187500.02, -187500.02, -187500.02, -187500.02, -187500.02, -187500.02, -187500.02, -187500.02, 0.090, 0.902, 0.324, 16:27:30.725
196, -86922.98, -21316.34, -163304.92, -81289.63, -64454.94, -149762.42, 187500.00, -165452.34, -187500.02, -187500.02, -187500.02, -187500.02, -187500.02, -187500.02, -187500.02, -187500.02, 0.000, 0.000, 0.000, 16:27:30.725
197, -77221.27, -15018.81, -160408.19, -86649.20, -58596.97, -156834.30, 187500.00, -168089.81, -187500.02, -187500.02, -187500.02, -187500.02, -187500.02, -187500.02, -187500.02, -187500.02, 0.000, 0.000, 0.000, 16:27:30.725
198, -77221.27, -15018.81, -160408.19, -86649.20, -58596.97, -156834.30, 187500.00, -168089.81, -187500.02, -187500.02, -187500.02, -187500.02, -187500.02, -187500.02, -187500.02, -187500.02, 0.000, 0.000, 0.000, 16:27:30.726
199, -77739.37, -15851.72, -161089.47, -87160.89, -59347.19, -157457.16, 187500.00, -168436.17, -187500.02, -187500.02, -187500.02, -187500.02, -187500.02, -187500.02, -187500.02, -187500.02, 0.000, 0.000, 0.000, 16:27:30.726
200, -77739.37, -15851.72, -161089.47, -87160.89, -59347.19, -157457.16, 187500.00, -168436.17, -187500.02, -187500.02, -187500.02, -187500.02, -187500.02, -187500.02, -187500.02, -187500.02, 0.000, 0.000, 0.000, 16:27:30.726
201, -86500.80, -20733.14, -162861.48, -80924.64, -64049.35, -149268.16, 187500.00, -165249.84, -187500.02, -187500.02, -187500.02, -187500.02, -187500.02, -187500.02, -187500.02, -187500.02, 0.000, 0.000, 0.000, 16:27:30.726
202, -86500.80, -20733.14, -162861.48, -80924.64, -64049.35, -149268.16, 187500.00, -165249.84, -187500.02, -187500.02, -187500.02, -187500.02, -187500.02, -187500.02, -187500.02, -187500.02, 0.000, 0.000, 0.000, 16:27:30.727
203, -72413.39, -12388.61, -159371.06, -89974.30, -56130.17, -161075.53, 187500.00, -169867.98, -187500.02, -187500.02, -187500.02, -187500.02, -187500.02, -187500.02, -187500.02, -187500.02, 0.000, 0.000, 0.000, 16:27:30.727
204, -72413.39, -12388.61, -159371.06, -89974.30, -56130.17, -161075.53, 187500.00, -169867.98, -187500.02, -187500.02, -187500.02, -187500.02, -187500.02, -187500.02, -187500.02, -187500.02, 0.000, 0.000, 0.000, 16:27:30.727
205, -86801.12, -21266.99, -163313.75, -81318.23, -64559.73, -149735.84, 187500.00, -165501.56, -187500.02, -187500.02, -187500.02, -187500.02, -187500.02, -187500.02, -187500.02, -187500.02, 0.092, 0.896, 0.314, 16:27:30.727
206, -86801.12, -21266.99, -163313.75, -81318.23, -64559.73, -149735.84, 187500.00, -165501.56, -187500.02, -187500.02, -187500.02, -187500.02, -187500.02, -187500.02, -187500.02, -187500.02, 0.000, 0.000, 0.000, 16:27:30.728
207, -77355.79, -15123.73, -160466.23, -86510.08, -58829.45, -156588.94, 187500.00, -168045.03, -187500.02, -187500.02, -187500.02, -187500.02, -187500.02, -187500.02, -187500.02, -187500.02, 0.000, 0.000, 0.000, 16:27:30.728
208, -77355.79, -15123.73, -160466.23, -86510.08, -58829.45, -156588.94, 187500.00, -168045.03, -187500.02, -187500.02, -187500.02, -187500.02, -187500.02, -187500.02, -187500.02, -187500.02, 0.000, 0.000, 0.000, 16:27:30.729
209, -77592.47, -15784.85, -161060.83, -87188.99, -59400.38, -157434.31, 187500.00, -168472.92, -187500.02, -187500.02, -187500.02, -187500.02, -187500.02, -187500.02, -187500.02, -187500.02, 0.000, 0.000, 0.000, 16:27:30.729
210, -77592.47, -15784.85, -161060.83, -87188.99, -59400.38, -157434.31, 187500.00, -168472.92, -187500.02, -187500.02, -187500.02, -187500.02, -187500.02, -187500.02, -187500.02, -187500.02, 0.000, 0.000, 0.000, 16:27:30.729
211, -86529.23, -20783.41, -162874.34, -80865.23, -64205.63, -149127.13, 187500.00, -165229.72, -187500.02, -187500.02, -187500.02, -187500.02, -187500.02, -187500.02, -187500.02, -187500.02, 0.000, 0.000, 0.000, 16:27:30.729
212, -86529.23, -20783.41, -162874.34, -80865.23, -64205.63, -149127.13, 187500.00, -165229.72, -187500.02, -187500.02, -187500.02, -187500.02, -187500.02, -187500.02, -187500.02, -187500.02, 0.000, 0.000, 0.000, 16:27:30.730
213, -72261.58, -12325.76, -159329.91, -90019.03, -56175.32, -161074.28, 187500.00, -169908.45, -187500.02, -187500.02, -187500.02, -187500.02, -187500.02, -187500.02, -187500.02, -187500.02, 0.000, 0.000, 0.000, 16:27:30.730
214, -72261.58, -12325.76, -159329.91, -90019.03, -56175.32, -161074.28, 187500.00, -169908.45, -187500.02, -187500.02, -187500.02, -187500.02, -187500.02, -187500.02, -187500.02, -187500.02, 0.086, 0.894, 0.318, 16:27:30.730
215, -86471.30, -21104.85, -163261.67, -81468.33, -64505.68, -149884.92, 187500.00, -165584.94, -187500.02, -187500.02, -187500.02, -187500.02, -187500.02, -187500.02, -187500.02, -187500.02, 0.000, 0.000, 0.000, 16:27:30.731
216, -86471.30, -21104.85, -163261.67, -81468.33, -64505.68, -149884.92, 187500.00, -165584.94, -187500.02, -187500.02, -187500.02, -187500.02, -187500.02, -187500.02, -187500.02, -187500.02, 0.000, 0.000, 0.000, 16:27:30.731
217, -77210.74, -15069.41, -160466.61, -86533.23, -58875.43, -156575.95, 187500.00, -168065.44, -187500.02, -187500.02, -187500.02, -187500.02, -187500.02, -187500.02, -187500.02, -187500.02, 0.000, 0.000, 0.000, 16:27:30.731
218, -77210.74, -15069.41, -160466.61, -86533.23, -58875.43, -156575.95, 187500.00, -168065.44, -187500.02, -187500.02, -187500.02, -187500.02, -187500.02, -187500.02, -187500.02, -187500.02, 0.000, 0.000, 0.000, 16:27:30.731
219, -77200.71, -15584.42, -161000.02, -87374.87, -59313.30, -157626.16, 187500.00, -168581.80, -187500.02, -187500.02, -187500.02, -187500.02, -187500.02, -187500.02, -187500.02, -187500.02, 0.000, 0.000, 0.000, 16:27:30.732
220, -77200.71, -15584.42, -161000.02, -87374.87, -59313.30, -157626.16, 187500.00, -168581.80, -187500.02, -187500.02, -187500.02, -187500.02, -187500.02, -187500.02, -187500.02, -187500.02, 0.000, 0.000, 0.000, 16:27:30.732
221, -86382.94, -20735.33, -162873.30, -80883.12, -64258.36, -149107.19, 187500.00, -165231.38, -187500.02, -187500.02, -187500.02, -187500.02, -187500.02, -187500.02, -187500.02, -187500.02, 0.000, 0.000, 0.000, 16:27:30.732
222, -86382.94, -20735.33, -162873.30, -80883.12, -64258.36, -149107.19, 187500.00, -165231.38, -187500.02, -187500.02, -187500.02, -187500.02, -187500.02, -187500.02, -187500.02, -187500.02, 0.000, 0.000, 0.000, 16:27:30.733
223, -72093.18, -12257.23, -159297.59, -90005.29, -56192.57, -161020.31, 187500.00, -169892.67, -187500.02, -187500.02, -187500.02, -187500.02, -187500.02, -187500.02, -187500.02, -187500.02, 0.000, 0.000, 0.000, 16:27:30.733
224, -72093.18, -12257.23, -159297.59, -90005.29, -56192.57, -161020.31, 187500.00, -169892.67, -187500.02, -187500.02, -187500.02, -187500.02, -187500.02, -187500.02, -187500.02, -187500.02, 0.084, 0.892, 0.320, 16:27:30.744
225, -86275.54, -21036.21, -163226.84, -81475.66, -64505.81, -149855.67, 187500.00, -165566.42, -187500.02, -187500.02, -187500.02, -187500.02, -187500.02, -187500.02, -187500.02, -187500.02, 0.000, 0.000, 0.000, 16:27:30.745
226, -86275.54, -21036.21, -163226.84, -81475.66, -64505.81, -149855.67, 187500.00, -165566.42, -187500.02, -187500.02, -187500.02, -187500.02, -187500.02, -187500.02, -187500.02, -187500.02, 0.000, 0.000, 0.000, 16:27:30.745
227, -77267.79, -15163.42, -160481.61, -86371.95, -59001.00, -156322.78, 187500.00, -167958.98, -187500.02, -187500.02, -187500.02, -187500.02, -187500.02, -187500.02, -187500.02, -187500.02, 0.000, 0.000, 0.000, 16:27:30.746
228, -77267.79, -15163.42, -160481.61, -86371.95, -59001.00, -156322.78, 187500.00, -167958.98, -187500.02, -187500.02, -187500.02, -187500.02, -187500.02, -187500.02, -187500.02, -187500.02, 0.000, 0.000, 0.000, 16:27:30.746
229, -77005.06, -15526.13, -160943.69, -87362.86, -59280.24, -157569.83, 187500.00, -168558.19, -187500.02, -187500.02, -187500.02, -187500.02, -187500.02, -187500.02, -187500.02, -187500.02, 0.000, 0.000, 0.000, 16:27:30.746
230, -77005.06, -15526.13, -160943.69, -87362.86, -59280.24, -157569.83, 187500.00, -168558.19, -187500.02, -187500.02, -187500.02, -187500.02, -187500.02, -187500.02, -187500.02, -187500.02, 0.000, 0.000, 0.000, 16:27:30.747
231, -86352.41, -20789.58, -162892.83, -80796.13, -64319.04, -148945.56, 187500.00, -165178.06, -187500.02, -187500.02, -187500.02, -187500.02, -187500.02, -187500.02, -187500.02, -187500.02, 0.000, 0.000, 0.000, 16:27:30.747
232, -86352.41, -20789.58, -162892.83, -80796.13, -64319.04, -148945.56, 187500.00, -165178.06, -187500.02, -187500.02, -187500.02, -187500.02, -187500.02, -187500.02, -187500.02, -187500.02, 0.000, 0.000, 0.000, 16:27:30.747
233, -71924.85, -12230.67, -159275.06, -90021.83, -56159.52, -160988.61, 187500.00, -169896.75, -187500.02, -187500.02, -187500.02, -187500.02, -187500.02, -187500.02, -187500.02, -187500.02, 0.000, 0.000, 0.000, 16:27:30.747
234, -71924.85, -12230.67, -159275.06, -90021.83, -56159.52, -160988.61, 187500.00, -169896.75, -187500.02, -187500.02, -187500.02, -187500.02, -187500.02, -187500.02, -187500.02, -187500.02, 0.094, 0.896, 0.320, 16:27:30.748
235, -85958.57, -20934.84, -163174.97, -81605.52, -64381.38, -149980.00, 187500.00, -165635.45, -187500.02, -187500.02, -187500.02, -187500.02, -187500.02, -187500.02, -187500.02, -187500.02, 0.000, 0.000, 0.000, 16:27:30.748
236, -85958.57, -20934.84, -163174.97, -81605.52, -64381.38, -149980.00, 187500.00, -165635.45, -187500.02, -187500.02, -187500.02, -187500.02, -187500.02, -187500.02, -187500.02, -187500.02, 0.000, 0.000, 0.000, 16:27:30.748
237, -77166.45, -15208.01, -160483.06, -86389.89, -58970.34, -156309.88, 187500.00, -167967.63, -187500.02, -187500.02, -187500.02, -187500.02, -187500.02, -187500.02, -187500.02, -187500.02, 0.000, 0.000, 0.000, 16:27:30.749
238, -77166.45, -15208.01, -160483.06, -86389.89, -58970.34, -156309.88, 187500.00, -167967.63, -187500.02, -187500.02, -187500.02, -187500.02, -187500.02, -187500.02, -187500.02, -187500.02, 0.000, 0.000, 0.000, 16:27:30.749
239, -76685.39, -15463.58, -160880.00, -87538.03, -59088.85, -157777.41, 187500.00, -168645.61, -187500.02, -187500.02, -187500.02, -187500.02, -187500.02, -187500.02, -187500.02, -187500.02, 0.000, 0.000, 0.000, 16:27:30.749
240, -76685.39, -15463.58, -160880.00, -87538.03, -59088.85, -157777.41, 187500.00, -168645.61, -187500.02, -187500.02, -187500.02, -187500.02, -187500.02, -187500.02, -187500.02, -187500.02, 0.000, 0.000, 0.000, 16:27:31.183
241, -86337.95, -20944.41, -162909.61, -80804.21, -64260.10, -148946.66, 187500.00, -165170.06, -187500.02, -187500.02, -187500.02, -187500.02, -187500.02, -187500.02, -187500.02, -187500.02, 0.000, 0.000, 0.000, 16:27:31.183
242, -86337.95, -20944.41, -162909.61, -80804.21, -64260.10, -148946.66, 187500.00, -165170.06, -187500.02, -187500.02, -187500.02, -187500.02, -187500.02, -187500.02, -187500.02, -187500.02, 0.000, 0.000, 0.000, 16:27:31.184
243, -71935.78, -12415.68, -159273.66, -90027.13, -56051.33, -161004.44, 187500.00, -169875.59, -187500.02, -187500.02, -187500.02, -187500.02, -187500.02, -187500.02, -187500.02, -187500.02, 0.000, 0.000, 0.000, 16:27:31.184
244, -71935.78, -12415.68, -159273.66, -90027.13, -56051.33, -161004.44, 187500.00, -169875.59, -187500.02, -187500.02, -187500.02, -187500.02, -187500.02, -187500.02, -187500.02, -187500.02, 0.092, 0.894, 0.316, 16:27:31.184
245, -85988.92, -21147.45, -163159.03, -81624.19, -64237.79, -150020.45, 187500.00, -165606.50, -187500.02, -187500.02, -187500.02, -187500.02, -187500.02, -187500.02, -187500.02, -187500.02, 0.000, 0.000, 0.000, 16:27:31.184
246, -85988.92, -21147.45, -163159.03, -81624.19, -64237.79, -150020.45, 187500.00, -165606.50, -187500.02, -187500.02, -187500.02, -187500.02, -187500.02, -187500.02, -187500.02, -187500.02, 0.000, 0.000, 0.000, 16:27:31.185
247, -77483.33, -15588.37, -160504.77, -86218.86, -58935.22, -156107.48, 187500.00, -167834.53, -187500.02, -187500.02, -187500.02, -187500.02, -187500.02, -187500.02, -187500.02, -187500.02, 0.000, 0.000, 0.000, 16:27:31.185
248, -77483.33, -15588.37, -160504.77, -86218.86, -58935.22, -156107.48, 187500.00, -167834.53, -187500.02, -187500.02, -187500.02, -187500.02, -187500.02, -187500.02, -187500.02, -187500.02, 0.000, 0.000, 0.000, 16:27:31.185
249, -76741.70, -15671.17, -160810.09, -87512.15, -58868.75, -157762.81, 187500.00, -168575.16, -187500.02, -187500.02, -187500.02, -187500.02, -187500.02, -187500.02, -187500.02, -187500.02, 0.000, 0.000, 0.000, 16:27:31.185
250, -76741.70, -15671.17, -160810.09, -87512.15, -58868.75, -157762.81, 187500.00, -168575.16, -187500.02, -187500.02, -187500.02, -187500.02, -187500.02, -187500.02, -187500.02, -187500.02, 0.000, 0.000, 0.000, 16:27:31.186
251, -86556.37, -21234.58, -162874.09, -80658.52, -64129.66, -148777.03, 187500.00, -165061.91, -187500.02, -187500.02, -187500.02, -187500.02, -187500.02, -187500.02, -187500.02, -187500.02, 0.000, 0.000, 0.000, 16:27:31.186
252, -86556.37, -21234.58, -162874.09, -80658.52, -64129.66, -148777.03, 187500.00, -165061.91, -187500.02, -187500.02, -187500.02, -187500.02, -187500.02, -187500.02, -187500.02, -187500.02, 0.000, 0.000, 0.000, 16:27:31.186
253, -71966.47, -12557.59, -159178.64, -89961.32, -55818.05, -160936.41, 187500.00, -169784.16, -187500.02, -187500.02, -187500.02, -187500.02, -187500.02, -187500.02, -187500.02, -187500.02, 0.000, 0.000, 0.000, 16:27:31.187
254, -71966.47, -12557.59, -159178.64, -89961.32, -55818.05, -160936.41, 187500.00, -169784.16, -187500.02, -187500.02, -187500.02, -187500.02, -187500.02, -187500.02, -187500.02, -187500.02, 0.086, 0.896, 0.312, 16:27:31.187
255, -85822.13, -21138.74, -163035.19, -81648.44, -63933.79, -150063.17, 187500.00, -165589.05, -187500.02, -187500.02, -187500.02, -187500.02, -187500.02, -187500.02, -187500.02, -187500.02, 0.000, 0.000, 0.000, 16:27:31.187
0, -85822.13, -21138.74, -163035.19, -81648.44, -63933.79, -150063.17, 187500.00, -165589.05, -187500.02, -187500.02, -187500.02, -187500.02, -187500.02, -187500.02, -187500.02, -187500.02, 0.000, 0.000, 0.000, 16:27:31.187
1, -77460.33, -15627.76, -160423.89, -86109.60, -58758.42, -155962.80, 187500.00, -167744.53, -187500.02, -187500.02, -187500.02, -187500.02, -187500.02, -187500.02, -187500.02, -187500.02, 0.000, 0.000, 0.000, 16:27:31.188
2, -77460.33, -15627.76, -160423.89, -86109.60, -58758.42, -155962.80, 187500.00, -167744.53, -187500.02, -187500.02, -187500.02, -187500.02, -187500.02, -187500.02, -187500.02, -187500.02, 0.000, 0.000, 0.000, 16:27:31.188
3, -76451.84, -15522.75, -160670.28, -87548.61, -58591.23, -157799.58, 187500.00, -168560.11, -187500.02, -187500.02, -187500.02, -187500.02, -187500.02, -187500.02, -187500.02, -187500.02, 0.000, 0.000, 0.000, 16:27:31.188
4, -76451.84, -15522.75, -160670.28, -87548.61, -58591.23, -157799.58, 187500.00, -168560.11, -187500.02, -187500.02, -187500.02, -187500.02, -187500.02, -187500.02, -187500.02, -187500.02, 0.000, 0.000, 0.000, 16:27:31.188
5, -86525.95, -21231.47, -162831.09, -80544.28, -64046.86, -148600.92, 187500.00, -164991.30, -187500.02, -187500.02, -187500.02, -187500.02, -187500.02, -187500.02, -187500.02, -187500.02, 0.000, 0.000, 0.000, 16:27:31.189
6, -86525.95, -21231.47, -162831.09, -80544.28, -64046.86, -148600.92, 187500.00, -164991.30, -187500.02, -187500.02, -187500.02, -187500.02, -187500.02, -187500.02, -187500.02, -187500.02, 0.000, 0.000, 0.000, 16:27:31.189
7, -71973.02, -12570.33, -159154.19, -89859.28, -55760.22, -160764.30, 187500.00, -169708.63, -187500.02, -187500.02, -187500.02, -187500.02, -187500.02, -187500.02, -187500.02, -187500.02, 0.000, 0.000, 0.000, 16:27:31.189
8, -71973.02, -12570.33, -159154.19, -89859.28, -55760.22, -160764.30, 187500.00, -169708.63, -187500.02, -187500.02, -187500.02, -187500.02, -187500.02, -187500.02, -187500.02, -187500.02, 0.084, 0.890, 0.314, 16:27:31.189
9, -85850.48, -21191.40, -163019.67, -81585.16, -63848.92, -149949.02, 187500.00, -165536.33, -187500.02, -187500.02, -187500.02, -187500.02, -187500.02, -187500.02, -187500.02, -187500.02, 0.000, 0.000, 0.000, 16:27:31.190
10, -85850.48, -21191.40, -163019.67, -81585.16, -63848.92, -149949.02, 187500.00, -165536.33, -187500.02, -187500.02, -187500.02, -187500.02, -187500.02, -187500.02, -187500.02, -187500.02, 0.000, 0.000, 0.000, 16:27:31.190
11, -77818.29, -15902.24, -160482.19, -85894.45, -58782.20, -155647.39, 187500.00, -167593.53, -187500.02, -187500.02, -187500.02, -187500.02, -187500.02, -187500.02, -187500.02, -187500.02, 0.000, 0.000, 0.000, 16:27:31.190
12, -77818.29, -15902.24, -160482.19, -85894.45, -58782.20, -155647.39, 187500.00, -167593.53, -187500.02, -187500.02, -187500.02, -187500.02, -187500.02, -187500.02, -187500.02, -187500.02, 0.000, 0.000, 0.000, 16:27:31.190
13, -76613.26, -15689.76, -160667.58, -87510.98, -58433.47, -157712.41, 187500.00, -168476.98, -187500.02, -187500.02, -187500.02, -187500.02, -187500.02, -187500.02, -187500.02, -187500.02, 0.000, 0.000, 0.000, 16:27:31.191
14, -76613.26, -15689.76, -160667.58, -87510.98, -58433.47, -157712.41, 187500.00, -168476.98, -187500.02, -187500.02, -187500.02, -187500.02, -187500.02, -187500.02, -187500.02, -187500.02, 0.000, 0.000, 0.000, 16:27:31.191
15, -86863.88, -21497.53, -162865.20, -80411.29, -63955.98, -148392.38, 187500.00, -164862.59, -187500.02, -187500.02, -187500.02, -187500.02, -187500.02, -187500.02, -187500.02, -187500.02, 0.000, 0.000, 0.000, 16:27:31.191
16, -86863.88, -21497.53, -162865.20, -80411.29, -63955.98, -148392.38, 187500.00, -164862.59, -187500.02, -187500.02, -187500.02, -187500.02, -187500.02, -187500.02, -187500.02, -187500.02, 0.000, 0.000, 0.000, 16:27:31.191
17, -72173.55, -12729.83, -159144.92, -89812.08, -55572.29, -160657.41, 187500.00, -169599.05, -187500.02, -187500.02, -187500.02, -187500.02, -187500.02, -187500.02, -187500.02, -187500.02, 0.000, 0.000, 0.000, 16:27:31.191
18, -72173.55, -12729.83, -159144.92, -89812.08, -55572.29, -160657.41, 187500.00, -169599.05, -187500.02, -187500.02, -187500.02, -187500.02, -187500.02, -187500.02, -187500.02, -187500.02, 0.086, 0.896, 0.316, 16:27:31.192
19, -85828.86, -21185.43, -162972.06, -81655.99, -63586.40, -149994.06, 187500.00, -165503.53, -187500.02, -187500.02, -187500.02, -187500.02, -187500.02, -187500.02, -187500.02, -187500.02, 0.000, 0.000, 0.000, 16:27:31.192
20, -85828.86, -21185.43, -162972.06, -81655.99, -63586.40, -149994.06, 187500.00, -165503.53, -187500.02, -187500.02, -187500.02, -187500.02, -187500.02, -187500.02, -187500.02, -187500.02, 0.000, 0.000, 0.000, 16:27:31.192
21, -77954.50, -15958.07, -160488.20, -85838.36, -58675.47, -155517.20, 187500.00, -167516.47, -187500.02, -187500.02, -187500.02, -187500.02, -187500.02, -187500.02, -187500.02, -187500.02, 0.000, 0.000, 0.000, 16:27:31.192
22, -77954.50, -15958.07, -160488.20, -85838.36, -58675.47, -155517.20, 187500.00, -167516.47, -187500.02, -187500.02, -187500.02, -187500.02, -187500.02, -187500.02, -187500.02, -187500.02, 0.000, 0.000, 0.000, 16:27:31.193
23, -76432.97, -15531.85, -160602.75, -87616.71, -58207.98, -157787.11, 187500.00, -168491.27, -187500.02, -187500.02, -187500.02, -187500.02, -187500.02, -187500.02, -187500.02, -187500.02, 0.000, 0.000, 0.000, 16:27:31.193
24, -76432.97, -15531.85, -160602.75, -87616.71, -58207.98, -157787.11, 187500.00, -168491.27, -187500.02, -187500.02, -187500.02, -187500.02, -187500.02, -187500.02, -187500.02, -187500.02, 0.000, 0.000, 0.000, 16:27:31.193
25, -86864.89, -21436.04, -162861.80, -80359.52, -63896.41, -148264.39, 187500.00, -164813.42, -187500.02, -187500.02, -187500.02, -187500.02, -187500.02, -187500.02, -187500.02, -187500.02, 0.000, 0.000, 0.000, 16:27:31.193
26, -86864.89, -21436.04, -162861.80, -80359.52, -63896.41, -148264.39, 187500.00, -164813.42, -187500.02, -187500.02, -187500.02, -187500.02, -187500.02, -187500.02, -187500.02, -187500.02, 0.000, 0.000, 0.000, 16:27:31.194
27, -72117.25, -12619.37, -159146.88, -89766.01, -55542.63, -160529.03, 187500.00, -169573.58, -187500.02, -187500.02, -187500.02, -187500.02, -187500.02, -187500.02, -187500.02, -187500.02, 0.000, 0.000, 0.000, 16:27:31.194
28, -72117.25, -12619.37, -159146.88, -89766.01, -55542.63, -160529.03, 187500.00, -169573.58, -187500.02, -187500.02, -187500.02, -187500.02, -187500.02, -187500.02, -187500.02, -187500.02, 0.084, 0.896, 0.318, 16:27:31.194
29, -85618.04, -20947.76, -162955.72, -81619.88, -63581.48, -149877.67, 187500.00, -165521.14, -187500.02, -187500.02, -187500.02, -187500.02, -187500.02, -187500.02, -187500.02, -187500.02, 0.000, 0.000, 0.000, 16:27:31.194
30, -85618.04, -20947.76, -162955.72, -81619.88, -63581.48, -149877.67, 187500.00, -165521.14, -187500.02, -187500.02, -187500.02, -187500.02, -187500.02, -187500.02, -187500.02, -187500.02, 0.000, 0.000, 0.000, 16:27:31.195
31, -77953.63, -15833.55, -160533.17, -85621.44, -58859.36, -155149.88, 187500.00, -167467.36, -187500.02, -187500.02, -187500.02, -187500.02, -187500.02, -187500.02, -187500.02, -187500.02, 0.000, 0.000, 0.000, 16:27:31.195
32, -77953.63, -15833.55, -160533.17, -85621.44, -58859.36, -155149.88, 187500.00, -167467.36, -187500.02, -187500.02, -187500.02, -187500.02, -187500.02, -187500.02, -187500.02, -187500.02, 0.000, 0.000, 0.000, 16:27:31.195
33, -76119.04, -15214.43, -160561.94, -87552.20, -58255.98, -157613.55, 187500.00, -168521.86, -187500.02, -187500.02, -187500.02, -187500.02, -187500.02, -187500.02, -187500.02, -187500.02, 0.000, 0.000, 0.000, 16:27:31.195
34, -76119.04, -15214.43, -160561.94, -87552.20, -58255.98, -157613.55, 187500.00, -168521.86, -187500.02, -187500.02, -187500.02, -187500.02, -187500.02, -187500.02, -187500.02, -187500.02, 0.000, 0.000, 0.000, 16:27:31.196
35, -86635.42, -21163.19, -162856.13, -80191.91, -64062.45, -147961.28, 187500.00, -164805.47, -187500.02, -187500.02, -187500.02, -187500.02, -187500.02, -187500.02, -187500.02, -187500.02, 0.000, 0.000, 0.000, 16:27:31.196
36, -86635.42, -21163.19, -162856.13, -80191.91, -64062.45, -147961.28, 187500.00, -164805.47, -187500.02, -187500.02, -187500.02, -187500.02, -187500.02, -187500.02, -187500.02, -187500.02, 0.000, 0.000, 0.000, 16:27:31.196
37, -71704.04, -12224.01, -159112.77, -89687.96, -55671.87, -160329.11, 187500.00, -169629.58, -187500.02, -187500.02, -187500.02, -187500.02, -187500.02, -187500.02, -187500.02, -187500.02, 0.000, 0.000, 0.000, 16:27:31.196
38, -71704.04, -12224.01, -159112.77, -89687.96, -55671.87, -160329.11, 187500.00, -169629.58, -187500.02, -187500.02, -187500.02, -187500.02, -187500.02, -187500.02, -187500.02, -187500.02, 0.094, 0.894, 0.318, 16:27:31.197
39, -84944.72, -20390.80, -162877.11, -81662.88, -63645.94, -149842.11, 187500.00, -165623.92, -187500.02, -187500.02, -187500.02, -187500.02, -187500.02, -187500.02, -187500.02, -187500.02, 0.000, 0.000, 0.000, 16:27:31.197
40, -84944.72, -20390.80, -162877.11, -81662.88, -63645.94, -149842.11, 187500.00, -165623.92, -187500.02, -187500.02, -187500.02, -187500.02, -187500.02, -187500.02, -187500.02, -187500.02, 0.000, 0.000, 0.000, 16:27:31.197
41, -77381.06, -15308.02, -160514.22, -85546.18, -59116.29, -154933.66, 187500.00, -167536.27, -187500.02, -187500.02, -187500.02, -187500.02, -187500.02, -187500.02, -187500.02, -187500.02, 0.000, 0.000, 0.000, 16:27:31.197
42, -77381.06, -15308.02, -160514.22, -85546.18, -59116.29, -154933.66, 187500.00, -167536.27, -187500.02, -187500.02, -187500.02, -187500.02, -187500.02, -187500.02, -187500.02, -187500.02, 0.000, 0.000, 0.000, 16:27:31.197
43, -75201.46, -14446.58, -160515.20, -87634.48, -58501.22, -157576.16, 187500.00, -168735.33, -187500.02, -187500.02, -187500.02, -187500.02, -187500.02, -187500.02, -187500.02, -187500.02, 0.000, 0.000, 0.000, 16:27:31.198
44, -75201.46, -14446.58, -160515.20, -87634.48, -58501.22, -157576.16, 187500.00, -168735.33, -187500.02, -187500.02, -187500.02, -187500.02, -187500.02, -187500.02, -187500.02, -187500.02, 0.000, 0.000, 0.000, 16:27:31.198
45, -85851.62, -20462.33, -162888.17, -80132.45, -64534.07, -147735.50, 187500.00, -164937.11, -187500.02, -187500.02, -187500.02, -187500.02, -187500.02, -187500.02, -187500.02, -187500.02, 0.000, 0.000, 0.000, 16:27:31.198
46, -85851.62, -20462.33, -162888.17, -80132.45, -64534.07, -147735.50, 187500.00, -164937.11, -187500.02, -187500.02, -187500.02, -187500.02, -187500.02, -187500.02, -187500.02, -187500.02, 0.000, 0.000, 0.000, 16:27:31.199
47, -70949.69, -11572.17, -159185.55, -89640.98, -56218.55, -160089.48, 187500.00, -169823.67, -187500.02, -187500.02, -187500.02, -187500.02, -187500.02, -187500.02, -187500.02, -187500.02, 0.000, 0.000, 0.000, 16:27:31.199
48, -70949.69, -11572.17, -159185.55, -89640.98, -56218.55, -160089.48, 187500.00, -169823.67, -187500.02, -187500.02, -187500.02, -187500.02, -187500.02, -187500.02, -187500.02, -187500.02, 0.088, 0.900, 0.318, 16:27:31.199
49, -84213.63, -19812.47, -162962.47, -81662.21, -64195.41, -149668.53, 187500.00, -165805.30, -187500.02, -187500.02, -187500.02, -187500.02, -187500.02, -187500.02, -187500.02, -187500.02, 0.000, 0.000, 0.000, 16:27:31.199
50, -84213.63, -19812.47, -162962.47, -81662.21, -64195.41, -149668.53, 187500.00, -165805.30, -187500.02, -187500.02, -187500.02, -187500.02, -187500.02, -187500.02, -187500.02, -187500.02, 0.000, 0.000, 0.000, 16:27:31.200
51, -77046.93, -15048.02, -160705.17, -85409.09, -59798.67, -154574.91, 187500.00, -167625.88, -187500.02, -187500.02, -187500.02, -187500.02, -187500.02, -187500.02, -187500.02, -187500.02, 0.000, 0.000, 0.000, 16:27:31.200
52, -77046.93, -15048.02, -160705.17, -85409.09, -59798.67, -154574.91, 187500.00, -167625.88, -187500.02, -187500.02, -187500.02, -187500.02, -187500.02, -187500.02, -187500.02, -187500.02, 0.000, 0.000, 0.000, 16:27:31.201
53, -74727.94, -14170.89, -160652.86, -87684.77, -58984.98, -157465.73, 187500.00, -168911.80, -187500.02, -187500.02, -187500.02, -187500.02, -187500.02, -187500.02, -187500.02, -187500.02, 0.000, 0.000, 0.000, 16:27:31.201
54, -74727.94, -14170.89, -160652.86, -87684.77, -58984.98, -157465.73, 187500.00, -168911.80, -187500.02, -187500.02, -187500.02, -187500.02, -187500.02, -187500.02, -187500.02, -187500.02, 0.000, 0.000, 0.000, 16:27:31.201
55, -85598.15, -20366.53, -163002.84, -80107.33, -65053.72, -147544.06, 187500.00, -165012.44, -187500.02, -187500.02, -187500.02, -187500.02, -187500.02, -187500.02, -187500.02, -187500.02, 0.000, 0.000, 0.000, 16:27:31.201
56, -85598.15, -20366.53, -163002.84, -80107.33, -65053.72, -147544.06, 187500.00, -165012.44, -187500.02, -187500.02, -187500.02, -187500.02, -187500.02, -187500.02, -187500.02, -187500.02, 0.000, 0.000, 0.000, 16:27:31.202
57, -70641.52, -11483.10, -159292.70, -89743.68, -56614.93, -160037.81, 187500.00, -169959.00, -187500.02, -187500.02, -187500.02, -187500.02, -187500.02, -187500.02, -187500.02, -187500.02, 0.092, 0.894, 0.318, 16:27:31.202
58, -70641.52, -11483.10, -159292.70, -89743.68, -56614.93, -160037.81, 187500.00, -169959.00, -187500.02, -187500.02, -187500.02, -187500.02, -187500.02, -187500.02, -187500.02, -187500.02, 0.000, 0.000, 0.000, 16:27:31.202
59, -83743.22, -19627.98, -162988.48, -81857.92, -64463.57, -149780.84, 187500.00, -165966.56, -187500.02, -187500.02, -187500.02, -187500.02, -187500.02, -187500.02, -187500.02, -187500.02, 0.000, 0.000, 0.000, 16:27:31.203
60, -83743.22, -19627.98, -162988.48, -81857.92, -64463.57, -149780.84, 187500.00, -165966.56, -187500.02, -187500.02, -187500.02, -187500.02, -187500.02, -187500.02, -187500.02, -187500.02, 0.000, 0.000, 0.000, 16:27:31.203
61, -76794.00, -15004.55, -160772.58, -85497.54, -60171.14, -154532.95, 187500.00, -167723.94, -187500.02, -187500.02, -187500.02, -187500.02, -187500.02, -187500.02, -187500.02, -187500.02, 0.000, 0.000, 0.000, 16:27:31.203
62, -76794.00, -15004.55, -160772.58, -85497.54, -60171.14, -154532.95, 187500.00, -167723.94, -187500.02, -187500.02, -187500.02, -187500.02, -187500.02, -187500.02, -187500.02, -187500.02, 0.000, 0.000, 0.000, 16:27:31.204
63, -74273.66, -14022.84, -160674.39, -87943.61, -59211.40, -157635.19, 187500.00, -169102.23, -187500.02, -187500.02, -187500.02, -187500.02, -187500.02, -187500.02, -187500.02, -187500.02, 0.000, 0.000, 0.000, 16:27:31.204
64, -74273.66, -14022.84, -160674.39, -87943.61, -59211.40, -157635.19, 187500.00, -169102.23, -187500.02, -187500.02, -187500.02, -187500.02, -187500.02, -187500.02, -187500.02, -187500.02, 0.000, 0.000, 0.000, 16:27:31.204
65, -85435.43, -20396.66, -163073.66, -80171.15, -65417.07, -147498.63, 187500.00, -165063.97, -187500.02, -187500.02, -187500.02, -187500.02, -187500.02, -187500.02, -187500.02, -187500.02, 0.000, 0.000, 0.000, 16:27:31.204
66, -85435.43, -20396.66, -163073.66, -80171.15, -65417.07, -147498.63, 187500.00, -165063.97, -187500.02, -187500.02, -187500.02, -187500.02, -187500.02, -187500.02, -187500.02, -187500.02, 0.000, 0.000, 0.000, 16:27:31.205
67, -70555.60, -11591.88, -159416.45, -89895.38, -56983.18, -160043.88, 187500.00, -170077.30, -187500.02, -187500.02, -187500.02, -187500.02, -187500.02, -187500.02, -187500.02, -187500.02, 0.092, 0.892, 0.314, 16:27:31.205
68, -70555.60, -11591.88, -159416.45, -89895.38, -56983.18, -160043.88, 187500.00, -170077.30, -187500.02, -187500.02, -187500.02, -187500.02, -187500.02, -187500.02, -187500.02, -187500.02, 0.000, 0.000, 0.000, 16:27:31.205
69, -83661.62, -19723.11, -163073.27, -81976.61, -64816.32, -149799.03, 187500.00, -166064.25, -187500.02, -187500.02, -187500.02, -187500.02, -187500.02, -187500.02, -187500.02, -187500.02, 0.000, 0.000, 0.000, 16:27:31.205
70, -83661.62, -19723.11, -163073.27, -81976.61, -64816.32, -149799.03, 187500.00, -166064.25, -187500.02, -187500.02, -187500.02, -187500.02, -187500.02, -187500.02, -187500.02, -187500.02, 0.000, 0.000, 0.000, 16:27:31.206
71, -77022.16, -15301.89, -160920.78, -85491.91, -60655.08, -154350.70, 187500.00, -167744.69, -187500.02, -187500.02, -187500.02, -187500.02, -187500.02, -187500.02, -187500.02, -187500.02, 0.000, 0.000, 0.000, 16:27:31.206
72, -77022.16, -15301.89, -160920.78, -85491.91, -60655.08, -154350.70, 187500.00, -167744.69, -187500.02, -187500.02, -187500.02, -187500.02, -187500.02, -187500.02, -187500.02, -187500.02, 0.000, 0.000, 0.000, 16:27:31.206
73, -74273.95, -14192.13, -160774.19, -88155.50, -59527.07, -157712.58, 187500.00, -169238.94, -187500.02, -187500.02, -187500.02, -187500.02, -187500.02, -187500.02, -187500.02, -187500.02, 0.000, 0.000, 0.000, 16:27:31.206
74, -74273.95, -14192.13, -160774.19, -88155.50, -59527.07, -157712.58, 187500.00, -169238.94, -187500.02, -187500.02, -187500.02, -187500.02, -187500.02, -187500.02, -187500.02, -187500.02, 0.000, 0.000, 0.000, 16:27:31.207
75, -85631.09, -20637.19, -163162.95, -80142.73, -65807.76, -147359.30, 187500.00, -165078.05, -187500.02, -187500.02, -187500.02, -187500.02, -187500.02, -187500.02, -187500.02, -187500.02, 0.000, 0.000, 0.000, 16:27:31.207
76, -85631.09, -20637.19, -163162.95, -80142.73, -65807.76, -147359.30, 187500.00, -165078.05, -187500.02, -187500.02, -187500.02, -187500.02, -187500.02, -187500.02, -187500.02, -187500.02, 0.000, 0.000, 0.000, 16:27:31.207
77, -70621.61, -11800.47, -159502.98, -90134.95, -57247.06, -160148.50, 187500.00, -170208.97, -187500.02, -187500.02, -187500.02, -187500.02, -187500.02, -187500.02, -187500.02, -187500.02, 0.086, 0.888, 0.314, 16:27:31.207
78, -70621.61, -11800.47, -159502.98, -90134.95, -57247.06, -160148.50, 187500.00, -170208.97, -187500.02, -187500.02, -187500.02, -187500.02, -187500.02, -187500.02, -187500.02, -187500.02, 0.000, 0.000, 0.000, 16:27:31.208
79, -83583.72, -19784.38, -163077.78, -82139.75, -64967.04, -149923.98, 187500.00, -166169.13, -187500.02, -187500.02, -187500.02, -187500.02, -187500.02, -187500.02, -187500.02, -187500.02, 0.000, 0.000, 0.000, 16:27:31.208
80, -83583.72, -19784.38, -163077.78, -82139.75, -64967.04, -149923.98, 187500.00, -166169.13, -187500.02, -187500.02, -187500.02, -187500.02, -187500.02, -187500.02, -187500.02, -187500.02, 0.000, 0.000, 0.000, 16:27:31.208
81, -77111.59, -15479.61, -160970.89, -85606.22, -60857.61, -154369.17, 187500.00, -167806.94, -187500.02, -187500.02, -187500.02, -187500.02, -187500.02, -187500.02, -187500.02, -187500.02, 0.000, 0.000, 0.000, 16:27:31.208
82, -77111.59, -15479.61, -160970.89, -85606.22, -60857.61, -154369.17, 187500.00, -167806.94, -187500.02, -187500.02, -187500.02, -187500.02, -187500.02, -187500.02, -187500.02, -187500.02, 0.000, 0.000, 0.000, 16:27:31.208
83, -74157.70, -14268.10, -160789.28, -88493.52, -59585.57, -157982.06, 187500.00, -169413.05, -187500.02, -187500.02, -187500.02, -187500.02, -187500.02, -187500.02, -187500.02, -187500.02, 0.000, 0.000, 0.000, 16:27:31.209
84, -74157.70, -14268.10, -160789.28, -88493.52, -59585.57, -157982.06, 187500.00, -169413.05, -187500.02, -187500.02, -187500.02, -187500.02, -187500.02, -187500.02, -187500.02, -187500.02, 0.000, 0.000, 0.000, 16:27:31.209
85, -85767.38, -20782.25, -163167.11, -80034.98, -65989.52, -147227.19, 187500.00, -165048.73, -187500.02, -187500.02, -187500.02, -187500.02, -187500.02, -187500.02, -187500.02, -187500.02, 0.000, 0.000, 0.000, 16:27:31.209
86, -85767.38, -20782.25, -163167.11, -80034.98, -65989.52, -147227.19, 187500.00, -165048.73, -187500.02, -187500.02, -187500.02, -187500.02, -187500.02, -187500.02, -187500.02, -187500.02, 0.000, 0.000, 0.000, 16:27:31.209
87, -70743.76, -12043.10, -159573.39, -90391.81, -57383.70, -160275.34, 187500.00, -170312.67, -187500.02, -187500.02, -187500.02, -187500.02, -187500.02, -187500.02, -187500.02, -187500.02, 0.088, 0.894, 0.316, 16:27:31.210
88, -70743.76, -12043.10, -159573.39, -90391.81, -57383.70, -160275.34, 187500.00, -170312.67, -187500.02, -187500.02, -187500.02, -187500.02, -187500.02, -187500.02, -187500.02, -187500.02, 0.000, 0.000, 0.000, 16:27:31.210
89, -83729.63, -19937.89, -163087.22, -82051.80, -65103.16, -149813.95, 187500.00, -166166.03, -187500.02, -187500.02, -187500.02, -187500.02, -187500.02, -187500.02, -187500.02, -187500.02, 0.000, 0.000, 0.000, 16:27:31.210
90, -83729.63, -19937.89, -163087.22, -82051.80, -65103.16, -149813.95, 187500.00, -166166.03, -187500.02, -187500.02, -187500.02, -187500.02, -187500.02, -187500.02, -187500.02, -187500.02, 0.000, 0.000, 0.000, 16:27:31.210
91, -77495.84, -15814.04, -161048.38, -85498.21, -61094.27, -154145.33, 187500.00, -167762.16, -187500.02, -187500.02, -187500.02, -187500.02, -187500.02, -187500.02, -187500.02, -187500.02, 0.000, 0.000, 0.000, 16:27:31.211
92, -77495.84, -15814.04, -161048.38, -85498.21, -61094.27, -154145.33, 187500.00, -167762.16, -187500.02, -187500.02, -187500.02, -187500.02, -187500.02, -187500.02, -187500.02, -187500.02, 0.000, 0.000, 0.000, 16:27:31.211
93, -74310.72, -14499.04, -160837.73, -88685.05, -59680.30, -158066.53, 187500.00, -169518.50, -187500.02, -187500.02, -187500.02, -187500.02, -187500.02, -187500.02, -187500.02, -187500.02, 0.000, 0.000, 0.000, 16:27:31.211
94, -74310.72, -14499.04, -160837.73, -88685.05, -59680.30, -158066.53, 187500.00, -169518.50, -187500.02, -187500.02, -187500.02, -187500.02, -187500.02, -187500.02, -187500.02, -187500.02, 0.000, 0.000, 0.000, 16:27:31.211
95, -86082.64, -20953.11, -163155.03, -79633.77, -66165.23, -146848.14, 187500.00, -164939.19, -187500.02, -187500.02, -187500.02, -187500.02, -187500.02, -187500.02, -187500.02, -187500.02, 0.000, 0.000, 0.000, 16:27:31.212
96, -86082.64, -20953.11, -163155.03, -79633.77, -66165.23, -146848.14, 187500.00, -164939.19, -187500.02, -187500.02, -187500.02, -187500.02, -187500.02, -187500.02, -187500.02, -187500.02, 0.000, 0.000, 0.000, 16:27:31.212
97, -70875.79, -12288.43, -159636.17, -90718.82, -57412.96, -160469.56, 187500.00, -170464.14, -187500.02, -187500.02, -187500.02, -187500.02, -187500.02, -187500.02, -187500.02, -187500.02, 0.086, 0.894, 0.320, 16:27:31.212
98, -70875.79, -12288.43, -159636.17, -90718.82, -57412.96, -160469.56, 187500.00, -170464.14, -187500.02, -187500.02, -187500.02, -187500.02, -187500.02, -187500.02, -187500.02, -187500.02, 0.000, 0.000, 0.000, 16:27:31.212
99, -83746.91, -19939.12, -163029.59, -81916.68, -65076.01, -149768.75, 187500.00, -166187.36, -187500.02, -187500.02, -187500.02, -187500.02, -187500.02, -187500.02, -187500.02, -187500.02, 0.000, 0.000, 0.000, 16:27:31.212
100, -83746.91, -19939.12, -163029.59, -81916.68, -65076.01, -149768.75, 187500.00, -166187.36, -187500.02, -187500.02, -187500.02, -187500.02, -187500.02, -187500.02, -187500.02, -187500.02, 0.000, 0.000, 0.000, 16:27:31.213
101, -77600.74, -15938.20, -161051.95, -85505.39, -61084.14, -154132.53, 187500.00, -167804.00, -187500.02, -187500.02, -187500.02, -187500.02, -187500.02, -187500.02, -187500.02, -187500.02, 0.000, 0.000, 0.000, 16:27:31.213
102, -77600.74, -15938.20, -161051.95, -85505.39, -61084.14, -154132.53, 187500.00, -167804.00, -187500.02, -187500.02, -187500.02, -187500.02, -187500.02, -187500.02, -187500.02, -187500.02, 0.000, 0.000, 0.000, 16:27:31.213
103, -74220.46, -14573.90, -160843.30, -89037.12, -59549.11, -158375.02, 187500.00, -169713.75, -187500.02, -187500.02, -187500.02, -187500.02, -187500.02, -187500.02, -187500.02, -187500.02, 0.000, 0.000, 0.000, 16:27:31.214
104, -74220.46, -14573.90, -160843.30, -89037.12, -59549.11, -158375.02, 187500.00, -169713.75, -187500.02, -187500.02, -187500.02, -187500.02, -187500.02, -187500.02, -187500.02, -187500.02, 0.000, 0.000, 0.000, 16:27:31.663
105, -86217.72, -20920.05, -163135.34, -79049.16, -66181.91, -146463.41, 187500.00, -164829.61, -187500.02, -187500.02, -187500.02, -187500.02, -187500.02, -187500.02, -187500.02, -187500.02, 0.000, 0.000, 0.000, 16:27:31.664
106, -86217.72, -20920.05, -163135.34, -79049.16, -66181.91, -146463.41, 187500.00, -164829.61, -187500.02, -187500.02, -187500.02, -187500.02, -187500.02, -187500.02, -187500.02, -187500.02, 0.000, 0.000, 0.000, 16:27:31.664
107, -70967.66, -12532.26, -159778.36, -91074.68, -57382.38, -160669.16, 187500.00, -170610.30, -187500.02, -187500.02, -187500.02, -187500.02, -187500.02, -187500.02, -187500.02, -187500.02, 0.086, 0.894, 0.318, 16:27:31.664
108, -70967.66, -12532.26, -159778.36, -91074.68, -57382.38, -160669.16, 187500.00, -170610.30, -187500.02, -187500.02, -187500.02, -187500.02, -187500.02, -187500.02, -187500.02, -187500.02, 0.000, 0.000, 0.000, 16:27:31.664
109, -83878.36, -19922.31, -163060.50, -81450.80, -65106.00, -149500.58, 187500.00, -166160.19, -187500.02, -187500.02, -187500.02, -187500.02, -187500.02, -187500.02, -187500.02, -187500.02, 0.000, 0.000, 0.000, 16:27:31.665
110, -83878.36, -19922.31, -163060.50, -81450.80, -65106.00, -149500.58, 187500.00, -166160.19, -187500.02, -187500.02, -187500.02, -187500.02, -187500.02, -187500.02, -187500.02, -187500.02, 0.000, 0.000, 0.000, 16:27:31.665
111, -77951.64, -16170.44, -161192.42, -85195.95, -61190.38, -153827.89, 187500.00, -167744.20, -187500.02, -187500.02, -187500.02, -187500.02, -187500.02, -187500.02, -187500.02, -187500.02, 0.000, 0.000, 0.000, 16:27:31.665
112, -77951.64, -16170.44, -161192.42, -85195.95, -61190.38, -153827.89, 187500.00, -167744.20, -187500.02, -187500.02, -187500.02, -187500.02, -187500.02, -187500.02, -187500.02, -187500.02, 0.000, 0.000, 0.000, 16:27:31.665
113, -74348.52, -14784.36, -160992.45, -89223.20, -59501.17, -158481.64, 187500.00, -169825.31, -187500.02, -187500.02, -187500.02, -187500.02, -187500.02, -187500.02, -187500.02, -187500.02, 0.000, 0.000, 0.000, 16:27:31.666
114, -74348.52, -14784.36, -160992.45, -89223.20, -59501.17, -158481.64, 187500.00, -169825.31, -187500.02, -187500.02, -187500.02, -187500.02, -187500.02, -187500.02, -187500.02, -187500.02, 0.000, 0.000, 0.000, 16:27:31.666
115, -86466.67, -20827.15, -163100.55, -78050.91, -66212.28, -145874.09, 187500.00, -164673.31, -187500.02, -187500.02, -187500.02, -187500.02, -187500.02, -187500.02, -187500.02, -187500.02, 0.000, 0.000, 0.000, 16:27:31.666
116, -86466.67, -20827.15, -163100.55, -78050.91, -66212.28, -145874.09, 187500.00, -164673.31, -187500.02, -187500.02, -187500.02, -187500.02, -187500.02, -187500.02, -187500.02, -187500.02, 0.000, 0.000, 0.000, 16:27:31.666
117, -71043.85, -12803.86, -159913.11, -91484.50, -57223.37, -160876.86, 187500.00, -170710.39, -187500.02, -187500.02, -187500.02, -187500.02, -187500.02, -187500.02, -187500.02, -187500.02, 0.084, 0.894, 0.324, 16:27:31.666
118, -71043.85, -12803.86, -159913.11, -91484.50, -57223.37, -160876.86, 187500.00, -170710.39, -187500.02, -187500.02, -187500.02, -187500.02, -187500.02, -187500.02, -187500.02, -187500.02, 0.000, 0.000, 0.000, 16:27:31.667
119, -83789.60, -19696.80, -162983.17, -80883.72, -64909.08, -149356.63, 187500.00, -166193.50, -187500.02, -187500.02, -187500.02, -187500.02, -187500.02, -187500.02, -187500.02, -187500.02, 0.000, 0.000, 0.000, 16:27:31.667
120, -83789.60, -19696.80, -162983.17, -80883.72, -64909.08, -149356.63, 187500.00, -166193.50, -187500.02, -187500.02, -187500.02, -187500.02, -187500.02, -187500.02, -187500.02, -187500.02, 0.000, 0.000, 0.000, 16:27:31.667
121, -77960.05, -16181.03, -161187.70, -84945.73, -61013.89, -153720.56, 187500.00, -167747.98, -187500.02, -187500.02, -187500.02, -187500.02, -187500.02, -187500.02, -187500.02, -187500.02, 0.000, 0.000, 0.000, 16:27:31.668
122, -77960.05, -16181.03, -161187.70, -84945.73, -61013.89, -153720.56, 187500.00, -167747.98, -187500.02, -187500.02, -187500.02, -187500.02, -187500.02, -187500.02, -187500.02, -187500.02, 0.000, 0.000, 0.000, 16:27:31.668
123, -74170.02, -14843.68, -161046.48, -89598.84, -59228.59, -158807.89, 187500.00, -169982.22, -187500.02, -187500.02, -187500.02, -187500.02, -187500.02, -187500.02, -187500.02, -187500.02, 0.000, 0.000, 0.000, 16:27:31.668
124, -74170.02, -14843.68, -161046.48, -89598.84, -59228.59, -158807.89, 187500.00, -169982.22, -187500.02, -187500.02, -187500.02, -187500.02, -187500.02, -187500.02, -187500.02, -187500.02, 0.000, 0.000, 0.000, 16:27:31.668
125, -86505.00, -20470.62, -163006.53, -76815.63, -66150.90, -145382.22, 187500.00, -164564.80, -187500.02, -187500.02, -187500.02, -187500.02, -187500.02, -187500.02, -187500.02, -187500.02, 0.000, 0.000, 0.000, 16:27:31.669
126, -86505.00, -20470.62, -163006.53, -76815.63, -66150.90, -145382.22, 187500.00, -164564.80, -187500.02, -187500.02, -187500.02, -187500.02, -187500.02, -187500.02, -187500.02, -187500.02, 0.000, 0.000, 0.000, 16:27:31.669
127, -71104.18, -13122.91, -160089.41, -91956.02, -57091.11, -161074.63, 187500.00, -170785.66, -187500.02, -187500.02, -187500.02, -187500.02, -187500.02, -187500.02, -187500.02, -187500.02, 0.082, 0.900, 0.314, 16:27:31.669
128, -71104.18, -13122.91, -160089.41, -91956.02, -57091.11, -161074.63, 187500.00, -170785.66, -187500.02, -187500.02, -187500.02, -187500.02, -187500.02, -187500.02, -187500.02, -187500.02, 0.000, 0.000, 0.000, 16:27:31.670
129, -83858.47, -19433.70, -162991.98, -79909.70, -64890.24, -149029.27, 187500.00, -166184.20, -187500.02, -187500.02, -187500.02, -187500.02, -187500.02, -187500.02, -187500.02, -187500.02, 0.000, 0.000, 0.000, 16:27:31.670
130, -83858.47, -19433.70, -162991.98, -79909.70, -64890.24, -149029.27, 187500.00, -166184.20, -187500.02, -187500.02, -187500.02, -187500.02, -187500.02, -187500.02, -187500.02, -187500.02, 0.000, 0.000, 0.000, 16:27:31.670
131, -78254.33, -16275.76, -161312.22, -84305.99, -61076.77, -153321.97, 187500.00, -167670.27, -187500.02, -187500.02, -187500.02, -187500.02, -187500.02, -187500.02, -187500.02, -187500.02, 0.000, 0.000, 0.000, 16:27:31.671
132, -78254.33, -16275.76, -161312.22, -84305.99, -61076.77, -153321.97, 187500.00, -167670.27, -187500.02, -187500.02, -187500.02, -187500.02, -187500.02, -187500.02, -187500.02, -187500.02, 0.000, 0.000, 0.000, 16:27:31.671
133, -74280.01, -15070.62, -161240.83, -89786.58, -59171.82, -158878.58, 187500.00, -170062.97, -187500.02, -187500.02, -187500.02, -187500.02, -187500.02, -187500.02, -187500.02, -187500.02, 0.000, 0.000, 0.000, 16:27:31.671
134, -74280.01, -15070.62, -161240.83, -89786.58, -59171.82, -158878.58, 187500.00, -170062.97, -187500.02, -187500.02, -187500.02, -187500.02, -187500.02, -187500.02, -187500.02, -187500.02, 0.000, 0.000, 0.000, 16:27:31.671
135, -86677.72, -19953.60, -162966.05, -75004.36, -66239.88, -144700.70, 187500.00, -164443.56, -187500.02, -187500.02, -187500.02, -187500.02, -187500.02, -187500.02, -187500.02, -187500.02, 0.000, 0.000, 0.000, 16:27:31.672
136, -86677.72, -19953.60, -162966.05, -75004.36, -66239.88, -144700.70, 187500.00, -164443.56, -187500.02, -187500.02, -187500.02, -187500.02, -187500.02, -187500.02, -187500.02, -187500.02, 0.000, 0.000, 0.000, 16:27:31.672
137, -71183.22, -13529.33, -160327.34, -92534.61, -56988.48, -161243.53, 187500.00, -170848.69, -187500.02, -187500.02, -187500.02, -187500.02, -187500.02, -187500.02, -187500.02, -187500.02, 0.084, 0.898, 0.318, 16:27:31.672
138, -71183.22, -13529.33, -160327.34, -92534.61, -56988.48, -161243.53, 187500.00, -170848.69, -187500.02, -187500.02, -187500.02, -187500.02, -187500.02, -187500.02, -187500.02, -187500.02, 0.000, 0.000, 0.000, 16:27:31.672
139, -83741.97, -18959.44, -163009.48, -78955.32, -64818.56, -148918.89, 187500.00, -166264.41, -187500.02, -187500.02, -187500.02, -187500.02, -187500.02, -187500.02, -187500.02, -187500.02, 0.000, 0.000, 0.000, 16:27:31.672
140, -83741.97, -18959.44, -163009.48, -78955.32, -64818.56, -148918.89, 187500.00, -166264.41, -187500.02, -187500.02, -187500.02, -187500.02, -187500.02, -187500.02, -187500.02, -187500.02, 0.000, 0.000, 0.000, 16:27:31.673
141, -78285.04, -16210.51, -161434.38, -83832.02, -61032.60, -153188.72, 187500.00, -167690.94, -187500.02, -187500.02, -187500.02, -187500.02, -187500.02, -187500.02, -187500.02, -187500.02, 0.000, 0.000, 0.000, 16:27:31.673
142, -78285.04, -16210.51, -161434.38, -83832.02, -61032.60, -153188.72, 187500.00, -167690.94, -187500.02, -187500.02, -187500.02, -187500.02, -187500.02, -187500.02, -187500.02, -187500.02, 0.000, 0.000, 0.000, 16:27:31.673
143, -74155.28, -15270.60, -161463.56, -90323.42, -59018.53, -159184.58, 187500.00, -170208.28, -187500.02, -187500.02, -187500.02, -187500.02, -187500.02, -187500.02, -187500.02, -187500.02, 0.000, 0.000, 0.000, 16:27:31.673
144, -74155.28, -15270.60, -161463.56, -90323.42, -59018.53, -159184.58, 187500.00, -170208.28, -187500.02, -187500.02, -187500.02, -187500.02, -187500.02, -187500.02, -187500.02, -187500.02, 0.000, 0.000, 0.000, 16:27:31.674
145, -86654.31, -19237.88, -162965.02, -73357.13, -66305.87, -144300.36, 187500.00, -164408.14, -187500.02, -187500.02, -187500.02, -187500.02, -187500.02, -187500.02, -187500.02, -187500.02, 0.000, 0.000, 0.000, 16:27:31.674
146, -86654.31, -19237.88, -162965.02, -73357.13, -66305.87, -144300.36, 187500.00, -164408.14, -187500.02, -187500.02, -187500.02, -187500.02, -187500.02, -187500.02, -187500.02, -187500.02, 0.084, 0.900, 0.314, 16:27:31.674
147, -71268.29, -14003.03, -160632.42, -93096.09, -56949.02, -161306.48, 187500.00, -170889.72, -187500.02, -187500.02, -187500.02, -187500.02, -187500.02, -187500.02, -187500.02, -187500.02, 0.000, 0.000, 0.000, 16:27:31.674
148, -71268.29, -14003.03, -160632.42, -93096.09, -56949.02, -161306.48, 187500.00, -170889.72, -187500.02, -187500.02, -187500.02, -187500.02, -187500.02, -187500.02, -187500.02, -187500.02, 0.000, 0.000, 0.000, 16:27:31.675
149, -83710.74, -18417.97, -163088.45, -77808.84, -64892.39, -148623.36, 187500.00, -166280.66, -187500.02, -187500.02, -187500.02, -187500.02, -187500.02, -187500.02, -187500.02, -187500.02, 0.000, 0.000, 0.000, 16:27:31.675
150, -83710.74, -18417.97, -163088.45, -77808.84, -64892.39, -148623.36, 187500.00, -166280.66, -187500.02, -187500.02, -187500.02, -187500.02, -187500.02, -187500.02, -187500.02, -187500.02, 0.000, 0.000, 0.000, 16:27:31.675
151, -78461.41, -16094.04, -161591.97, -82958.41, -61186.04, -152687.13, 187500.00, -167600.19, -187500.02, -187500.02, -187500.02, -187500.02, -187500.02, -187500.02, -187500.02, -187500.02, 0.000, 0.000, 0.000, 16:27:31.675
152, -78461.41, -16094.04, -161591.97, -82958.41, -61186.04, -152687.13, 187500.00, -167600.19, -187500.02, -187500.02, -187500.02, -187500.02, -187500.02, -187500.02, -187500.02, -187500.02, 0.000, 0.000, 0.000, 16:27:31.676
153, -74161.79, -15453.75, -161714.08, -90462.40, -59057.26, -159078.17, 187500.00, -170250.38, -187500.02, -187500.02, -187500.02, -187500.02, -187500.02, -187500.02, -187500.02, -187500.02, 0.000, 0.000, 0.000, 16:27:31.676
154, -74161.79, -15453.75, -161714.08, -90462.40, -59057.26, -159078.17, 187500.00, -170250.38, -187500.02, -187500.02, -187500.02, -187500.02, -187500.02, -187500.02, -187500.02, -187500.02, 0.000, 0.000, 0.000, 16:27:31.676
155, -86630.42, -18204.67, -162971.50, -71156.95, -66544.13, -143576.36, 187500.00, -164293.91, -187500.02, -187500.02, -187500.02, -187500.02, -187500.02, -187500.02, -187500.02, -187500.02, 0.000, 0.000, 0.000, 16:27:31.676
156, -86630.42, -18204.67, -162971.50, -71156.95, -66544.13, -143576.36, 187500.00, -164293.91, -187500.02, -187500.02, -187500.02, -187500.02, -187500.02, -187500.02, -187500.02, -187500.02, 0.084, 0.896, 0.320, 16:27:31.676
157, -71201.19, -14359.68, -160934.23, -93616.50, -57027.88, -161229.41, 187500.00, -170908.56, -187500.02, -187500.02, -187500.02, -187500.02, -187500.02, -187500.02, -187500.02, -187500.02, 0.000, 0.000, 0.000, 16:27:31.677
158, -71201.19, -14359.68, -160934.23, -93616.50, -57027.88, -161229.41, 187500.00, -170908.56, -187500.02, -187500.02, -187500.02, -187500.02, -187500.02, -187500.02, -187500.02, -187500.02, 0.000, 0.000, 0.000, 16:27:31.677
159, -83443.87, -17516.64, -163193.66, -76447.95, -65066.15, -148330.97, 187500.00, -166381.47, -187500.02, -187500.02, -187500.02, -187500.02, -187500.02, -187500.02, -187500.02, -187500.02, 0.000, 0.000, 0.000, 16:27:31.677
160, -83443.87, -17516.64, -163193.66, -76447.95, -65066.15, -148330.97, 187500.00, -166381.47, -187500.02, -187500.02, -187500.02, -187500.02, -187500.02, -187500.02, -187500.02, -187500.02, 0.000, 0.000, 0.000, 16:27:31.677
161, -78309.60, -15669.82, -161748.28, -82092.30, -61386.58, -152305.16, 187500.00, -167599.78, -187500.02, -187500.02, -187500.02, -187500.02, -187500.02, -187500.02, -187500.02, -187500.02, 0.000, 0.000, 0.000, 16:27:31.678
162, -78309.60, -15669.82, -161748.28, -82092.30, -61386.58, -152305.16, 187500.00, -167599.78, -187500.02, -187500.02, -187500.02, -187500.02, -187500.02, -187500.02, -187500.02, -187500.02, 0.000, 0.000, 0.000, 16:27:31.678
163, -73851.73, -15505.14, -161981.91, -90925.09, -59136.37, -159165.81, 187500.00, -170362.38, -187500.02, -187500.02, -187500.02, -187500.02, -187500.02, -187500.02, -187500.02, -187500.02, 0.000, 0.000, 0.000, 16:27:31.678
164, -73851.73, -15505.14, -161981.91, -90925.09, -59136.37, -159165.81, 187500.00, -170362.38, -187500.02, -187500.02, -187500.02, -187500.02, -187500.02, -187500.02, -187500.02, -187500.02, 0.000, 0.000, 0.000, 16:27:31.678
165, -86503.41, -16746.73, -163005.55, -68313.10, -66915.42, -142865.06, 187500.00, -164278.08, -187500.02, -187500.02, -187500.02, -187500.02, -187500.02, -187500.02, -187500.02, -187500.02, 0.000, 0.000, 0.000, 16:27:31.679
166, -86503.41, -16746.73, -163005.55, -68313.10, -66915.42, -142865.06, 187500.00, -164278.08, -187500.02, -187500.02, -187500.02, -187500.02, -187500.02, -187500.02, -187500.02, -187500.02, 0.082, 0.896, 0.318, 16:27:31.679
167, -71058.63, -14769.43, -161206.66, -94232.42, -57182.13, -161095.45, 187500.00, -170927.06, -187500.02, -187500.02, -187500.02, -187500.02, -187500.02, -187500.02, -187500.02, -187500.02, 0.000, 0.000, 0.000, 16:27:31.679
168, -71058.63, -14769.43, -161206.66, -94232.42, -57182.13, -161095.45, 187500.00, -170927.06, -187500.02, -187500.02, -187500.02, -187500.02, -187500.02, -187500.02, -187500.02, -187500.02, 0.000, 0.000, 0.000, 16:27:31.679
169, -83411.66, -16533.07, -163298.59, -74333.52, -65388.95, -147808.34, 187500.00, -166387.30, -187500.02, -187500.02, -187500.02, -187500.02, -187500.02, -187500.02, -187500.02, -187500.02, 0.000, 0.000, 0.000, 16:27:31.680
170, -83411.66, -16533.07, -163298.59, -74333.52, -65388.95, -147808.34, 187500.00, -166387.30, -187500.02, -187500.02, -187500.02, -187500.02, -187500.02, -187500.02, -187500.02, -187500.02, 0.000, 0.000, 0.000, 16:27:31.680
171, -78452.97, -15273.95, -161879.58, -80535.88, -61715.71, -151618.45, 187500.00, -167498.22, -187500.02, -187500.02, -187500.02, -187500.02, -187500.02, -187500.02, -187500.02, -187500.02, 0.000, 0.000, 0.000, 16:27:31.680
172, -78452.97, -15273.95, -161879.58, -80535.88, -61715.71, -151618.45, 187500.00, -167498.22, -187500.02, -187500.02, -187500.02, -187500.02, -187500.02, -187500.02, -187500.02, -187500.02, 0.000, 0.000, 0.000, 16:27:31.680
173, -73847.41, -15808.23, -162199.77, -91103.43, -59293.03, -158975.17, 187500.00, -170409.17, -187500.02, -187500.02, -187500.02, -187500.02, -187500.02, -187500.02, -187500.02, -187500.02, 0.000, 0.000, 0.000, 16:27:31.680
174, -73847.41, -15808.23, -162199.77, -91103.43, -59293.03, -158975.17, 187500.00, -170409.17, -187500.02, -187500.02, -187500.02, -187500.02, -187500.02, -187500.02, -187500.02, -187500.02, 0.000, 0.000, 0.000, 16:27:31.681
175, -86737.06, -15584.82, -163050.78, -65214.50, -67330.34, -142124.61, 187500.00, -164209.14, -187500.02, -187500.02, -187500.02, -187500.02, -187500.02, -187500.02, -187500.02, -187500.02, 0.000, 0.000, 0.000, 16:27:31.681
176, -86737.06, -15584.82, -163050.78, -65214.50, -67330.34, -142124.61, 187500.00, -164209.14, -187500.02, -187500.02, -187500.02, -187500.02, -187500.02, -187500.02, -187500.02, -187500.02, 0.090, 0.898, 0.310, 16:27:31.681
177, -71008.45, -15312.26, -161390.30, -94906.60, -57267.67, -160963.63, 187500.00, -170940.22, -187500.02, -187500.02, -187500.02, -187500.02, -187500.02, -187500.02, -187500.02, -187500.02, 0.000, 0.000, 0.000, 16:27:31.681
178, -71008.45, -15312.26, -161390.30, -94906.60, -57267.67, -160963.63, 187500.00, -170940.22, -187500.02, -187500.02, -187500.02, -187500.02, -187500.02, -187500.02, -187500.02, -187500.02, 0.000, 0.000, 0.000, 16:27:31.682
179, -83330.41, -16035.25, -163399.00, -73159.96, -65605.52, -147710.56, 187500.00, -166547.33, -187500.02, -187500.02, -187500.02, -187500.02, -187500.02, -187500.02, -187500.02, -187500.02, 0.000, 0.000, 0.000, 16:27:31.682
180, -83330.41, -16035.25, -163399.00, -73159.96, -65605.52, -147710.56, 187500.00, -166547.33, -187500.02, -187500.02, -187500.02, -187500.02, -187500.02, -187500.02, -187500.02, -187500.02, 0.000, 0.000, 0.000, 16:27:31.682
181, -78451.13, -15097.31, -161989.36, -79750.38, -61970.28, -151330.72, 187500.00, -167552.98, -187500.02, -187500.02, -187500.02, -187500.02, -187500.02, -187500.02, -187500.02, -187500.02, 0.000, 0.000, 0.000, 16:27:31.682
182, -78451.13, -15097.31, -161989.36, -79750.38, -61970.28, -151330.72, 187500.00, -167552.98, -187500.02, -187500.02, -187500.02, -187500.02, -187500.02, -187500.02, -187500.02, -187500.02, 0.000, 0.000, 0.000, 16:27:31.684
183, -73611.16, -16155.13, -162371.67, -91939.70, -59358.43, -159141.58, 187500.00, -170545.45, -187500.02, -187500.02, -187500.02, -187500.02, -187500.02, -187500.02, -187500.02, -187500.02, 0.000, 0.000, 0.000, 16:27:31.685
184, -73611.16, -16155.13, -162371.67, -91939.70, -59358.43, -159141.58, 187500.00, -170545.45, -187500.02, -187500.02, -187500.02, -187500.02, -187500.02, -187500.02, -187500.02, -187500.02, 0.000, 0.000, 0.000, 16:27:31.685
185, -86893.19, -15065.95, -163134.64, -63365.50, -67682.84, -141935.70, 187500.00, -164311.58, -187500.02, -187500.02, -187500.02, -187500.02, -187500.02, -187500.02, -187500.02, -187500.02, 0.000, 0.000, 0.000, 16:27:31.685
186, -86893.19, -15065.95, -163134.64, -63365.50, -67682.84, -141935.70, 187500.00, -164311.58, -187500.02, -187500.02, -187500.02, -187500.02, -187500.02, -187500.02, -187500.02, -187500.02, 0.094, 0.900, 0.316, 16:27:31.686
187, -71043.20, -15806.48, -161553.53, -95612.04, -57391.93, -160833.72, 187500.00, -170975.17, -187500.02, -187500.02, -187500.02, -187500.02, -187500.02, -187500.02, -187500.02, -187500.02, 0.000, 0.000, 0.000, 16:27:31.686
188, -71043.20, -15806.48, -161553.53, -95612.04, -57391.93, -160833.72, 187500.00, -170975.17, -187500.02, -187500.02, -187500.02, -187500.02, -187500.02, -187500.02, -187500.02, -187500.02, 0.000, 0.000, 0.000, 16:27:31.686
189, -83582.31, -16003.71, -163524.31, -72045.73, -65862.32, -147659.19, 187500.00, -166667.83, -187500.02, -187500.02, -187500.02, -187500.02, -187500.02, -187500.02, -187500.02, -187500.02, 0.000, 0.000, 0.000, 16:27:31.686
190, -83582.31, -16003.71, -163524.31, -72045.73, -65862.32, -147659.19, 187500.00, -166667.83, -187500.02, -187500.02, -187500.02, -187500.02, -187500.02, -187500.02, -187500.02, -187500.02, 0.000, 0.000, 0.000, 16:27:31.687
191, -78868.09, -15205.20, -162074.23, -78664.70, -62248.96, -150897.11, 187500.00, -167512.58, -187500.02, -187500.02, -187500.02, -187500.02, -187500.02, -187500.02, -187500.02, -187500.02, 0.000, 0.000, 0.000, 16:27:31.687
192, -78868.09, -15205.20, -162074.23, -78664.70, -62248.96, -150897.11, 187500.00, -167512.58, -187500.02, -187500.02, -187500.02, -187500.02, -187500.02, -187500.02, -187500.02, -187500.02, 0.000, 0.000, 0.000, 16:27:31.687
193, -73758.90, -16617.74, -162483.14, -92420.10, -59405.95, -159063.23, 187500.00, -170612.27, -187500.02, -187500.02, -187500.02, -187500.02, -187500.02, -187500.02, -187500.02, -187500.02, 0.000, 0.000, 0.000, 16:27:31.687
194, -73758.90, -16617.74, -162483.14, -92420.10, -59405.95, -159063.23, 187500.00, -170612.27, -187500.02, -187500.02, -187500.02, -187500.02, -187500.02, -187500.02, -187500.02, -187500.02, 0.000, 0.000, 0.000, 16:27:31.688
195, -87472.99, -15032.46, -163152.70, -60849.98, -67977.09, -141650.89, 187500.00, -164304.92, -187500.02, -187500.02, -187500.02, -187500.02, -187500.02, -187500.02, -187500.02, -187500.02, 0.000, 0.000, 0.000, 16:27:31.688
196, -87472.99, -15032.46, -163152.70, -60849.98, -67977.09, -141650.89, 187500.00, -164304.92, -187500.02, -187500.02, -187500.02, -187500.02, -187500.02, -187500.02, -187500.02, -187500.02, 0.100, 0.898, 0.312, 16:27:31.688
197, -71106.26, -16343.80, -161608.42, -96607.61, -57267.20, -160793.14, 187500.00, -170988.73, -187500.02, -187500.02, -187500.02, -187500.02, -187500.02, -187500.02, -187500.02, -187500.02, 0.000, 0.000, 0.000, 16:27:31.688
198, -71106.26, -16343.80, -161608.42, -96607.61, -57267.20, -160793.14, 187500.00, -170988.73, -187500.02, -187500.02, -187500.02, -187500.02, -187500.02, -187500.02, -187500.02, -187500.02, 0.000, 0.000, 0.000, 16:27:31.689
199, -83831.63, -16393.06, -163546.38, -71209.99, -65813.26, -147906.63, 187500.00, -166816.89, -187500.02, -187500.02, -187500.02, -187500.02, -187500.02, -187500.02, -187500.02, -187500.02, 0.000, 0.000, 0.000, 16:27:31.689
200, -83831.63, -16393.06, -163546.38, -71209.99, -65813.26, -147906.63, 187500.00, -166816.89, -187500.02, -187500.02, -187500.02, -187500.02, -187500.02, -187500.02, -187500.02, -187500.02, 0.000, 0.000, 0.000, 16:27:31.689
201, -79143.63, -15596.71, -162043.02, -78090.87, -62151.37, -150881.13, 187500.00, -167525.47, -187500.02, -187500.02, -187500.02, -187500.02, -187500.02, -187500.02, -187500.02, -187500.02, 0.000, 0.000, 0.000, 16:27:31.689
202, -79143.63, -15596.71, -162043.02, -78090.87, -62151.37, -150881.13, 187500.00, -167525.47, -187500.02, -187500.02, -187500.02, -187500.02, -187500.02, -187500.02, -187500.02, -187500.02, 0.000, 0.000, 0.000, 16:27:31.690
203, -73670.34, -17215.74, -162510.66, -93802.31, -59076.78, -159438.63, 187500.00, -170715.56, -187500.02, -187500.02, -187500.02, -187500.02, -187500.02, -187500.02, -187500.02, -187500.02, 0.000, 0.000, 0.000, 16:27:31.690
204, -73670.34, -17215.74, -162510.66, -93802.31, -59076.78, -159438.63, 187500.00, -170715.56, -187500.02, -187500.02, -187500.02, -187500.02, -187500.02, -187500.02, -187500.02, -187500.02, 0.000, 0.000, 0.000, 16:27:31.690
205, -88032.21, -15198.05, -163069.05, -58324.84, -68050.66, -141734.95, 187500.00, -164307.38, -187500.02, -187500.02, -187500.02, -187500.02, -187500.02, -187500.02, -187500.02, -187500.02, 0.000, 0.000, 0.000, 16:27:31.690
206, -88032.21, -15198.05, -163069.05, -58324.84, -68050.66, -141734.95, 187500.00, -164307.38, -187500.02, -187500.02, -187500.02, -187500.02, -187500.02, -187500.02, -187500.02, -187500.02, 0.094, 0.896, 0.318, 16:27:31.690
207, -71069.85, -16835.29, -161584.78, -97957.52, -56957.92, -160804.50, 187500.00, -170997.80, -187500.02, -187500.02, -187500.02, -187500.02, -187500.02, -187500.02, -187500.02, -187500.02, 0.000, 0.000, 0.000, 16:27:31.691
208, -71069.85, -16835.29, -161584.78, -97957.52, -56957.92, -160804.50, 187500.00, -170997.80, -187500.02, -187500.02, -187500.02, -187500.02, -187500.02, -187500.02, -187500.02, -187500.02, 0.000, 0.000, 0.000, 16:27:31.691
209, -84290.41, -16449.92, -163452.33, -69519.96, -65841.58, -148059.88, 187500.00, -166794.52, -187500.02, -187500.02, -187500.02, -187500.02, -187500.02, -187500.02, -187500.02, -187500.02, 0.000, 0.000, 0.000, 16:27:31.691
210, -84290.41, -16449.92, -163452.33, -69519.96, -65841.58, -148059.88, 187500.00, -166794.52, -187500.02, -187500.02, -187500.02, -187500.02, -187500.02, -187500.02, -187500.02, -187500.02, 0.000, 0.000, 0.000, 16:27:31.691
211, -79552.52, -15504.69, -161856.27, -76477.56, -62110.82, -150518.05, 187500.00, -167324.95, -187500.02, -187500.02, -187500.02, -187500.02, -187500.02, -187500.02, -187500.02, -187500.02, 0.000, 0.000, 0.000, 16:27:31.691
212, -79552.52, -15504.69, -161856.27, -76477.56, -62110.82, -150518.05, 187500.00, -167324.95, -187500.02, -187500.02, -187500.02, -187500.02, -187500.02, -187500.02, -187500.02, -187500.02, 0.000, 0.000, 0.000, 16:27:31.692
213, -73456.44, -17359.21, -162481.58, -94742.70, -58687.12, -159424.02, 187500.00, -170764.59, -187500.02, -187500.02, -187500.02, -187500.02, -187500.02, -187500.02, -187500.02, -187500.02, 0.000, 0.000, 0.000, 16:27:31.692
214, -73456.44, -17359.21, -162481.58, -94742.70, -58687.12, -159424.02, 187500.00, -170764.59, -187500.02, -187500.02, -187500.02, -187500.02, -187500.02, -187500.02, -187500.02, -187500.02, 0.000, 0.000, 0.000, 16:27:31.692
215, -89134.24, -14996.30, -162792.59, -54702.74, -68360.02, -141789.66, 187500.00, -163965.19, -187500.02, -187500.02, -187500.02, -187500.02, -187500.02, -187500.02, -187500.02, -187500.02, 0.000, 0.000, 0.000, 16:27:31.692
216, -89134.24, -14996.30, -162792.59, -54702.74, -68360.02, -141789.66, 187500.00, -163965.19, -187500.02, -187500.02, -187500.02, -187500.02, -187500.02, -187500.02, -187500.02, -187500.02, 0.098, 0.884, 0.304, 16:27:31.692
217, -70837.30, -17123.00, -161471.39, -99382.70, -56424.90, -160672.33, 187500.00, -170939.63, -187500.02, -187500.02, -187500.02, -187500.02, -187500.02, -187500.02, -187500.02, -187500.02, 0.000, 0.000, 0.000, 16:27:31.693
218, -70837.30, -17123.00, -161471.39, -99382.70, -56424.90, -160672.33, 187500.00, -170939.63, -187500.02, -187500.02, -187500.02, -187500.02, -187500.02, -187500.02, -187500.02, -187500.02, 0.000, 0.000, 0.000, 16:27:31.693
219, -84593.68, -16380.52, -163332.22, -68593.23, -65659.45, -148579.69, 187500.00, -166817.75, -187500.02, -187500.02, -187500.02, -187500.02, -187500.02, -187500.02, -187500.02, -187500.02, 0.000, 0.000, 0.000, 16:27:31.693
220, -84593.68, -16380.52, -163332.22, -68593.23, -65659.45, -148579.69, 187500.00, -166817.75, -187500.02, -187500.02, -187500.02, -187500.02, -187500.02, -187500.02, -187500.02, -187500.02, 0.000, 0.000, 0.000, 16:27:31.693
221, -80095.73, -15261.30, -161639.30, -75795.84, -61946.47, -150712.72, 187500.00, -167146.05, -187500.02, -187500.02, -187500.02, -187500.02, -187500.02, -187500.02, -187500.02, -187500.02, 0.000, 0.000, 0.000, 16:27:31.694
222, -80095.73, -15261.30, -161639.30, -75795.84, -61946.47, -150712.72, 187500.00, -167146.05, -187500.02, -187500.02, -187500.02, -187500.02, -187500.02, -187500.02, -187500.02, -187500.02, 0.000, 0.000, 0.000, 16:27:31.694
223, -73420.92, -17225.04, -162437.45, -96573.41, -58181.25, -159831.84, 187500.00, -170816.81, -187500.02, -187500.02, -187500.02, -187500.02, -187500.02, -187500.02, -187500.02, -187500.02, 0.000, 0.000, 0.000, 16:27:31.694
224, -73420.92, -17225.04, -162437.45, -96573.41, -58181.25, -159831.84, 187500.00, -170816.81, -187500.02, -187500.02, -187500.02, -187500.02, -187500.02, -187500.02, -187500.02, -187500.02, 0.000, 0.000, 0.000, 16:27:32.144
225, -89642.27, -13716.68, -162567.83, -52865.56, -68271.63, -142258.50, 187500.00, -163876.03, -187500.02, -187500.02, -187500.02, -187500.02, -187500.02, -187500.02, -187500.02, -187500.02, 0.000, 0.000, 0.000, 16:27:32.145
226, -89642.27, -13716.68, -162567.83, -52865.56, -68271.63, -142258.50, 187500.00, -163876.03, -187500.02, -187500.02, -187500.02, -187500.02, -187500.02, -187500.02, -187500.02, -187500.02, 0.080, 0.880, 0.322, 16:27:32.145
227, -70547.96, -16716.85, -161482.16, -100608.93, -55821.78, -160603.36, 187500.00, -170943.66, -187500.02, -187500.02, -187500.02, -187500.02, -187500.02, -187500.02, -187500.02, -187500.02, 0.000, 0.000, 0.000, 16:27:32.145
228, -70547.96, -16716.85, -161482.16, -100608.93, -55821.78, -160603.36, 187500.00, -170943.66, -187500.02, -187500.02, -187500.02, -187500.02, -187500.02, -187500.02, -187500.02, -187500.02, 0.000, 0.000, 0.000, 16:27:32.145
229, -85134.57, -16096.92, -163298.44, -68229.84, -65617.95, -149051.00, 187500.00, -166772.97, -187500.02, -187500.02, -187500.02, -187500.02, -187500.02, -187500.02, -187500.02, -187500.02, 0.000, 0.000, 0.000, 16:27:32.146
230, -85134.57, -16096.92, -163298.44, -68229.84, -65617.95, -149051.00, 187500.00, -166772.97, -187500.02, -187500.02, -187500.02, -187500.02, -187500.02, -187500.02, -187500.02, -187500.02, 0.000, 0.000, 0.000, 16:27:32.146
231, -81191.05, -15801.41, -161253.81, -75032.48, -62056.42, -150527.17, 187500.00, -166660.64, -187500.02, -187500.02, -187500.02, -187500.02, -187500.02, -187500.02, -187500.02, -187500.02, 0.000, 0.000, 0.000, 16:27:32.146
232, -81191.05, -15801.41, -161253.81, -75032.48, -62056.42, -150527.17, 187500.00, -166660.64, -187500.02, -187500.02, -187500.02, -187500.02, -187500.02, -187500.02, -187500.02, -187500.02, 0.000, 0.000, 0.000, 16:27:32.146
233, -73019.16, -17453.78, -162305.63, -97330.49, -57576.88, -159659.67, 187500.00, -170829.50, -187500.02, -187500.02, -187500.02, -187500.02, -187500.02, -187500.02, -187500.02, -187500.02, 0.000, 0.000, 0.000, 16:27:32.147
234, -73019.16, -17453.78, -162305.63, -97330.49, -57576.88, -159659.67, 187500.00, -170829.50, -187500.02, -187500.02, -187500.02, -187500.02, -187500.02, -187500.02, -187500.02, -187500.02, 0.000, 0.000, 0.000, 16:27:32.147
235, -91085.45, -14475.19, -162215.03, -51568.13, -68614.49, -142502.06, 187500.00, -163292.56, -187500.02, -187500.02, -187500.02, -187500.02, -187500.02, -187500.02, -187500.02, -187500.02, 0.000, 0.000, 0.000, 16:27:32.147
236, -91085.45, -14475.19, -162215.03, -51568.13, -68614.49, -142502.06, 187500.00, -163292.56, -187500.02, -187500.02, -187500.02, -187500.02, -187500.02, -187500.02, -187500.02, -187500.02, 0.084, 0.892, 0.332, 16:27:32.147
237, -70692.64, -17524.64, -161195.81, -101716.13, -55235.81, -160459.81, 187500.00, -170775.19, -187500.02, -187500.02, -187500.02, -187500.02, -187500.02, -187500.02, -187500.02, -187500.02, 0.000, 0.000, 0.000, 16:27:32.148
238, -70692.64, -17524.64, -161195.81, -101716.13, -55235.81, -160459.81, 187500.00, -170775.19, -187500.02, -187500.02, -187500.02, -187500.02, -187500.02, -187500.02, -187500.02, -187500.02, 0.000, 0.000, 0.000, 16:27:32.148
239, -84917.09, -15785.94, -163011.94, -68377.07, -64931.48, -149359.88, 187500.00, -166735.80, -187500.02, -187500.02, -187500.02, -187500.02, -187500.02, -187500.02, -187500.02, -187500.02, 0.000, 0.000, 0.000, 16:27:32.148
240, -84917.09, -15785.94, -163011.94, -68377.07, -64931.48, -149359.88, 187500.00, -166735.80, -187500.02, -187500.02, -187500.02, -187500.02, -187500.02, -187500.02, -187500.02, -187500.02, 0.000, 0.000, 0.000, 16:27:32.148
241, -81400.87, -15982.08, -161140.63, -75340.59, -61632.52, -150703.92, 187500.00, -166607.23, -187500.02, -187500.02, -187500.02, -187500.02, -187500.02, -187500.02, -187500.02, -187500.02, 0.000, 0.000, 0.000, 16:27:32.149
242, -81400.87, -15982.08, -161140.63, -75340.59, -61632.52, -150703.92, 187500.00, -166607.23, -187500.02, -187500.02, -187500.02, -187500.02, -187500.02, -187500.02, -187500.02, -187500.02, 0.000, 0.000, 0.000, 16:27:32.149
243, -74288.26, -19561.15, -162185.08, -100072.22, -57524.74, -160062.98, 187500.00, -170646.08, -187500.02, -187500.02, -187500.02, -187500.02, -187500.02, -187500.02, -187500.02, -187500.02, 0.000, 0.000, 0.000, 16:27:32.149
244, -74288.26, -19561.15, -162185.08, -100072.22, -57524.74, -160062.98, 187500.00, -170646.08, -187500.02, -187500.02, -187500.02, -187500.02, -187500.02, -187500.02, -187500.02, -187500.02, 0.000, 0.000, 0.000, 16:27:32.150
245, -90151.16, -12772.77, -162054.09, -48219.84, -67770.77, -142295.05, 187500.00, -163373.61, -187500.02, -187500.02, -187500.02, -187500.02, -187500.02, -187500.02, -187500.02, -187500.02, 0.092, 0.886, 0.328, 16:27:32.150
246, -90151.16, -12772.77, -162054.09, -48219.84, -67770.77, -142295.05, 187500.00, -163373.61, -187500.02, -187500.02, -187500.02, -187500.02, -187500.02, -187500.02, -187500.02, -187500.02, 0.000, 0.000, 0.000, 16:27:32.150
247, -72008.40, -19378.20, -161169.69, -105250.83, -55617.22, -160519.52, 187500.00, -170637.56, -187500.02, -187500.02, -187500.02, -187500.02, -187500.02, -187500.02, -187500.02, -187500.02, 0.000, 0.000, 0.000, 16:27:32.150
248, -72008.40, -19378.20, -161169.69, -105250.83, -55617.22, -160519.52, 187500.00, -170637.56, -187500.02, -187500.02, -187500.02, -187500.02, -187500.02, -187500.02, -187500.02, -187500.02, 0.000, 0.000, 0.000, 16:27:32.151
249, -85293.34, -15568.75, -162736.31, -64631.03, -64888.25, -149047.13, 187500.00, -166355.98, -187500.02, -187500.02, -187500.02, -187500.02, -187500.02, -187500.02, -187500.02, -187500.02, 0.000, 0.000, 0.000, 16:27:32.151
250, -85293.34, -15568.75, -162736.31, -64631.03, -64888.25, -149047.13, 187500.00, -166355.98, -187500.02, -187500.02, -187500.02, -187500.02, -187500.02, -187500.02, -187500.02, -187500.02, 0.000, 0.000, 0.000, 16:27:32.151
251, -80954.35, -14812.99, -160886.75, -72467.05, -61298.92, -149804.94, 187500.00, -166216.50, -187500.02, -187500.02, -187500.02, -187500.02, -187500.02, -187500.02, -187500.02, -187500.02, 0.000, 0.000, 0.000, 16:27:32.151
252, -80954.35, -14812.99, -160886.75, -72467.05, -61298.92, -149804.94, 187500.00, -166216.50, -187500.02, -187500.02, -187500.02, -187500.02, -187500.02, -187500.02, -187500.02, -187500.02, 0.000, 0.000, 0.000, 16:27:32.152
253, -74055.22, -19671.21, -162125.09, -105494.48, -57382.54, -159687.05, 187500.00, -170447.63, -187500.02, -187500.02, -187500.02, -187500.02, -187500.02, -187500.02, -187500.02, -187500.02, 0.000, 0.000, 0.000, 16:27:32.152
254, -74055.22, -19671.21, -162125.09, -105494.48, -57382.54, -159687.05, 187500.00, -170447.63, -187500.02, -187500.02, -187500.02, -187500.02, -187500.02, -187500.02, -187500.02, -187500.02, 0.000, 0.000, 0.000, 16:27:32.152
255, -90518.23, -12317.96, -161877.77, -20411.99, -67802.47, -141738.42, 187500.00, -162413.33, -187500.02, -187500.02, -187500.02, -187500.02, -187500.02, -187500.02, -187500.02, -187500.02, 0.082, 0.880, 0.304, 16:27:32.153
0, -90518.23, -12317.96, -161877.77, -20411.99, -67802.47, -141738.42, 187500.00, -162413.33, -187500.02, -187500.02, -187500.02, -187500.02, -187500.02, -187500.02, -187500.02, -187500.02, 0.000, 0.000, 0.000, 16:27:32.153
1, -71034.91, -19012.13, -160769.03, -114081.27, -54930.98, -159707.70, 187500.00, -170170.00, -187500.02, -187500.02, -187500.02, -187500.02, -187500.02, -187500.02, -187500.02, -187500.02, 0.000, 0.000, 0.000, 16:27:32.153
2, -71034.91, -19012.13, -160769.03, -114081.27, -54930.98, -159707.70, 187500.00, -170170.00, -187500.02, -187500.02, -187500.02, -187500.02, -187500.02, -187500.02, -187500.02, -187500.02, 0.000, 0.000, 0.000, 16:27:32.153
3, -84506.71, -15663.10, -162682.50, -63408.86, -64287.06, -148759.61, 187500.00, -165941.20, -187500.02, -187500.02, -187500.02, -187500.02, -187500.02, -187500.02, -187500.02, -187500.02, 0.000, 0.000, 0.000, 16:27:32.154
4, -84506.71, -15663.10, -162682.50, -63408.86, -64287.06, -148759.61, 187500.00, -165941.20, -187500.02, -187500.02, -187500.02, -187500.02, -187500.02, -187500.02, -187500.02, -187500.02, 0.000, 0.000, 0.000, 16:27:32.154
5, -80654.57, -15414.37, -160862.89, -58601.20, -60978.29, -149347.88, 187500.00, -165698.17, -187500.02, -187500.02, -187500.02, -187500.02, -187500.02, -187500.02, -187500.02, -187500.02, 0.000, 0.000, 0.000, 16:27:32.154
6, -80654.57, -15414.37, -160862.89, -58601.20, -60978.29, -149347.88, 187500.00, -165698.17, -187500.02, -187500.02, -187500.02, -187500.02, -187500.02, -187500.02, -187500.02, -187500.02, 0.000, 0.000, 0.000, 16:27:32.154
7, -72709.22, -19969.38, -162033.94, -117572.34, -56588.49, -159462.34, 187500.00, -170488.22, -187500.02, -187500.02, -187500.02, -187500.02, -187500.02, -187500.02, -187500.02, -187500.02, 0.000, 0.000, 0.000, 16:27:32.155
8, -72709.22, -19969.38, -162033.94, -117572.34, -56588.49, -159462.34, 187500.00, -170488.22, -187500.02, -187500.02, -187500.02, -187500.02, -187500.02, -187500.02, -187500.02, -187500.02, 0.000, 0.000, 0.000, 16:27:32.155
9, -90631.94, -13484.40, -162100.03, 3016.05, -67805.91, -141671.44, 187500.00, -162633.19, -187500.02, -187500.02, -187500.02, -187500.02, -187500.02, -187500.02, -187500.02, -187500.02, 0.086, 0.894, 0.300, 16:27:32.155
10, -90631.94, -13484.40, -162100.03, 3016.05, -67805.91, -141671.44, 187500.00, -162633.19, -187500.02, -187500.02, -187500.02, -187500.02, -187500.02, -187500.02, -187500.02, -187500.02, 0.000, 0.000, 0.000, 16:27:32.155
11, -70743.78, -19719.09, -160941.97, -106541.15, -54863.56, -159536.95, 187500.00, -170254.30, -187500.02, -187500.02, -187500.02, -187500.02, -187500.02, -187500.02, -187500.02, -187500.02, 0.000, 0.000, 0.000, 16:27:32.156
12, -70743.78, -19719.09, -160941.97, -106541.15, -54863.56, -159536.95, 187500.00, -170254.30, -187500.02, -187500.02, -187500.02, -187500.02, -187500.02, -187500.02, -187500.02, -187500.02, 0.000, 0.000, 0.000, 16:27:32.156
13, -84708.66, -16461.05, -162896.72, -46566.50, -64524.99, -148799.52, 187500.00, -166211.19, -187500.02, -187500.02, -187500.02, -187500.02, -187500.02, -187500.02, -187500.02, -187500.02, 0.000, 0.000, 0.000, 16:27:32.156
14, -84708.66, -16461.05, -162896.72, -46566.50, -64524.99, -148799.52, 187500.00, -166211.19, -187500.02, -187500.02, -187500.02, -187500.02, -187500.02, -187500.02, -187500.02, -187500.02, 0.000, 0.000, 0.000, 16:27:32.156
15, -82028.26, -16438.90, -160995.11, -10594.37, -61823.38, -149085.08, 187500.00, -165610.19, -187500.02, -187500.02, -187500.02, -187500.02, -187500.02, -187500.02, -187500.02, -187500.02, 0.000, 0.000, 0.000, 16:27:32.157
16, -82028.26, -16438.90, -160995.11, -10594.37, -61823.38, -149085.08, 187500.00, -165610.19, -187500.02, -187500.02, -187500.02, -187500.02, -187500.02, -187500.02, -187500.02, -187500.02, 0.000, 0.000, 0.000, 16:27:32.157
17, -72183.17, -19467.05, -162010.13, -117940.65, -56485.34, -159119.42, 187500.00, -170562.06, -187500.02, -187500.02, -187500.02, -187500.02, -187500.02, -187500.02, -187500.02, -187500.02, 0.000, 0.000, 0.000, 16:27:32.157
18, -72183.17, -19467.05, -162010.13, -117940.65, -56485.34, -159119.42, 187500.00, -170562.06, -187500.02, -187500.02, -187500.02, -187500.02, -187500.02, -187500.02, -187500.02, -187500.02, 0.000, 0.000, 0.000, 16:27:32.157
