%OpenBCI Raw EEG Data
%
%Sample Rate = 250.0 Hz
%First Column = SampleIndex
%Last Column = Timestamp 
%Other Columns = EEG data in microvolts followed by Accel Data (in G) interleaved with Aux Data
144, -10249.59, 96714.77, 81492.83, 114873.08, 133924.86, 101748.45, 112591.01, 175274.89, -3532.47, -65328.02, -73969.74, 2558.05, -73355.18, -84560.40, -60788.47, -107189.48, 0.348, 0.000, 0.000, 16:54:27.309
225, -10235.24, 96683.95, 81505.77, 114872.63, 133961.11, 101640.17, 112634.62, 175260.78, -3523.01, -65365.77, -73968.05, 2534.15, -73328.60, -84557.30, -60788.34, -107228.80, 0.000, 0.000, 0.000, 16:54:27.309
226, -10235.24, 96683.95, 81505.77, 114872.63, 133961.11, 101640.17, 112634.62, 175260.78, -3530.08, -65381.13, -73971.95, 2529.90, -73339.76, -84566.28, -60788.50, -107223.33, 0.000, 0.000, 0.000, 16:54:27.309
227, -10240.45, 96672.52, 81499.15, 114868.29, 133963.88, 101653.34, 112635.33, 175283.00, -3530.08, -65381.13, -73971.95, 2529.90, -73339.76, -84566.28, -60788.50, -107223.33, 0.000, 0.000, 0.000, 16:54:27.309
228, -10240.45, 96672.52, 81499.15, 114868.29, 133963.88, 101653.34, 112635.33, 175283.00, -3539.64, -65388.28, -73984.48, 2518.42, -73340.70, -84574.39, -60807.29, -107225.47, 0.000, 0.000, 0.000, 16:54:27.309
229, -10252.32, 96678.96, 81497.52, 114874.15, 133974.41, 101647.28, 112622.13, 175275.13, -3539.64, -65388.28, -73984.48, 2518.42, -73340.70, -84574.39, -60807.29, -107225.47, 0.000, 0.000, 0.000, 16:54:27.309
230, -10252.32, 96678.96, 81497.52, 114874.15, 133974.41, 101647.28, 112622.13, 175275.13, -3551.51, -65384.41, -73979.16, 2521.90, -73330.75, -84566.81, -60799.71, -107212.22, 0.000, 0.000, 0.000, 16:54:27.310
231, -10240.52, 96679.83, 81489.65, 114864.88, 133962.42, 101635.86, 112616.82, 175289.84, -3551.51, -65384.41, -73979.16, 2521.90, -73330.75, -84566.81, -60799.71, -107212.22, 0.000, 0.000, 0.000, 16:54:27.310
232, -10240.52, 96679.83, 81489.65, 114864.88, 133962.42, 101635.86, 112616.82, 175289.84, -3543.20, -65387.68, -73977.19, 2523.29, -73331.73, -84550.09, -60803.65, -107202.41, 0.344, 0.910, 0.014, 16:54:27.310
233, -10224.78, 96699.73, 81506.05, 114885.10, 133959.31, 101672.72, 112625.34, 175255.11, -3543.20, -65387.68, -73977.19, 2523.29, -73331.73, -84550.09, -60803.65, -107202.41, 0.000, 0.000, 0.000, 16:54:27.310
234, -10224.78, 96699.73, 81506.05, 114885.10, 133959.31, 101672.72, 112625.34, 175255.11, -3530.39, -65373.71, -73967.93, 2535.89, -73339.67, -84537.70, -60798.35, -107194.20, 0.000, 0.000, 0.000, 16:54:27.310
235, -10233.99, 96700.59, 81507.80, 114890.80, 133948.66, 101654.99, 112623.55, 175248.36, -3530.39, -65373.71, -73967.93, 2535.89, -73339.67, -84537.70, -60798.35, -107194.20, 0.000, 0.000, 0.000, 16:54:27.311
236, -10233.99, 96700.59, 81507.80, 114890.80, 133948.66, 101654.99, 112623.55, 175248.36, -3530.57, -65369.24, -73958.08, 2548.79, -73327.11, -84534.95, -60787.71, -107186.20, 0.000, 0.000, 0.000, 16:54:27.311
237, -10214.05, 96707.41, 81518.87, 114902.76, 133948.69, 101645.56, 112634.30, 175267.84, -3530.57, -65369.24, -73958.08, 2548.79, -73327.11, -84534.95, -60787.71, -107186.20, 0.000, 0.000, 0.000, 16:54:27.311
238, -10214.05, 96707.41, 81518.87, 114902.76, 133948.69, 101645.56, 112634.30, 175267.84, -3518.83, -65367.83, -73946.92, 2557.11, -73328.72, -84538.54, -60775.38, -107178.82, 0.000, 0.000, 0.000, 16:54:27.311
239, -10199.95, 96720.71, 81531.07, 114909.78, 133962.88, 101654.12, 112647.13, 175281.61, -3518.83, -65367.83, -73946.92, 2557.11, -73328.72, -84538.54, -60775.38, -107178.82, 0.000, 0.000, 0.000, 16:54:27.312
240, -10199.95, 96720.71, 81531.07, 114909.78, 133962.88, 101654.12, 112647.13, 175281.61, -3513.49, -65361.89, -73938.88, 2564.10, -73325.01, -84537.73, -60768.69, -107172.79, 0.000, 0.000, 0.000, 16:54:27.312
241, -10196.46, 96717.00, 81533.08, 114908.62, 133962.66, 101636.13, 112656.55, 175286.48, -3513.49, -65361.89, -73938.88, 2564.10, -73325.01, -84537.73, -60768.69, -107172.79, 0.000, 0.000, 0.000, 16:54:27.312
242, -10196.46, 96717.00, 81533.08, 114908.62, 133962.66, 101636.13, 112656.55, 175286.48, -3511.32, -65361.91, -73944.77, 2559.25, -73331.20, -84522.20, -60776.27, -107195.70, 0.342, 0.910, 0.008, 16:54:27.312
243, -10186.45, 96721.13, 81517.75, 114887.63, 133940.98, 101617.53, 112639.73, 175261.03, -3511.32, -65361.91, -73944.77, 2559.25, -73331.20, -84522.20, -60776.27, -107195.70, 0.000, 0.000, 0.000, 16:54:27.313
244, -10186.45, 96721.13, 81517.75, 114887.63, 133940.98, 101617.53, 112639.73, 175261.03, -3515.77, -65362.94, -73952.09, 2552.86, -73339.91, -84531.43, -60800.16, -107211.73, 0.000, 0.000, 0.000, 16:54:27.313
245, -10190.54, 96725.31, 81519.20, 114881.57, 133930.67, 101623.68, 112629.38, 175242.39, -3515.77, -65362.94, -73952.09, 2552.86, -73339.91, -84531.43, -60800.16, -107211.73, 0.000, 0.000, 0.000, 16:54:27.313
246, -10190.54, 96725.31, 81519.20, 114881.57, 133930.67, 101623.68, 112629.38, 175242.39, -3520.94, -65367.32, -73952.33, 2551.97, -73337.93, -84539.08, -60798.87, -107219.95, 0.000, 0.000, 0.000, 16:54:27.313
247, -10186.58, 96719.13, 81521.86, 114878.82, 133943.56, 101629.58, 112635.78, 175249.94, -3520.94, -65367.32, -73952.33, 2551.97, -73337.93, -84539.08, -60798.87, -107219.95, 0.000, 0.000, 0.000, 16:54:27.313
248, -10186.58, 96719.13, 81521.86, 114878.82, 133943.56, 101629.58, 112635.78, 175249.94, -3516.98, -65368.95, -73950.45, 2551.09, -73329.79, -84549.70, -60794.24, -107209.91, 0.000, 0.000, 0.000, 16:54:27.313
249, -10188.08, 96709.34, 81522.33, 114881.73, 133958.27, 101635.77, 112640.77, 175239.44, -3516.98, -65368.95, -73950.45, 2551.09, -73329.79, -84549.70, -60794.24, -107209.91, 0.000, 0.000, 0.000, 16:54:27.314
250, -10188.08, 96709.34, 81522.33, 114881.73, 133958.27, 101635.77, 112640.77, 175239.44, -3519.77, -65373.22, -73956.38, 2546.89, -73333.16, -84534.16, -60790.82, -107201.53, 0.000, 0.000, 0.000, 16:54:27.314
251, -10187.63, 96699.88, 81516.30, 114886.09, 133958.45, 101638.90, 112648.67, 175249.61, -3519.77, -65373.22, -73956.38, 2546.89, -73333.16, -84534.16, -60790.82, -107201.53, 0.000, 0.000, 0.000, 16:54:27.314
252, -10187.63, 96699.88, 81516.30, 114886.09, 133958.45, 101638.90, 112648.67, 175249.61, -3513.63, -65371.38, -73964.55, 2544.88, -73335.45, -84528.44, -60802.62, -107200.48, 0.344, 0.916, 0.014, 16:54:27.314
253, -10199.75, 96701.98, 81509.63, 114881.28, 133975.25, 101640.60, 112644.85, 175234.86, -3513.63, -65371.38, -73964.55, 2544.88, -73335.45, -84528.44, -60802.62, -107200.48, 0.000, 0.000, 0.000, 16:54:27.314
254, -10199.75, 96701.98, 81509.63, 114881.28, 133975.25, 101640.60, 112644.85, 175234.86, -3520.13, -65386.14, -73978.75, 2530.73, -73341.05, -84554.26, -60815.70, -107214.79, 0.000, 0.000, 0.000, 16:54:27.315
255, -10211.06, 96691.43, 81489.52, 114859.06, 133953.98, 101622.25, 112630.05, 175222.88, -3520.13, -65386.14, -73978.75, 2530.73, -73341.05, -84554.26, -60815.70, -107214.79, 0.000, 0.000, 0.000, 16:54:27.315
0, -10211.06, 96691.43, 81489.52, 114859.06, 133953.98, 101622.25, 112630.05, 175222.88, -3530.21, -65392.06, -73983.73, 2526.35, -73348.32, -84552.78, -60826.18, -107227.64, 0.000, 0.000, 0.000, 16:54:27.315
1, -10225.48, 96695.74, 81491.13, 114856.38, 133951.98, 101608.57, 112625.41, 175226.25, -3530.21, -65392.06, -73983.73, 2526.35, -73348.32, -84552.78, -60826.18, -107227.64, 0.000, 0.000, 0.000, 16:54:27.315
2, -10225.48, 96695.74, 81491.13, 114856.38, 133951.98, 101608.57, 112625.41, 175226.25, -3526.68, -65402.52, -73988.85, 2518.57, -73355.92, -84554.99, -60827.79, -107232.24, 0.000, 0.000, 0.000, 16:54:27.315
3, -10218.81, 96693.09, 81493.56, 114855.87, 133936.16, 101585.16, 112622.91, 175229.69, -3526.68, -65402.52, -73988.85, 2518.57, -73355.92, -84554.99, -60827.79, -107232.24, 0.000, 0.000, 0.000, 16:54:27.315
4, -10218.81, 96693.09, 81493.56, 114855.87, 133936.16, 101585.16, 112622.91, 175229.69, -3510.77, -65391.57, -73974.28, 2532.12, -73346.09, -84549.78, -60811.63, -107213.60, 0.000, 0.000, 0.000, 16:54:27.316
5, -10206.88, 96707.30, 81519.02, 114883.54, 133965.22, 101594.45, 112640.27, 175223.64, -3510.77, -65391.57, -73974.28, 2532.12, -73346.09, -84549.78, -60811.63, -107213.60, 0.000, 0.000, 0.000, 16:54:27.316
6, -10206.88, 96707.30, 81519.02, 114883.54, 133965.22, 101594.45, 112640.27, 175223.64, -3485.67, -65375.86, -73956.51, 2552.39, -73328.43, -84542.66, -60791.56, -107191.52, 0.338, 0.910, 0.012, 16:54:27.316
7, -10185.91, 96720.45, 81533.95, 114896.48, 133961.94, 101599.20, 112641.34, 175235.03, -3485.67, -65375.86, -73956.51, 2552.39, -73328.43, -84542.66, -60791.56, -107191.52, 0.000, 0.000, 0.000, 16:54:27.316
8, -10185.91, 96720.45, 81533.95, 114896.48, 133961.94, 101599.20, 112641.34, 175235.03, -3478.09, -65362.22, -73942.18, 2566.74, -73328.49, -84536.44, -60786.57, -107195.97, 0.000, 0.000, 0.000, 16:54:27.773
9, -10172.23, 96734.99, 81539.02, 114900.62, 133956.33, 101605.28, 112640.49, 175240.47, -3478.09, -65362.22, -73942.18, 2566.74, -73328.49, -84536.44, -60786.57, -107195.97, 0.000, 0.000, 0.000, 16:54:27.773
10, -10172.23, 96734.99, 81539.02, 114900.62, 133956.33, 101605.28, 112640.49, 175240.47, -3496.33, -65353.70, -73934.12, 2578.65, -73322.81, -84523.12, -60790.82, -107178.58, 0.000, 0.000, 0.000, 16:54:27.773
11, -10167.92, 96747.29, 81535.36, 114900.08, 133931.78, 101621.84, 112638.66, 175220.33, -3496.33, -65353.70, -73934.12, 2578.65, -73322.81, -84523.12, -60790.82, -107178.58, 0.000, 0.000, 0.000, 16:54:27.773
12, -10167.92, 96747.29, 81535.36, 114900.08, 133931.78, 101621.84, 112638.66, 175220.33, -3498.29, -65360.43, -73941.22, 2571.84, -73342.42, -84530.49, -60806.18, -107198.63, 0.000, 0.000, 0.000, 16:54:27.773
13, -10180.86, 96744.74, 81519.11, 114881.15, 133924.56, 101559.44, 112640.74, 175243.55, -3498.29, -65360.43, -73941.22, 2571.84, -73342.42, -84530.49, -60806.18, -107198.63, 0.000, 0.000, 0.000, 16:54:27.774
14, -10180.86, 96744.74, 81519.11, 114881.15, 133924.56, 101559.44, 112640.74, 175243.55, -3511.01, -65366.09, -73948.53, 2563.34, -73355.77, -84548.45, -60822.27, -107211.59, 0.000, 0.000, 0.000, 16:54:27.774
15, -10178.13, 96736.40, 81520.25, 114885.46, 133949.47, 101604.43, 112624.11, 175191.83, -3511.01, -65366.09, -73948.53, 2563.34, -73355.77, -84548.45, -60822.27, -107211.59, 0.340, 0.906, 0.014, 16:54:27.774
16, -10178.13, 96736.40, 81520.25, 114885.46, 133949.47, 101604.43, 112624.11, 175191.83, -3502.83, -65365.57, -73951.99, 2557.31, -73327.47, -84516.41, -60822.49, -107213.36, 0.000, 0.000, 0.000, 16:54:27.774
17, -10179.68, 96718.99, 81514.41, 114881.05, 133938.06, 101582.28, 112629.23, 175200.55, -3502.83, -65365.57, -73951.99, 2557.31, -73327.47, -84516.41, -60822.49, -107213.36, 0.000, 0.000, 0.000, 16:54:27.774
18, -10179.68, 96718.99, 81514.41, 114881.05, 133938.06, 101582.28, 112629.23, 175200.55, -3506.39, -65367.29, -73955.91, 2556.77, -73344.54, -84530.18, -60816.93, -107215.57, 0.000, 0.000, 0.000, 16:54:27.775
19, -10184.55, 96706.23, 81509.23, 114880.81, 133932.66, 101610.29, 112636.78, 175203.22, -3506.39, -65367.29, -73955.91, 2556.77, -73344.54, -84530.18, -60816.93, -107215.57, 0.000, 0.000, 0.000, 16:54:27.775
20, -10184.55, 96706.23, 81509.23, 114880.81, 133932.66, 101610.29, 112636.78, 175203.22, -3492.77, -65368.30, -73959.44, 2554.92, -73335.20, -84520.80, -60821.62, -107218.09, 0.000, 0.000, 0.000, 16:54:27.775
21, -10175.14, 96702.05, 81503.27, 114873.61, 133941.91, 101593.88, 112635.27, 175226.66, -3492.77, -65368.30, -73959.44, 2554.92, -73335.20, -84520.80, -60821.62, -107218.09, 0.000, 0.000, 0.000, 16:54:27.775
22, -10175.14, 96702.05, 81503.27, 114873.61, 133941.91, 101593.88, 112635.27, 175226.66, -3472.19, -65380.62, -73965.02, 2549.22, -73345.10, -84535.55, -60822.25, -107223.51, 0.000, 0.000, 0.000, 16:54:27.775
23, -10188.06, 96690.54, 81508.38, 114880.84, 133971.19, 101608.52, 112643.80, 175219.83, -3472.19, -65380.62, -73965.02, 2549.22, -73345.10, -84535.55, -60822.25, -107223.51, 0.000, 0.000, 0.000, 16:54:27.775
24, -10188.06, 96690.54, 81508.38, 114880.84, 133971.19, 101608.52, 112643.80, 175219.83, -3456.88, -65389.45, -73973.19, 2541.26, -73343.34, -84524.75, -60808.14, -107207.48, 0.000, 0.000, 0.000, 16:54:27.776
25, -10195.30, 96679.25, 81503.22, 114867.80, 133969.44, 101600.72, 112645.39, 175234.77, -3456.88, -65389.45, -73973.19, 2541.26, -73343.34, -84524.75, -60808.14, -107207.48, 0.346, 0.906, 0.016, 16:54:27.776
26, -10195.30, 96679.25, 81503.22, 114867.80, 133969.44, 101600.72, 112645.39, 175234.77, -3449.57, -65395.37, -73976.02, 2533.93, -73334.95, -84531.08, -60802.69, -107210.41, 0.000, 0.000, 0.000, 16:54:27.776
27, -10206.16, 96691.63, 81507.73, 114862.44, 133964.23, 101586.22, 112651.94, 175244.73, -3449.57, -65395.37, -73976.02, 2533.93, -73334.95, -84531.08, -60802.69, -107210.41, 0.000, 0.000, 0.000, 16:54:27.776
28, -10206.16, 96691.63, 81507.73, 114862.44, 133964.23, 101586.22, 112651.94, 175244.73, -3449.16, -65389.85, -73972.80, 2535.11, -73333.92, -84537.65, -60794.57, -107202.83, 0.000, 0.000, 0.000, 16:54:27.776
29, -10195.79, 96690.72, 81513.32, 114865.56, 133965.48, 101582.38, 112647.24, 175218.50, -3449.16, -65389.85, -73972.80, 2535.11, -73333.92, -84537.65, -60794.57, -107202.83, 0.000, 0.000, 0.000, 16:54:27.777
30, -10195.79, 96690.72, 81513.32, 114865.56, 133965.48, 101582.38, 112647.24, 175218.50, -3424.56, -65385.27, -73969.66, 2545.71, -73331.82, -84524.46, -60788.59, -107191.99, 0.000, 0.000, 0.000, 16:54:27.777
31, -10187.41, 96729.85, 81516.54, 114878.28, 133949.03, 101600.79, 112647.11, 175223.48, -3424.56, -65385.27, -73969.66, 2545.71, -73331.82, -84524.46, -60788.59, -107191.99, 0.000, 0.000, 0.000, 16:54:27.777
32, -10187.41, 96729.85, 81516.54, 114878.28, 133949.03, 101600.79, 112647.11, 175223.48, -3428.96, -65375.43, -73972.25, 2546.80, -73348.32, -84522.70, -60805.64, -107202.38, 0.000, 0.000, 0.000, 16:54:27.777
33, -10182.22, 96721.38, 81508.67, 114874.48, 133932.86, 101572.54, 112629.81, 175215.13, -3428.96, -65375.43, -73972.25, 2546.80, -73348.32, -84522.70, -60805.64, -107202.38, 0.000, 0.000, 0.000, 16:54:27.778
34, -10182.22, 96721.38, 81508.67, 114874.48, 133932.86, 101572.54, 112629.81, 175215.13, -3437.54, -65368.39, -73965.54, 2549.40, -73345.86, -84512.86, -60822.11, -107213.71, 0.000, 0.000, 0.000, 16:54:27.778
35, -10172.12, 96722.81, 81503.51, 114867.80, 133907.27, 101555.41, 112614.32, 175221.31, -3437.54, -65368.39, -73965.54, 2549.40, -73345.86, -84512.86, -60822.11, -107213.71, 0.350, 0.910, 0.010, 16:54:27.778
36, -10172.12, 96722.81, 81503.51, 114867.80, 133907.27, 101555.41, 112614.32, 175221.31, -3451.67, -65361.17, -73961.72, 2549.89, -73336.98, -84526.85, -60840.53, -107217.25, 0.000, 0.000, 0.000, 16:54:27.778
37, -10165.66, 96727.23, 81505.34, 114870.13, 133912.22, 101560.40, 112595.34, 175194.20, -3451.67, -65361.17, -73961.72, 2549.89, -73336.98, -84526.85, -60840.53, -107217.25, 0.000, 0.000, 0.000, 16:54:27.779
38, -10165.66, 96727.23, 81505.34, 114870.13, 133912.22, 101560.40, 112595.34, 175194.20, -3470.09, -65353.17, -73956.78, 2553.02, -73345.34, -84527.09, -60843.61, -107220.53, 0.000, 0.000, 0.000, 16:54:27.779
39, -10159.69, 96733.02, 81519.00, 114876.72, 133930.00, 101548.06, 112598.52, 175194.78, -3470.09, -65353.17, -73956.78, 2553.02, -73345.34, -84527.09, -60843.61, -107220.53, 0.000, 0.000, 0.000, 16:54:27.779
40, -10159.69, 96733.02, 81519.00, 114876.72, 133930.00, 101548.06, 112598.52, 175194.78, -3461.30, -65339.67, -73949.45, 2558.38, -73349.62, -84529.98, -60834.27, -107215.26, 0.000, 0.000, 0.000, 16:54:27.779
41, -10158.82, 96732.27, 81522.84, 114874.15, 133917.44, 101545.72, 112601.34, 175183.16, -3461.30, -65339.67, -73949.45, 2558.38, -73349.62, -84529.98, -60834.27, -107215.26, 0.000, 0.000, 0.000, 16:54:27.779
42, -10158.82, 96732.27, 81522.84, 114874.15, 133917.44, 101545.72, 112601.34, 175183.16, -3430.59, -65329.81, -73950.74, 2559.72, -73328.80, -84529.53, -60827.70, -107189.06, 0.000, 0.000, 0.000, 16:54:27.779
43, -10165.98, 96748.38, 81535.70, 114881.46, 133927.64, 101582.91, 112603.15, 175141.14, -3430.59, -65329.81, -73950.74, 2559.72, -73328.80, -84529.53, -60827.70, -107189.06, 0.000, 0.000, 0.000, 16:54:27.780
44, -10165.98, 96748.38, 81535.70, 114881.46, 133927.64, 101582.91, 112603.15, 175141.14, -3413.33, -65339.22, -73956.11, 2552.70, -73338.51, -84549.02, -60820.08, -107184.08, 0.000, 0.000, 0.000, 16:54:27.780
45, -10158.20, 96736.27, 81536.81, 114880.14, 133918.38, 101584.63, 112610.05, 175150.83, -3413.33, -65339.22, -73956.11, 2552.70, -73338.51, -84549.02, -60820.08, -107184.08, 0.354, 0.914, 0.016, 16:54:27.780
46, -10158.20, 96736.27, 81536.81, 114880.14, 133918.38, 101584.63, 112610.05, 175150.83, -3392.61, -65316.38, -73946.66, 2565.24, -73326.03, -84515.43, -60808.25, -107163.36, 0.000, 0.000, 0.000, 16:54:27.780
47, -10156.92, 96758.51, 81551.63, 114890.02, 133950.33, 101576.47, 112618.75, 175148.91, -3392.61, -65316.38, -73946.66, 2565.24, -73326.03, -84515.43, -60808.25, -107163.36, 0.000, 0.000, 0.000, 16:54:27.780
48, -10156.92, 96758.51, 81551.63, 114890.02, 133950.33, 101576.47, 112618.75, 175148.91, -3374.42, -65319.13, -73952.98, 2559.16, -73327.84, -84531.81, -60793.34, -107170.02, 0.000, 0.000, 0.000, 16:54:27.781
49, -10153.53, 96749.41, 81553.89, 114883.85, 133950.64, 101569.92, 112630.30, 175165.25, -3374.42, -65319.13, -73952.98, 2559.16, -73327.84, -84531.81, -60793.34, -107170.02, 0.000, 0.000, 0.000, 16:54:27.781
50, -10153.53, 96749.41, 81553.89, 114883.85, 133950.64, 101569.92, 112630.30, 175165.25, -3363.22, -65316.87, -73955.10, 2555.18, -73326.10, -84538.45, -60788.99, -107177.52, 0.000, 0.000, 0.000, 16:54:27.781
51, -10159.67, 96761.73, 81549.40, 114874.98, 133943.52, 101549.52, 112636.92, 175169.09, -3363.22, -65316.87, -73955.10, 2555.18, -73326.10, -84538.45, -60788.99, -107177.52, 0.000, 0.000, 0.000, 16:54:27.781
52, -10159.67, 96761.73, 81549.40, 114874.98, 133943.52, 101549.52, 112636.92, 175169.09, -3357.39, -65318.70, -73966.19, 2545.10, -73328.92, -84546.90, -60789.43, -107181.57, 0.000, 0.000, 0.000, 16:54:27.781
53, -10163.45, 96750.28, 81545.29, 114870.28, 133945.70, 101570.93, 112631.46, 175158.28, -3357.39, -65318.70, -73966.19, 2545.10, -73328.92, -84546.90, -60789.43, -107181.57, 0.000, 0.000, 0.000, 16:54:27.781
54, -10163.45, 96750.28, 81545.29, 114870.28, 133945.70, 101570.93, 112631.46, 175158.28, -3371.60, -65316.87, -73962.01, 2546.42, -73327.66, -84552.42, -60784.67, -107181.15, 0.000, 0.000, 0.000, 16:54:27.782
55, -10162.69, 96761.84, 81556.35, 114880.23, 133958.47, 101560.16, 112641.77, 175148.27, -3371.60, -65316.87, -73962.01, 2546.42, -73327.66, -84552.42, -60784.67, -107181.15, 0.356, 0.914, 0.018, 16:54:27.782
56, -10162.69, 96761.84, 81556.35, 114880.23, 133958.47, 101560.16, 112641.77, 175148.27, -3406.99, -65302.83, -73953.38, 2553.71, -73323.24, -84535.75, -60783.58, -107168.85, 0.000, 0.000, 0.000, 16:54:27.782
57, -10161.80, 96767.98, 81551.16, 114881.03, 133937.48, 101556.42, 112626.34, 175110.25, -3406.99, -65302.83, -73953.38, 2553.71, -73323.24, -84535.75, -60783.58, -107168.85, 0.000, 0.000, 0.000, 16:54:27.782
58, -10161.80, 96767.98, 81551.16, 114881.03, 133937.48, 101556.42, 112626.34, 175110.25, -3424.24, -65304.33, -73957.05, 2549.64, -73328.60, -84536.41, -60800.07, -107177.59, 0.000, 0.000, 0.000, 16:54:27.783
59, -10163.52, 96785.71, 81550.85, 114880.72, 133929.28, 101543.32, 112616.27, 175115.42, -3424.24, -65304.33, -73957.05, 2549.64, -73328.60, -84536.41, -60800.07, -107177.59, 0.000, 0.000, 0.000, 16:54:27.783
60, -10163.52, 96785.71, 81550.85, 114880.72, 133929.28, 101543.32, 112616.27, 175115.42, -3413.38, -65301.36, -73952.58, 2550.62, -73325.05, -84538.07, -60808.07, -107186.70, 0.000, 0.000, 0.000, 16:54:27.783
61, -10159.56, 96792.62, 81548.77, 114877.66, 133927.27, 101516.39, 112737.28, 175124.28, -3413.38, -65301.36, -73952.58, 2550.62, -73325.05, -84538.07, -60808.07, -107186.70, 0.000, 0.000, 0.000, 16:54:27.783
62, -10159.56, 96792.62, 81548.77, 114877.66, 133927.27, 101516.39, 112737.28, 175124.28, -3381.57, -65300.93, -73948.38, 2554.89, -73332.27, -84543.37, -60806.62, -107185.77, 0.000, 0.000, 0.000, 16:54:27.784
63, -10158.11, 96787.88, 81547.05, 114879.00, 133919.56, 101528.37, 112982.30, 175101.30, -3381.57, -65300.93, -73948.38, 2554.89, -73332.27, -84543.37, -60806.62, -107185.77, 0.000, 0.000, 0.000, 16:54:27.784
64, -10158.11, 96787.88, 81547.05, 114879.00, 133919.56, 101528.37, 112982.30, 175101.30, -3362.08, -65297.02, -73948.06, 2557.35, -73327.42, -84535.50, -60810.87, -107187.18, 0.350, 0.908, 0.016, 16:54:27.784
65, -10153.28, 96801.78, 81555.79, 114883.96, 133922.95, 101521.95, 113100.83, 175096.75, -3362.08, -65297.02, -73948.06, 2557.35, -73327.42, -84535.50, -60810.87, -107187.18, 0.000, 0.000, 0.000, 16:54:27.784
66, -10153.28, 96801.78, 81555.79, 114883.96, 133922.95, 101521.95, 113100.83, 175096.75, -3344.54, -65302.56, -73948.04, 2554.04, -73342.91, -84550.88, -60812.10, -107199.39, 0.000, 0.000, 0.000, 16:54:27.785
67, -10156.92, 96795.34, 81544.46, 114873.63, 133917.44, 101502.40, 113065.38, 175093.02, -3344.54, -65302.56, -73948.04, 2554.04, -73342.91, -84550.88, -60812.10, -107199.39, 0.000, 0.000, 0.000, 16:54:27.785
68, -10156.92, 96795.34, 81544.46, 114873.63, 133917.44, 101502.40, 113065.38, 175093.02, -3340.80, -65303.59, -73959.41, 2546.15, -73331.63, -84536.04, -60824.10, -107209.16, 0.000, 0.000, 0.000, 16:54:27.785
69, -10184.48, 96787.72, 81537.55, 114869.03, 133919.89, 101500.27, 113011.22, 175104.16, -3340.80, -65303.59, -73959.41, 2546.15, -73331.63, -84536.04, -60824.10, -107209.16, 0.000, 0.000, 0.000, 16:54:27.785
70, -10184.48, 96787.72, 81537.55, 114869.03, 133919.89, 101500.27, 113011.22, 175104.16, -3348.25, -65305.56, -73965.97, 2541.73, -73343.31, -84540.24, -60817.51, -107205.47, 0.000, 0.000, 0.000, 16:54:27.786
71, -10182.36, 96777.20, 81536.19, 114862.66, 133922.80, 101504.23, 112989.31, 175094.89, -3348.25, -65305.56, -73965.97, 2541.73, -73343.31, -84540.24, -60817.51, -107205.47, 0.000, 0.000, 0.000, 16:54:27.786
72, -10182.36, 96777.20, 81536.19, 114862.66, 133922.80, 101504.23, 112989.31, 175094.89, -3322.12, -65326.79, -73982.13, 2522.37, -73352.52, -84557.43, -60809.53, -107210.01, 0.000, 0.000, 0.000, 16:54:27.786
73, -10182.11, 96772.10, 81530.33, 114848.83, 133922.03, 101489.10, 112974.23, 175095.98, -3322.12, -65326.79, -73982.13, 2522.37, -73352.52, -84557.43, -60809.53, -107210.01, 0.000, 0.000, 0.000, 16:54:27.786
74, -10182.11, 96772.10, 81530.33, 114848.83, 133922.03, 101489.10, 112974.23, 175095.98, -3307.57, -65324.29, -73980.00, 2522.42, -73338.91, -84558.08, -60806.40, -107211.21, 0.354, 0.908, 0.016, 16:54:27.787
75, -10186.14, 96769.02, 81536.75, 114856.34, 133942.91, 101494.55, 112968.71, 175098.44, -3307.57, -65324.29, -73980.00, 2522.42, -73338.91, -84558.08, -60806.40, -107211.21, 0.000, 0.000, 0.000, 16:54:27.787
76, -10186.14, 96769.02, 81536.75, 114856.34, 133942.91, 101494.55, 112968.71, 175098.44, -3306.78, -65322.10, -73977.92, 2523.80, -73341.86, -84561.99, -60802.02, -107202.38, 0.000, 0.000, 0.000, 16:54:27.787
77, -10189.91, 96760.52, 81534.49, 114860.34, 133940.03, 101502.11, 112944.50, 175114.41, -3306.78, -65322.10, -73977.92, 2523.80, -73341.86, -84561.99, -60802.02, -107202.38, 0.000, 0.000, 0.000, 16:54:27.788
78, -10189.91, 96760.52, 81534.49, 114860.34, 133940.03, 101502.11, 112944.50, 175114.41, -3298.96, -65312.18, -73975.73, 2527.60, -73337.55, -84541.27, -60807.85, -107195.88, 0.000, 0.000, 0.000, 16:54:27.788
79, -10186.36, 96760.52, 81524.45, 114854.88, 133941.14, 101493.45, 112907.11, 175116.80, -3298.96, -65312.18, -73975.73, 2527.60, -73337.55, -84541.27, -60807.85, -107195.88, 0.000, 0.000, 0.000, 16:54:27.788
80, -10186.36, 96760.52, 81524.45, 114854.88, 133941.14, 101493.45, 112907.11, 175116.80, -3310.99, -65324.85, -73990.42, 2513.65, -73348.45, -84552.34, -60819.39, -107209.06, 0.000, 0.000, 0.000, 16:54:27.788
81, -10175.97, 96768.09, 81527.74, 114859.46, 133948.41, 101488.05, 112870.92, 175110.00, -3310.99, -65324.85, -73990.42, 2513.65, -73348.45, -84552.34, -60819.39, -107209.06, 0.000, 0.000, 0.000, 16:54:27.789
82, -10175.97, 96768.09, 81527.74, 114859.46, 133948.41, 101488.05, 112870.92, 175110.00, -3308.42, -65305.22, -73969.45, 2538.40, -73327.60, -84537.09, -60804.43, -107187.23, 0.000, 0.000, 0.000, 16:54:27.789
83, -10168.37, 96792.62, 81548.10, 114883.45, 133951.52, 101501.21, 112851.36, 175103.31, -3308.42, -65305.22, -73969.45, 2538.40, -73327.60, -84537.09, -60804.43, -107187.23, 0.000, 0.000, 0.000, 16:54:27.789
84, -10168.37, 96792.62, 81548.10, 114883.45, 133951.52, 101501.21, 112851.36, 175103.31, -3317.07, -65302.39, -73957.92, 2546.15, -73324.59, -84530.56, -60807.41, -107184.26, 0.352, 0.902, 0.012, 16:54:27.789
85, -10157.75, 96807.88, 81551.55, 114887.18, 133939.27, 101496.38, 112839.20, 175108.86, -3317.07, -65302.39, -73957.92, 2546.15, -73324.59, -84530.56, -60807.41, -107184.26, 0.000, 0.000, 0.000, 16:54:27.789
86, -10157.75, 96807.88, 81551.55, 114887.18, 133939.27, 101496.38, 112839.20, 175108.86, -3300.91, -65310.50, -73955.69, 2547.34, -73333.84, -84531.97, -60809.42, -107185.82, 0.000, 0.000, 0.000, 16:54:27.789
87, -10150.04, 96801.05, 81536.81, 114873.92, 133926.81, 101469.74, 112810.39, 175100.72, -3300.91, -65310.50, -73955.69, 2547.34, -73333.84, -84531.97, -60809.42, -107185.82, 0.000, 0.000, 0.000, 16:54:27.789
88, -10150.04, 96801.05, 81536.81, 114873.92, 133926.81, 101469.74, 112810.39, 175100.72, -3313.53, -65306.65, -73951.93, 2549.17, -73335.65, -84539.10, -60821.57, -107198.41, 0.000, 0.000, 0.000, 16:54:27.790
89, -10148.94, 96801.42, 81542.36, 114880.16, 133915.27, 101467.20, 112798.79, 175116.20, -3313.53, -65306.65, -73951.93, 2549.17, -73335.65, -84539.10, -60821.57, -107198.41, 0.000, 0.000, 0.000, 16:54:27.790
90, -10148.94, 96801.42, 81542.36, 114880.16, 133915.27, 101467.20, 112798.79, 175116.20, -3321.49, -65314.43, -73958.66, 2542.06, -73345.68, -84532.02, -60827.48, -107210.20, 0.000, 0.000, 0.000, 16:54:27.790
91, -10148.59, 96787.97, 81533.04, 114871.35, 133910.75, 101457.98, 112784.98, 175121.00, -3321.49, -65314.43, -73958.66, 2542.06, -73345.68, -84532.02, -60827.48, -107210.20, 0.000, 0.000, 0.000, 16:54:27.790
92, -10148.59, 96787.97, 81533.04, 114871.35, 133910.75, 101457.98, 112784.98, 175121.00, -3324.78, -65317.18, -73954.59, 2543.11, -73339.36, -84531.95, -60816.41, -107198.11, 0.000, 0.000, 0.000, 16:54:27.790
93, -10149.23, 96804.22, 81549.51, 114884.16, 133951.86, 101483.71, 112784.80, 175080.63, -3324.78, -65317.18, -73954.59, 2543.11, -73339.36, -84531.95, -60816.41, -107198.11, 0.000, 0.000, 0.000, 16:54:27.790
94, -10149.23, 96804.22, 81549.51, 114884.16, 133951.86, 101483.71, 112784.80, 175080.63, -3327.15, -65322.21, -73956.13, 2536.72, -73320.60, -84534.05, -60807.56, -107192.73, 0.356, 0.902, 0.004, 16:54:27.791
95, -10155.60, 96784.16, 81539.05, 114865.21, 133937.81, 101472.29, 112773.87, 175083.08, -3327.15, -65322.21, -73956.13, 2536.72, -73320.60, -84534.05, -60807.56, -107192.73, 0.000, 0.000, 0.000, 16:54:27.791
96, -10155.60, 96784.16, 81539.05, 114865.21, 133937.81, 101472.29, 112773.87, 175083.08, -3320.96, -65335.82, -73961.59, 2525.19, -73339.13, -84565.52, -60814.69, -107205.53, 0.000, 0.000, 0.000, 16:54:27.791
97, -10163.34, 96793.29, 81540.57, 114871.20, 133944.41, 101474.59, 112755.30, 175086.55, -3320.96, -65335.82, -73961.59, 2525.19, -73339.13, -84565.52, -60814.69, -107205.53, 0.000, 0.000, 0.000, 16:54:27.791
98, -10163.34, 96793.29, 81540.57, 114871.20, 133944.41, 101474.59, 112755.30, 175086.55, -3329.16, -65321.07, -73959.59, 2534.82, -73336.80, -84542.30, -60817.66, -107199.90, 0.000, 0.000, 0.000, 16:54:27.791
99, -10157.08, 96782.09, 81530.49, 114871.35, 133922.33, 101457.56, 112772.30, 175111.50, -3329.16, -65321.07, -73959.59, 2534.82, -73336.80, -84542.30, -60817.66, -107199.90, 0.000, 0.000, 0.000, 16:54:27.791
100, -10157.08, 96782.09, 81530.49, 114871.35, 133922.33, 101457.56, 112772.30, 175111.50, -3321.22, -65325.21, -73966.34, 2528.03, -73339.38, -84537.94, -60821.84, -107208.35, 0.000, 0.000, 0.000, 16:54:27.792
101, -10154.73, 96776.10, 81536.70, 114867.91, 133955.44, 101429.53, 112804.53, 175127.86, -3321.22, -65325.21, -73966.34, 2528.03, -73339.38, -84537.94, -60821.84, -107208.35, 0.000, 0.000, 0.000, 16:54:27.792
102, -10154.73, 96776.10, 81536.70, 114867.91, 133955.44, 101429.53, 112804.53, 175127.86, -3322.83, -65319.77, -73962.26, 2534.49, -73329.88, -84527.19, -60803.09, -107196.99, 0.000, 0.000, 0.000, 16:54:27.792
103, -10148.16, 96778.91, 81542.91, 114873.55, 133963.16, 101461.74, 112820.80, 175145.92, -3322.83, -65319.77, -73962.26, 2534.49, -73329.88, -84527.19, -60803.09, -107196.99, 0.000, 0.000, 0.000, 16:54:27.792
104, -10148.16, 96778.91, 81542.91, 114873.55, 133963.16, 101461.74, 112820.80, 175145.92, -3317.36, -65325.45, -73973.01, 2527.31, -73347.85, -84553.18, -60799.22, -107192.52, 0.356, 0.906, 0.008, 16:54:27.792
105, -10156.05, 96783.32, 81539.81, 114869.79, 133951.14, 101453.63, 112812.07, 175133.02, -3317.36, -65325.45, -73973.01, 2527.31, -73347.85, -84553.18, -60799.22, -107192.52, 0.000, 0.000, 0.000, 16:54:27.792
106, -10156.05, 96783.32, 81539.81, 114869.79, 133951.14, 101453.63, 112812.07, 175133.02, -3335.89, -65314.90, -73957.85, 2539.96, -73316.24, -84539.80, -60798.33, -107194.49, 0.000, 0.000, 0.000, 16:54:27.793
107, -10153.59, 96786.96, 81544.52, 114880.23, 133970.27, 101448.64, 112808.13, 175117.27, -3335.89, -65314.90, -73957.85, 2539.96, -73316.24, -84539.80, -60798.33, -107194.49, 0.000, 0.000, 0.000, 16:54:27.793
108, -10153.59, 96786.96, 81544.52, 114880.23, 133970.27, 101448.64, 112808.13, 175117.27, -3328.89, -65309.31, -73958.68, 2540.88, -73329.08, -84529.91, -60806.76, -107191.09, 0.000, 0.000, 0.000, 16:54:27.793
109, -10146.95, 96788.84, 81542.36, 114881.93, 133952.13, 101434.16, 112797.85, 175098.11, -3328.89, -65309.31, -73958.68, 2540.88, -73329.08, -84529.91, -60806.76, -107191.09, 0.000, 0.000, 0.000, 16:54:27.793
110, -10146.95, 96788.84, 81542.36, 114881.93, 133952.13, 101434.16, 112797.85, 175098.11, -3317.00, -65301.47, -73946.30, 2549.80, -73322.50, -84527.59, -60810.22, -107190.02, 0.000, 0.000, 0.000, 16:54:27.793
111, -10141.05, 96790.13, 81554.61, 114891.98, 133949.55, 101441.06, 112792.51, 175101.19, -3317.00, -65301.47, -73946.30, 2549.80, -73322.50, -84527.59, -60810.22, -107190.02, 0.000, 0.000, 0.000, 16:54:27.793
112, -10141.05, 96790.13, 81554.61, 114891.98, 133949.55, 101441.06, 112792.51, 175101.19, -3314.99, -65302.32, -73942.45, 2550.56, -73329.77, -84535.86, -60819.81, -107196.88, 0.000, 0.000, 0.000, 16:54:27.794
113, -10151.42, 96789.17, 81553.51, 114891.47, 133935.78, 101427.95, 112783.52, 175093.91, -3314.99, -65302.32, -73942.45, 2550.56, -73329.77, -84535.86, -60819.81, -107196.88, 0.000, 0.000, 0.000, 16:54:27.794
114, -10151.42, 96789.17, 81553.51, 114891.47, 133935.78, 101427.95, 112783.52, 175093.91, -3317.49, -65300.55, -73939.92, 2554.16, -73342.89, -84530.47, -60816.52, -107193.98, 0.352, 0.912, 0.016, 16:54:27.794
115, -10151.31, 96790.18, 81553.35, 114890.29, 133928.58, 101421.10, 112868.70, 175103.30, -3317.49, -65300.55, -73939.92, 2554.16, -73342.89, -84530.47, -60816.52, -107193.98, 0.000, 0.000, 0.000, 16:54:27.795
116, -10151.31, 96790.18, 81553.35, 114890.29, 133928.58, 101421.10, 112868.70, 175103.30, -3325.11, -65309.56, -73946.70, 2544.90, -73324.27, -84538.14, -60816.73, -107199.84, 0.000, 0.000, 0.000, 16:54:27.795
117, -10149.23, 96789.73, 81550.94, 114881.44, 133961.52, 101422.36, 112855.38, 175090.84, -3325.11, -65309.56, -73946.70, 2544.90, -73324.27, -84538.14, -60816.73, -107199.84, 0.000, 0.000, 0.000, 16:54:27.795
118, -10149.23, 96789.73, 81550.94, 114881.44, 133961.52, 101422.36, 112855.38, 175090.84, -3309.24, -65304.93, -73948.66, 2539.83, -73327.71, -84529.40, -60823.77, -107201.58, 0.000, 0.000, 0.000, 16:54:27.796
119, -10140.76, 96789.20, 81539.14, 114876.01, 133937.86, 101421.20, 112855.01, 175089.97, -3309.24, -65304.93, -73948.66, 2539.83, -73327.71, -84529.40, -60823.77, -107201.58, 0.000, 0.000, 0.000, 16:54:27.796
120, -10140.76, 96789.20, 81539.14, 114876.01, 133937.86, 101421.20, 112855.01, 175089.97, -3305.51, -65309.29, -73945.85, 2540.28, -73320.38, -84524.30, -60822.11, -107200.55, 0.000, 0.000, 0.000, 16:54:27.796
121, -10146.53, 96784.52, 81539.36, 114878.53, 133946.17, 101418.02, 112861.58, 175100.47, -3305.51, -65309.29, -73945.85, 2540.28, -73320.38, -84524.30, -60822.11, -107200.55, 0.000, 0.000, 0.000, 16:54:27.796
122, -10146.53, 96784.52, 81539.36, 114878.53, 133946.17, 101418.02, 112861.58, 175100.47, -3302.85, -65314.84, -73956.65, 2533.06, -73330.69, -84533.13, -60822.67, -107209.29, 0.000, 0.000, 0.000, 16:54:27.796
123, -10147.71, 96785.11, 81534.29, 114874.62, 133938.05, 101415.34, 112853.71, 175123.16, -3302.85, -65314.84, -73956.65, 2533.06, -73330.69, -84533.13, -60822.67, -107209.29, 0.356, 0.912, 0.008, 16:54:27.796
124, -10147.71, 96785.11, 81534.29, 114874.62, 133938.05, 101415.34, 112853.71, 175123.16, -3309.15, -65316.96, -73953.91, 2534.04, -73322.26, -84538.27, -60810.71, -107204.10, 0.000, 0.000, 0.000, 16:54:27.797
125, -10154.17, 96772.70, 81532.92, 114868.45, 133950.02, 101398.64, 112859.66, 175136.17, -3309.15, -65316.96, -73953.91, 2534.04, -73322.26, -84538.27, -60810.71, -107204.10, 0.000, 0.000, 0.000, 16:54:27.797
126, -10154.17, 96772.70, 81532.92, 114868.45, 133950.02, 101398.64, 112859.66, 175136.17, -3328.62, -65329.34, -73966.66, 2521.46, -73331.40, -84550.55, -60814.45, -107214.66, 0.000, 0.000, 0.000, 16:54:27.797
127, -10163.92, 96770.13, 81524.77, 114870.13, 133948.28, 101409.33, 112851.61, 175120.69, -3328.62, -65329.34, -73966.66, 2521.46, -73331.40, -84550.55, -60814.45, -107214.66, 0.000, 0.000, 0.000, 16:54:27.797
128, -10163.92, 96770.13, 81524.77, 114870.13, 133948.28, 101409.33, 112851.61, 175120.69, -3337.34, -65323.42, -73970.84, 2525.23, -73340.32, -84527.55, -60808.07, -107202.52, 0.000, 0.000, 0.000, 16:54:28.253
129, -10145.34, 96778.24, 81520.88, 114869.34, 133962.58, 101411.47, 112854.20, 175128.97, -3337.34, -65323.42, -73970.84, 2525.23, -73340.32, -84527.55, -60808.07, -107202.52, 0.000, 0.000, 0.000, 16:54:28.253
130, -10145.34, 96778.24, 81520.88, 114869.34, 133962.58, 101411.47, 112854.20, 175128.97, -3335.89, -65319.55, -73963.33, 2529.86, -73326.84, -84533.20, -60804.34, -107203.09, 0.000, 0.000, 0.000, 16:54:28.253
131, -10117.90, 96782.71, 81533.70, 114876.98, 133975.06, 101407.85, 112875.10, 175129.72, -3335.89, -65319.55, -73963.33, 2529.86, -73326.84, -84533.20, -60804.34, -107203.09, 0.000, 0.000, 0.000, 16:54:28.254
132, -10117.90, 96782.71, 81533.70, 114876.98, 133975.06, 101407.85, 112875.10, 175129.72, -3331.37, -65321.25, -73954.68, 2535.54, -73319.76, -84547.52, -60803.34, -107209.11, 0.000, 0.000, 0.000, 16:54:28.254
133, -10102.63, 96787.30, 81531.49, 114872.96, 133963.64, 101388.83, 112868.51, 175138.34, -3331.37, -65321.25, -73954.68, 2535.54, -73319.76, -84547.52, -60803.34, -107209.11, 0.350, 0.904, 0.006, 16:54:28.254
134, -10102.63, 96787.30, 81531.49, 114872.96, 133963.64, 101388.83, 112868.51, 175138.34, -3337.94, -65323.04, -73955.88, 2535.16, -73353.77, -84536.95, -60816.28, -107217.23, 0.000, 0.000, 0.000, 16:54:28.254
135, -10096.06, 96796.62, 81526.78, 114874.57, 133941.50, 101384.88, 112841.93, 175128.59, -3337.94, -65323.04, -73955.88, 2535.16, -73353.77, -84536.95, -60816.28, -107217.23, 0.000, 0.000, 0.000, 16:54:28.254
136, -10096.06, 96796.62, 81526.78, 114874.57, 133941.50, 101384.88, 112841.93, 175128.59, -3325.00, -65315.33, -73941.89, 2547.92, -73325.55, -84514.76, -60817.75, -107210.30, 0.000, 0.000, 0.000, 16:54:28.254
137, -10068.30, 96808.66, 81551.61, 114896.45, 133959.67, 101391.38, 112829.14, 175126.31, -3325.00, -65315.33, -73941.89, 2547.92, -73325.55, -84514.76, -60817.75, -107210.30, 0.000, 0.000, 0.000, 16:54:28.255
138, -10068.30, 96808.66, 81551.61, 114896.45, 133959.67, 101391.38, 112829.14, 175126.31, -3321.49, -65312.09, -73928.34, 2560.73, -73305.27, -84514.96, -60814.91, -107212.75, 0.000, 0.000, 0.000, 16:54:28.255
139, -10065.01, 96809.60, 81550.63, 114894.20, 133951.72, 101370.50, 112820.96, 175118.00, -3321.49, -65312.09, -73928.34, 2560.73, -73305.27, -84514.96, -60814.91, -107212.75, 0.000, 0.000, 0.000, 16:54:28.255
140, -10065.01, 96809.60, 81550.63, 114894.20, 133951.72, 101370.50, 112820.96, 175118.00, -3334.75, -65314.50, -73936.28, 2552.81, -73326.15, -84534.49, -60830.61, -107232.00, 0.000, 0.000, 0.000, 16:54:28.255
141, -10057.77, 96798.09, 81535.95, 114883.54, 133936.78, 101354.27, 112821.81, 175119.67, -3334.75, -65314.50, -73936.28, 2552.81, -73326.15, -84534.49, -60830.61, -107232.00, 0.000, 0.000, 0.000, 16:54:28.255
142, -10057.77, 96798.09, 81535.95, 114883.54, 133936.78, 101354.27, 112821.81, 175119.67, -3324.62, -65319.37, -73937.58, 2551.85, -73328.00, -84532.06, -60834.16, -107223.35, 0.000, 0.000, 0.000, 16:54:28.256
143, -10043.02, 96798.00, 81541.64, 114888.86, 133968.59, 101393.97, 112816.73, 175106.31, -3324.62, -65319.37, -73937.58, 2551.85, -73328.00, -84532.06, -60834.16, -107223.35, 0.352, 0.906, 0.008, 16:54:28.256
144, -10043.02, 96798.00, 81541.64, 114888.86, 133968.59, 101393.97, 112816.73, 175106.31, -3324.69, -65332.11, -73945.02, 2540.54, -73323.91, -84553.36, -60835.81, -107232.53, 0.000, 0.000, 0.000, 16:54:28.256
145, -10045.10, 96791.41, 81523.13, 114867.96, 133953.55, 101345.96, 112795.77, 175099.72, -3324.69, -65332.11, -73945.02, 2540.54, -73323.91, -84553.36, -60835.81, -107232.53, 0.000, 0.000, 0.000, 16:54:28.256
146, -10045.10, 96791.41, 81523.13, 114867.96, 133953.55, 101345.96, 112795.77, 175099.72, -3320.55, -65330.70, -73949.70, 2537.97, -73325.16, -84536.24, -60837.29, -107235.33, 0.000, 0.000, 0.000, 16:54:28.256
147, -10041.74, 96774.16, 81536.92, 114884.41, 133960.06, 101388.16, 112813.50, 175123.66, -3320.55, -65330.70, -73949.70, 2537.97, -73325.16, -84536.24, -60837.29, -107235.33, 0.000, 0.000, 0.000, 16:54:28.256
148, -10041.74, 96774.16, 81536.92, 114884.41, 133960.06, 101388.16, 112813.50, 175123.66, -3329.76, -65328.63, -73941.16, 2545.39, -73317.50, -84532.73, -60820.44, -107216.42, 0.000, 0.000, 0.000, 16:54:28.257
149, -10045.70, 96762.93, 81541.87, 114889.46, 133960.14, 101388.83, 112829.14, 175153.73, -3329.76, -65328.63, -73941.16, 2545.39, -73317.50, -84532.73, -60820.44, -107216.42, 0.000, 0.000, 0.000, 16:54:28.257
150, -10045.70, 96762.93, 81541.87, 114889.46, 133960.14, 101388.83, 112829.14, 175153.73, -3330.77, -65323.69, -73949.65, 2542.26, -73330.33, -84497.95, -60814.13, -107212.53, 0.000, 0.000, 0.000, 16:54:28.257
151, -10044.67, 96746.66, 81528.72, 114878.77, 133970.14, 101383.80, 112815.76, 175121.47, -3330.77, -65323.69, -73949.65, 2542.26, -73330.33, -84497.95, -60814.13, -107212.53, 0.000, 0.000, 0.000, 16:54:28.257
152, -10044.67, 96746.66, 81528.72, 114878.77, 133970.14, 101383.80, 112815.76, 175121.47, -3347.93, -65337.16, -73950.05, 2536.10, -73323.51, -84527.97, -60815.54, -107221.70, 0.000, 0.000, 0.000, 16:54:28.257
153, -10058.11, 96755.65, 81537.15, 114883.18, 133977.94, 101373.34, 112828.34, 175135.03, -3347.93, -65337.16, -73950.05, 2536.10, -73323.51, -84527.97, -60815.54, -107221.70, 0.362, 0.906, 0.006, 16:54:28.257
154, -10058.11, 96755.65, 81537.15, 114883.18, 133977.94, 101373.34, 112828.34, 175135.03, -3343.15, -65333.99, -73950.61, 2537.06, -73322.13, -84505.15, -60811.18, -107218.70, 0.000, 0.000, 0.000, 16:54:28.258
155, -10058.87, 96764.03, 81529.75, 114878.13, 133984.31, 101371.33, 112831.06, 175142.41, -3343.15, -65333.99, -73950.61, 2537.06, -73322.13, -84505.15, -60811.18, -107218.70, 0.000, 0.000, 0.000, 16:54:28.258
156, -10058.87, 96764.03, 81529.75, 114878.13, 133984.31, 101371.33, 112831.06, 175142.41, -3344.63, -65341.88, -73955.13, 2531.40, -73323.87, -84525.35, -60814.07, -107224.89, 0.000, 0.000, 0.000, 16:54:28.258
157, -10064.99, 96750.75, 81528.19, 114872.49, 133982.67, 101355.21, 112824.16, 175133.69, -3344.63, -65341.88, -73955.13, 2531.40, -73323.87, -84525.35, -60814.07, -107224.89, 0.000, 0.000, 0.000, 16:54:28.258
158, -10064.99, 96750.75, 81528.19, 114872.49, 133982.67, 101355.21, 112824.16, 175133.69, -3347.20, -65349.99, -73956.82, 2527.80, -73322.15, -84539.91, -60812.01, -107229.36, 0.000, 0.000, 0.000, 16:54:28.258
159, -10059.54, 96754.20, 81525.48, 114867.66, 133975.92, 101334.60, 112815.98, 175134.36, -3347.20, -65349.99, -73956.82, 2527.80, -73322.15, -84539.91, -60812.01, -107229.36, 0.000, 0.000, 0.000, 16:54:28.258
160, -10059.54, 96754.20, 81525.48, 114867.66, 133975.92, 101334.60, 112815.98, 175134.36, -3358.39, -65344.65, -73952.60, 2532.99, -73337.93, -84541.52, -60818.54, -107230.73, 0.000, 0.000, 0.000, 16:54:28.259
161, -10053.97, 96758.09, 81534.91, 114873.63, 133982.83, 101335.70, 112804.96, 175119.77, -3358.39, -65344.65, -73952.60, 2532.99, -73337.93, -84541.52, -60818.54, -107230.73, 0.000, 0.000, 0.000, 16:54:28.259
162, -10053.97, 96758.09, 81534.91, 114873.63, 133982.83, 101335.70, 112804.96, 175119.77, -3361.61, -65342.82, -73936.30, 2543.63, -73316.89, -84529.42, -60818.69, -107221.05, 0.000, 0.000, 0.000, 16:54:28.259
163, -10060.79, 96771.59, 81550.88, 114884.86, 133983.69, 101343.16, 112800.27, 175117.22, -3361.61, -65342.82, -73936.30, 2543.63, -73316.89, -84529.42, -60818.69, -107221.05, 0.358, 0.916, 0.006, 16:54:28.259
164, -10060.79, 96771.59, 81550.88, 114884.86, 133983.69, 101343.16, 112800.27, 175117.22, -3362.22, -65347.16, -73938.59, 2538.35, -73317.02, -84537.65, -60825.20, -107227.22, 0.000, 0.000, 0.000, 16:54:28.259
165, -10047.33, 96755.85, 81535.18, 114866.08, 133965.22, 101323.90, 112768.81, 175118.05, -3362.22, -65347.16, -73938.59, 2538.35, -73317.02, -84537.65, -60825.20, -107227.22, 0.000, 0.000, 0.000, 16:54:28.259
166, -10047.33, 96755.85, 81535.18, 114866.08, 133965.22, 101323.90, 112768.81, 175118.05, -3347.40, -65353.68, -73940.53, 2534.13, -73323.82, -84540.30, -60835.52, -107240.63, 0.000, 0.000, 0.000, 16:54:28.260
167, -10047.78, 96764.05, 81534.91, 114867.80, 133954.98, 101321.30, 112758.78, 175109.42, -3347.40, -65353.68, -73940.53, 2534.13, -73323.82, -84540.30, -60835.52, -107240.63, 0.000, 0.000, 0.000, 16:54:28.260
168, -10047.78, 96764.05, 81534.91, 114867.80, 133954.98, 101321.30, 112758.78, 175109.42, -3356.85, -65361.77, -73944.40, 2528.56, -73331.20, -84550.05, -60849.80, -107255.16, 0.000, 0.000, 0.000, 16:54:28.260
169, -10039.38, 96748.54, 81529.02, 114856.88, 133947.14, 101304.27, 112761.62, 175125.59, -3356.85, -65361.77, -73944.40, 2528.56, -73331.20, -84550.05, -60849.80, -107255.16, 0.000, 0.000, 0.000, 16:54:28.260
170, -10039.38, 96748.54, 81529.02, 114856.88, 133947.14, 101304.27, 112761.62, 175125.59, -3348.69, -65359.40, -73938.48, 2528.43, -73334.33, -84555.35, -60847.93, -107261.16, 0.000, 0.000, 0.000, 16:54:28.260
171, -10034.64, 96749.81, 81528.86, 114862.10, 133964.77, 101314.66, 112759.95, 175099.38, -3348.69, -65359.40, -73938.48, 2528.43, -73334.33, -84555.35, -60847.93, -107261.16, 0.000, 0.000, 0.000, 16:54:28.260
172, -10034.64, 96749.81, 81528.86, 114862.10, 133964.77, 101314.66, 112759.95, 175099.38, -3350.19, -65356.30, -73937.71, 2531.67, -73316.52, -84526.12, -60845.56, -107242.55, 0.364, 0.906, 0.008, 16:54:28.261
173, -10033.23, 96729.79, 81524.92, 114866.84, 133962.73, 101335.07, 112761.87, 175095.63, -3350.19, -65356.30, -73937.71, 2531.67, -73316.52, -84526.12, -60845.56, -107242.55, 0.000, 0.000, 0.000, 16:54:28.261
174, -10033.23, 96729.79, 81524.92, 114866.84, 133962.73, 101335.07, 112761.87, 175095.63, -3362.19, -65353.88, -73943.14, 2532.88, -73327.45, -84531.59, -60839.23, -107236.70, 0.000, 0.000, 0.000, 16:54:28.261
175, -10026.84, 96730.84, 81535.18, 114881.52, 133978.36, 101340.28, 112772.21, 175119.56, -3362.19, -65353.88, -73943.14, 2532.88, -73327.45, -84531.59, -60839.23, -107236.70, 0.000, 0.000, 0.000, 16:54:28.261
176, -10026.84, 96730.84, 81535.18, 114881.52, 133978.36, 101340.28, 112772.21, 175119.56, -3358.57, -65347.36, -73940.64, 2538.31, -73314.81, -84537.11, -60823.81, -107222.90, 0.000, 0.000, 0.000, 16:54:28.261
177, -10029.81, 96737.61, 81533.62, 114877.59, 133981.31, 101337.55, 112773.33, 175145.92, -3358.57, -65347.36, -73940.64, 2538.31, -73314.81, -84537.11, -60823.81, -107222.90, 0.000, 0.000, 0.000, 16:54:28.262
178, -10029.81, 96737.61, 81533.62, 114877.59, 133981.31, 101337.55, 112773.33, 175145.92, -3359.27, -65342.15, -73943.66, 2538.29, -73326.46, -84519.54, -60827.21, -107226.32, 0.000, 0.000, 0.000, 16:54:28.262
179, -10022.05, 96748.34, 81535.74, 114886.53, 133990.28, 101331.70, 112776.64, 175147.30, -3359.27, -65342.15, -73943.66, 2538.29, -73326.46, -84519.54, -60827.21, -107226.32, 0.000, 0.000, 0.000, 16:54:28.262
180, -10022.05, 96748.34, 81535.74, 114886.53, 133990.28, 101331.70, 112776.64, 175147.30, -3356.49, -65340.41, -73941.65, 2540.21, -73325.77, -84502.55, -60820.91, -107220.60, 0.000, 0.000, 0.000, 16:54:28.262
181, -10022.50, 96739.66, 81526.73, 114873.44, 133989.11, 101316.07, 112773.27, 175153.63, -3356.49, -65340.41, -73941.65, 2540.21, -73325.77, -84502.55, -60820.91, -107220.60, 0.000, 0.000, 0.000, 16:54:28.262
182, -10022.50, 96739.66, 81526.73, 114873.44, 133989.11, 101316.07, 112773.27, 175153.63, -3352.52, -65360.41, -73963.46, 2518.71, -73342.15, -84531.34, -60827.43, -107241.12, 0.360, 0.908, 0.006, 16:54:28.263
183, -10040.74, 96722.92, 81513.88, 114858.01, 133974.73, 101299.55, 112760.48, 175144.31, -3352.52, -65360.41, -73963.46, 2518.71, -73342.15, -84531.34, -60827.43, -107241.12, 0.000, 0.000, 0.000, 16:54:28.263
184, -10040.74, 96722.92, 81513.88, 114858.01, 133974.73, 101299.55, 112760.48, 175144.31, -3377.42, -65370.56, -73967.35, 2511.55, -73339.85, -84551.44, -60831.72, -107241.99, 0.000, 0.000, 0.000, 16:54:28.263
185, -10049.10, 96729.07, 81522.80, 114861.90, 133988.16, 101307.29, 112759.18, 175134.06, -3377.42, -65370.56, -73967.35, 2511.55, -73339.85, -84551.44, -60831.72, -107241.99, 0.000, 0.000, 0.000, 16:54:28.263
186, -10049.10, 96729.07, 81522.80, 114861.90, 133988.16, 101307.29, 112759.18, 175134.06, -3375.81, -65363.11, -73960.51, 2518.53, -73333.03, -84543.01, -60820.55, -107229.61, 0.000, 0.000, 0.000, 16:54:28.263
187, -10039.20, 96737.52, 81532.84, 114876.43, 133989.47, 101325.95, 112763.41, 175146.94, -3375.81, -65363.11, -73960.51, 2518.53, -73333.03, -84543.01, -60820.55, -107229.61, 0.000, 0.000, 0.000, 16:54:28.264
188, -10039.20, 96737.52, 81532.84, 114876.43, 133989.47, 101325.95, 112763.41, 175146.94, -3377.86, -65345.79, -73942.32, 2538.87, -73321.37, -84517.30, -60815.41, -107203.03, 0.000, 0.000, 0.000, 16:54:28.264
189, -10036.09, 96746.48, 81542.63, 114892.63, 133976.52, 101325.28, 112760.52, 175158.23, -3377.86, -65345.79, -73942.32, 2538.87, -73321.37, -84517.30, -60815.41, -107203.03, 0.000, 0.000, 0.000, 16:54:28.264
190, -10036.09, 96746.48, 81542.63, 114892.63, 133976.52, 101325.28, 112760.52, 175158.23, -3368.54, -65352.21, -73942.98, 2535.40, -73323.84, -84519.79, -60828.04, -107215.64, 0.000, 0.000, 0.000, 16:54:28.264
191, -10028.74, 96748.52, 81531.34, 114881.55, 133972.53, 101314.76, 112734.95, 175150.83, -3368.54, -65352.21, -73942.98, 2535.40, -73323.84, -84519.79, -60828.04, -107215.64, 0.000, 0.000, 0.000, 16:54:28.264
192, -10028.74, 96748.52, 81531.34, 114881.55, 133972.53, 101314.76, 112734.95, 175150.83, -3365.66, -65348.61, -73946.34, 2534.15, -73327.58, -84520.37, -60840.39, -107228.87, 0.360, 0.910, 0.004, 16:54:28.264
193, -10011.79, 96735.66, 81528.97, 114871.94, 133963.33, 101312.14, 112739.00, 175157.30, -3365.66, -65348.61, -73946.34, 2534.15, -73327.58, -84520.37, -60840.39, -107228.87, 0.000, 0.000, 0.000, 16:54:28.265
194, -10011.79, 96735.66, 81528.97, 114871.94, 133963.33, 101312.14, 112739.00, 175157.30, -3376.34, -65356.79, -73949.23, 2528.61, -73326.52, -84528.33, -60847.50, -107242.55, 0.000, 0.000, 0.000, 16:54:28.265
195, -10017.72, 96742.19, 81527.94, 114868.98, 133969.33, 101307.71, 112742.95, 175158.64, -3376.34, -65356.79, -73949.23, 2528.61, -73326.52, -84528.33, -60847.50, -107242.55, 0.000, 0.000, 0.000, 16:54:28.265
196, -10017.72, 96742.19, 81527.94, 114868.98, 133969.33, 101307.71, 112742.95, 175158.64, -3373.08, -65351.34, -73949.88, 2529.52, -73326.77, -84530.27, -60847.05, -107249.57, 0.000, 0.000, 0.000, 16:54:28.265
197, -10023.04, 96744.60, 81520.59, 114862.80, 133959.98, 101294.93, 112729.97, 175163.86, -3373.08, -65351.34, -73949.88, 2529.52, -73326.77, -84530.27, -60847.05, -107249.57, 0.000, 0.000, 0.000, 16:54:28.265
198, -10023.04, 96744.60, 81520.59, 114862.80, 133959.98, 101294.93, 112729.97, 175163.86, -3379.18, -65354.89, -73951.98, 2528.47, -73338.09, -84532.71, -60848.91, -107255.20, 0.000, 0.000, 0.000, 16:54:28.265
199, -10019.26, 96751.35, 81534.73, 114876.95, 133969.25, 101298.10, 112729.30, 175171.13, -3379.18, -65354.89, -73951.98, 2528.47, -73338.09, -84532.71, -60848.91, -107255.20, 0.000, 0.000, 0.000, 16:54:28.266
200, -10019.26, 96751.35, 81534.73, 114876.95, 133969.25, 101298.10, 112729.30, 175171.13, -3371.76, -65340.79, -73930.70, 2546.62, -73313.02, -84530.20, -60831.63, -107234.73, 0.000, 0.000, 0.000, 16:54:28.266
201, -10009.25, 96766.45, 81549.60, 114895.07, 133978.47, 101305.19, 112742.02, 175187.02, -3371.76, -65340.79, -73930.70, 2546.62, -73313.02, -84530.20, -60831.63, -107234.73, 0.000, 0.000, 0.000, 16:54:28.266
202, -10009.25, 96766.45, 81549.60, 114895.07, 133978.47, 101305.19, 112742.02, 175187.02, -3376.14, -65343.71, -73926.60, 2554.00, -73310.27, -84491.55, -60818.27, -107221.74, 0.358, 0.902, 0.008, 16:54:28.266
203, -10000.75, 96758.82, 81549.73, 114895.02, 133992.92, 101302.91, 112755.23, 175216.69, -3376.14, -65343.71, -73926.60, 2554.00, -73310.27, -84491.55, -60818.27, -107221.74, 0.000, 0.000, 0.000, 16:54:28.266
204, -10000.75, 96758.82, 81549.73, 114895.02, 133992.92, 101302.91, 112755.23, 175216.69, -3372.39, -65409.72, -73930.65, 2550.22, -73314.03, -84505.70, -60807.27, -107221.63, 0.000, 0.000, 0.000, 16:54:28.267
205, -10005.33, 96760.25, 81547.14, 114888.95, 134001.23, 101291.17, 112768.64, 175234.03, -3372.39, -65409.72, -73930.65, 2550.22, -73314.03, -84505.70, -60807.27, -107221.63, 0.000, 0.000, 0.000, 16:54:28.267
206, -10005.33, 96760.25, 81547.14, 114888.95, 134001.23, 101291.17, 112768.64, 175234.03, -3376.68, -65437.57, -73930.13, 2551.21, -73313.72, -84509.51, -60804.86, -107214.01, 0.000, 0.000, 0.000, 16:54:28.267
207, -10008.19, 96756.79, 81546.98, 114895.43, 134011.17, 101312.34, 112779.59, 175227.25, -3376.68, -65437.57, -73930.13, 2551.21, -73313.72, -84509.51, -60804.86, -107214.01, 0.000, 0.000, 0.000, 16:54:28.267
208, -10008.19, 96756.79, 81546.98, 114895.43, 134011.17, 101312.34, 112779.59, 175227.25, -3380.37, -65447.87, -73939.30, 2544.75, -73317.16, -84512.95, -60796.25, -107213.11, 0.000, 0.000, 0.000, 16:54:28.267
209, -10017.58, 96745.99, 81540.21, 114888.07, 134025.25, 101297.41, 112774.76, 175229.92, -3380.37, -65447.87, -73939.30, 2544.75, -73317.16, -84512.95, -60796.25, -107213.11, 0.000, 0.000, 0.000, 16:54:28.268
210, -10017.58, 96745.99, 81540.21, 114888.07, 134025.25, 101297.41, 112774.76, 175229.92, -3397.89, -65450.62, -73942.79, 2542.58, -73323.71, -84524.82, -60802.75, -107210.67, 0.000, 0.000, 0.000, 16:54:28.268
211, -10016.15, 96741.03, 81537.77, 114891.74, 133978.44, 101321.35, 112781.76, 175219.61, -3397.89, -65450.62, -73942.79, 2542.58, -73323.71, -84524.82, -60802.75, -107210.67, 0.000, 0.000, 0.000, 16:54:28.268
212, -10016.15, 96741.03, 81537.77, 114891.74, 133978.44, 101321.35, 112781.76, 175219.61, -3404.22, -65445.19, -73936.59, 2551.56, -73322.80, -84499.76, -60802.71, -107191.45, 0.358, 0.912, 0.000, 16:54:28.268
213, -10005.00, 96749.43, 81550.76, 114902.60, 134039.52, 101314.93, 112794.27, 175236.78, -3404.22, -65445.19, -73936.59, 2551.56, -73322.80, -84499.76, -60802.71, -107191.45, 0.000, 0.000, 0.000, 16:54:28.268
214, -10005.00, 96749.43, 81550.76, 114902.60, 134039.52, 101314.93, 112794.27, 175236.78, -3398.58, -65437.99, -73927.97, 2557.64, -73308.27, -84498.46, -60807.89, -107191.48, 0.000, 0.000, 0.000, 16:54:28.269
215, -10001.91, 96743.27, 81551.90, 114895.18, 134024.05, 101292.13, 112775.63, 175230.55, -3398.58, -65437.99, -73927.97, 2557.64, -73308.27, -84498.46, -60807.89, -107191.48, 0.000, 0.000, 0.000, 16:54:28.269
216, -10001.91, 96743.27, 81551.90, 114895.18, 134024.05, 101292.13, 112775.63, 175230.55, -3393.22, -65442.93, -73922.54, 2557.75, -73312.00, -84511.14, -60814.51, -107208.73, 0.000, 0.000, 0.000, 16:54:28.269
217, -9997.33, 96745.66, 81556.53, 114893.38, 133999.27, 101297.79, 112778.61, 175230.05, -3393.22, -65442.93, -73922.54, 2557.75, -73312.00, -84511.14, -60814.51, -107208.73, 0.000, 0.000, 0.000, 16:54:28.270
218, -9997.33, 96745.66, 81556.53, 114893.38, 133999.27, 101297.79, 112778.61, 175230.05, -3396.62, -65427.67, -73923.05, 2558.58, -73316.67, -84502.20, -60823.43, -107215.95, 0.000, 0.000, 0.000, 16:54:28.270
219, -10000.97, 96749.59, 81553.84, 114882.24, 133979.97, 101292.80, 112774.34, 175220.23, -3396.62, -65427.67, -73923.05, 2558.58, -73316.67, -84502.20, -60823.43, -107215.95, 0.000, 0.000, 0.000, 16:54:28.270
220, -10000.97, 96749.59, 81553.84, 114882.24, 133979.97, 101292.80, 112774.34, 175220.23, -3402.05, -65418.32, -73920.86, 2559.05, -73316.67, -84510.69, -60830.41, -107224.91, 0.000, 0.000, 0.000, 16:54:28.270
221, -9988.10, 96756.56, 81560.09, 114881.77, 133979.41, 101293.92, 112768.30, 175210.41, -3402.05, -65418.32, -73920.86, 2559.05, -73316.67, -84510.69, -60830.41, -107224.91, 0.358, 0.912, 0.000, 16:54:28.271
222, -9988.10, 96756.56, 81560.09, 114881.77, 133979.41, 101293.92, 112768.30, 175210.41, -3393.93, -65420.92, -73926.05, 2553.13, -73317.50, -84519.05, -60843.41, -107229.41, 0.000, 0.000, 0.000, 16:54:28.271
223, -9996.79, 96754.04, 81555.99, 114872.20, 133963.92, 101282.52, 112745.15, 175208.53, -3393.93, -65420.92, -73926.05, 2553.13, -73317.50, -84519.05, -60843.41, -107229.41, 0.000, 0.000, 0.000, 16:54:28.271
224, -9996.79, 96754.04, 81555.99, 114872.20, 133963.92, 101282.52, 112745.15, 175208.53, -3399.01, -65410.79, -73921.95, 2557.51, -73310.45, -84527.08, -60839.32, -107222.77, 0.000, 0.000, 0.000, 16:54:28.271
225, -9984.61, 96763.49, 81576.94, 114894.04, 133970.16, 101293.09, 112753.86, 175234.50, -3399.01, -65410.79, -73921.95, 2557.51, -73310.45, -84527.08, -60839.32, -107222.77, 0.000, 0.000, 0.000, 16:54:28.272
226, -9984.61, 96763.49, 81576.94, 114894.04, 133970.16, 101293.09, 112753.86, 175234.50, -3383.79, -65380.46, -73902.95, 2579.30, -73294.07, -84486.88, -60823.32, -107187.45, 0.000, 0.000, 0.000, 16:54:28.272
227, -9976.66, 96764.48, 81583.77, 114906.83, 133967.86, 101312.09, 112760.52, 175235.95, -3383.79, -65380.46, -73902.95, 2579.30, -73294.07, -84486.88, -60823.32, -107187.45, 0.000, 0.000, 0.000, 16:54:28.272
228, -9976.66, 96764.48, 81583.77, 114906.83, 133967.86, 101312.09, 112760.52, 175235.95, -3387.45, -65368.34, -73908.41, 2578.72, -73303.75, -84509.20, -60817.08, -107174.42, 0.000, 0.000, 0.000, 16:54:28.272
229, -9991.61, 96757.08, 81588.13, 114907.45, 133970.70, 101301.84, 112765.64, 175241.17, -3387.45, -65368.34, -73908.41, 2578.72, -73303.75, -84509.20, -60817.08, -107174.42, 0.000, 0.000, 0.000, 16:54:28.273
230, -9991.61, 96757.08, 81588.13, 114907.45, 133970.70, 101301.84, 112765.64, 175241.17, -3389.22, -65366.60, -73911.36, 2577.20, -73303.26, -84507.07, -60803.00, -107161.01, 0.000, 0.000, 0.000, 16:54:28.273
231, -9996.44, 96742.39, 81593.88, 114905.27, 133988.20, 101301.68, 112770.65, 175261.45, -3389.22, -65366.60, -73911.36, 2577.20, -73303.26, -84507.07, -60803.00, -107161.01, 0.356, 0.914, 0.004, 16:54:28.273
232, -9996.44, 96742.39, 81593.88, 114905.27, 133988.20, 101301.68, 112770.65, 175261.45, -3366.69, -65371.81, -73921.20, 2564.26, -73305.98, -84497.84, -60790.93, -107162.80, 0.000, 0.000, 0.000, 16:54:28.274
233, -10006.43, 96728.22, 81586.95, 114896.12, 133996.27, 101299.80, 112770.52, 175267.84, -3366.69, -65371.81, -73921.20, 2564.26, -73305.98, -84497.84, -60790.93, -107162.80, 0.000, 0.000, 0.000, 16:54:28.274
234, -10006.43, 96728.22, 81586.95, 114896.12, 133996.27, 101299.80, 112770.52, 175267.84, -3377.91, -65367.34, -73922.85, 2562.36, -73297.67, -84508.19, -60786.06, -107171.63, 0.000, 0.000, 0.000, 16:54:28.274
235, -10004.86, 96729.90, 81595.45, 114899.16, 134010.22, 101296.72, 112781.89, 175262.41, -3377.91, -65367.34, -73922.85, 2562.36, -73297.67, -84508.19, -60786.06, -107171.63, 0.000, 0.000, 0.000, 16:54:28.274
236, -10004.86, 96729.90, 81595.45, 114899.16, 134010.22, 101296.72, 112781.89, 175262.41, -3374.15, -65375.32, -73928.50, 2558.78, -73299.41, -84515.79, -60780.85, -107177.13, 0.000, 0.000, 0.000, 16:54:28.274
237, -10007.57, 96718.45, 81588.24, 114893.53, 133992.83, 101296.02, 112775.79, 175244.31, -3374.15, -65375.32, -73928.50, 2558.78, -73299.41, -84515.79, -60780.85, -107177.13, 0.000, 0.000, 0.000, 16:54:28.275
238, -10007.57, 96718.45, 81588.24, 114893.53, 133992.83, 101296.02, 112775.79, 175244.31, -3373.26, -65375.32, -73932.70, 2552.55, -73304.58, -84519.32, -60791.96, -107181.08, 0.000, 0.000, 0.000, 16:54:28.275
239, -10007.05, 96721.72, 81585.56, 114891.63, 133996.20, 101299.11, 112756.08, 175234.91, -3373.26, -65375.32, -73932.70, 2552.55, -73304.58, -84519.32, -60791.96, -107181.08, 0.000, 0.000, 0.000, 16:54:28.275
240, -10007.05, 96721.72, 81585.56, 114891.63, 133996.20, 101299.11, 112756.08, 175234.91, -3369.03, -65375.03, -73931.70, 2551.07, -73307.05, -84535.86, -60799.98, -107183.49, 0.000, 0.000, 0.000, 16:54:28.275
241, -9998.83, 96723.64, 81589.79, 114893.80, 133985.78, 101287.95, 112747.52, 175247.13, -3369.03, -65375.03, -73931.70, 2551.07, -73307.05, -84535.86, -60799.98, -107183.49, 0.358, 0.916, 0.000, 16:54:28.275
242, -9998.83, 96723.64, 81589.79, 114893.80, 133985.78, 101287.95, 112747.52, 175247.13, -3365.99, -65372.46, -73927.79, 2554.74, -73306.37, -84511.52, -60809.59, -107190.24, 0.000, 0.000, 0.000, 16:54:28.275
243, -10001.82, 96717.60, 81580.00, 114889.02, 133971.41, 101275.52, 112726.37, 175233.69, -3365.99, -65372.46, -73927.79, 2554.74, -73306.37, -84511.52, -60809.59, -107190.24, 0.000, 0.000, 0.000, 16:54:28.276
244, -10001.82, 96717.60, 81580.00, 114889.02, 133971.41, 101275.52, 112726.37, 175233.69, -3367.51, -65364.66, -73930.70, 2553.49, -73311.17, -84521.40, -60820.55, -107200.35, 0.000, 0.000, 0.000, 16:54:28.276
245, -9997.22, 96718.77, 81578.50, 114886.82, 133967.08, 101262.95, 112723.62, 175224.97, -3367.51, -65364.66, -73930.70, 2553.49, -73311.17, -84521.40, -60820.55, -107200.35, 0.000, 0.000, 0.000, 16:54:28.276
246, -9997.22, 96718.77, 81578.50, 114886.82, 133967.08, 101262.95, 112723.62, 175224.97, -3368.85, -65371.83, -73935.55, 2548.61, -73314.73, -84528.48, -60833.96, -107214.25, 0.000, 0.000, 0.000, 16:54:28.276
247, -10006.09, 96708.59, 81573.31, 114881.75, 133963.14, 101260.02, 112707.88, 175228.06, -3368.85, -65371.83, -73935.55, 2548.61, -73314.73, -84528.48, -60833.96, -107214.25, 0.000, 0.000, 0.000, 16:54:28.276
248, -10006.09, 96708.59, 81573.31, 114881.75, 133963.14, 101260.02, 112707.88, 175228.06, -3391.50, -65379.81, -73947.62, 2540.19, -73341.62, -84532.73, -60849.18, -107219.50, 0.000, 0.000, 0.000, 16:54:28.432
249, -10004.89, 96701.22, 81565.23, 114879.89, 133940.75, 101251.97, 112703.41, 175214.73, -3391.50, -65379.81, -73947.62, 2540.19, -73341.62, -84532.73, -60849.18, -107219.50, 0.000, 0.000, 0.000, 16:54:28.432
250, -10004.89, 96701.22, 81565.23, 114879.89, 133940.75, 101251.97, 112703.41, 175214.73, -3391.27, -65378.67, -73947.10, 2539.20, -73337.77, -84511.27, -60845.45, -107213.85, 0.000, 0.000, 0.000, 16:54:28.432
251, -9999.70, 96696.26, 81568.30, 114883.16, 133945.17, 101245.06, 112708.91, 175245.97, -3391.27, -65378.67, -73947.10, 2539.20, -73337.77, -84511.27, -60845.45, -107213.85, 0.360, 0.906, 0.002, 16:54:28.433
252, -9999.70, 96696.26, 81568.30, 114883.16, 133945.17, 101245.06, 112708.91, 175245.97, -3385.06, -65379.14, -73941.20, 2540.57, -73315.48, -84515.23, -60827.10, -107205.73, 0.000, 0.000, 0.000, 16:54:28.433
253, -10000.68, 96690.18, 81570.09, 114881.66, 133984.06, 101252.75, 112711.48, 175262.53, -3385.06, -65379.14, -73941.20, 2540.57, -73315.48, -84515.23, -60827.10, -107205.73, 0.000, 0.000, 0.000, 16:54:28.433
254, -10000.68, 96690.18, 81570.09, 114881.66, 133984.06, 101252.75, 112711.48, 175262.53, -3396.35, -65385.64, -73949.76, 2534.46, -73328.16, -84531.63, -60825.55, -107204.84, 0.000, 0.000, 0.000, 16:54:28.433
255, -10007.46, 96689.38, 81569.91, 114886.38, 133981.72, 101254.80, 112716.85, 175261.44, -3396.35, -65385.64, -73949.76, 2534.46, -73328.16, -84531.63, -60825.55, -107204.84, 0.000, 0.000, 0.000, 16:54:28.434
0, -10007.46, 96689.38, 81569.91, 114886.38, 133981.72, 101254.80, 112716.85, 175261.44, -3418.59, -65379.43, -73944.87, 2541.44, -73319.87, -84511.70, -60821.71, -107188.66, 0.000, 0.000, 0.000, 16:54:28.434
1, -10012.20, 96685.33, 81579.23, 114895.61, 133987.66, 101296.43, 112730.20, 175259.16, -3418.59, -65379.43, -73944.87, 2541.44, -73319.87, -84511.70, -60821.71, -107188.66, 0.000, 0.000, 0.000, 16:54:28.434
2, -10012.20, 96685.33, 81579.23, 114895.61, 133987.66, 101296.43, 112730.20, 175259.16, -3423.08, -65379.18, -73942.38, 2538.67, -73306.39, -84508.03, -60805.80, -107176.52, 0.000, 0.000, 0.000, 16:54:28.434
3, -10009.83, 96689.55, 81583.64, 114893.13, 134006.23, 101301.16, 112746.80, 175286.22, -3423.08, -65379.18, -73942.38, 2538.67, -73306.39, -84508.03, -60805.80, -107176.52, 0.000, 0.000, 0.000, 16:54:28.435
4, -10009.83, 96689.55, 81583.64, 114893.13, 134006.23, 101301.16, 112746.80, 175286.22, -3411.12, -65395.59, -73953.98, 2521.08, -73315.93, -84528.23, -60804.81, -107184.59, 0.000, 0.000, 0.000, 16:54:28.435
5, -10010.83, 96669.64, 81569.00, 114870.46, 134005.03, 101273.65, 112735.91, 175293.58, -3411.12, -65395.59, -73953.98, 2521.08, -73315.93, -84528.23, -60804.81, -107184.59, 0.356, 0.904, 0.000, 16:54:28.435
6, -10010.83, 96669.64, 81569.00, 114870.46, 134005.03, 101273.65, 112735.91, 175293.58, -3402.78, -65406.05, -73961.23, 2510.68, -73319.13, -84544.15, -60805.82, -107192.75, 0.000, 0.000, 0.000, 16:54:28.436
7, -10023.57, 96671.13, 81565.71, 114867.84, 134000.77, 101261.65, 112723.30, 175274.13, -3402.78, -65406.05, -73961.23, 2510.68, -73319.13, -84544.15, -60805.82, -107192.75, 0.000, 0.000, 0.000, 16:54:28.436
8, -10023.57, 96671.13, 81565.71, 114867.84, 134000.77, 101261.65, 112723.30, 175274.13, -3424.00, -65400.62, -73962.77, 2511.75, -73323.27, -84542.14, -60817.64, -107202.78, 0.000, 0.000, 0.000, 16:54:28.436
9, -10022.39, 96677.53, 81563.41, 114871.58, 133988.56, 101264.09, 112717.14, 175267.44, -3424.00, -65400.62, -73962.77, 2511.75, -73323.27, -84542.14, -60817.64, -107202.78, 0.000, 0.000, 0.000, 16:54:28.436
10, -10022.39, 96677.53, 81563.41, 114871.58, 133988.56, 101264.09, 112717.14, 175267.44, -3418.77, -65397.98, -73960.91, 2517.57, -73333.32, -84511.77, -60817.26, -107201.60, 0.000, 0.000, 0.000, 16:54:28.436
11, -10006.79, 96685.02, 81577.05, 114883.76, 133996.94, 101276.89, 112702.01, 175252.64, -3418.77, -65397.98, -73960.91, 2517.57, -73333.32, -84511.77, -60817.26, -107201.60, 0.000, 0.000, 0.000, 16:54:28.436
12, -10006.79, 96685.02, 81577.05, 114883.76, 133996.94, 101276.89, 112702.01, 175252.64, -3404.04, -65380.41, -73937.65, 2538.40, -73303.66, -84509.30, -60814.60, -107194.23, 0.000, 0.000, 0.000, 16:54:28.437
13, -9994.83, 96696.99, 81590.15, 114894.66, 133992.52, 101279.69, 112701.96, 175249.19, -3404.04, -65380.41, -73937.65, 2538.40, -73303.66, -84509.30, -60814.60, -107194.23, 0.000, 0.000, 0.000, 16:54:28.437
14, -9994.83, 96696.99, 81590.15, 114894.66, 133992.52, 101279.69, 112701.96, 175249.19, -3382.15, -65378.09, -73933.16, 2543.25, -73312.45, -84508.77, -60814.64, -107193.89, 0.000, 0.000, 0.000, 16:54:28.437
15, -9971.78, 96691.52, 81588.83, 114895.05, 133974.86, 101265.34, 112686.54, 175253.88, -3382.15, -65378.09, -73933.16, 2543.25, -73312.45, -84508.77, -60814.64, -107193.89, 0.354, 0.902, 0.000, 16:54:28.437
16, -9971.78, 96691.52, 81588.83, 114895.05, 133974.86, 101265.34, 112686.54, 175253.88, -3374.80, -65377.40, -73929.13, 2550.94, -73305.16, -84508.26, -60819.95, -107199.03, 0.000, 0.000, 0.000, 16:54:28.437
17, -9981.55, 96693.30, 81589.07, 114897.33, 133990.17, 101263.32, 112682.09, 175252.88, -3374.80, -65377.40, -73929.13, 2550.94, -73305.16, -84508.26, -60819.95, -107199.03, 0.000, 0.000, 0.000, 16:54:28.437
18, -9981.55, 96693.30, 81589.07, 114897.33, 133990.17, 101263.32, 112682.09, 175252.88, -3383.81, -65387.57, -73939.48, 2540.63, -73317.43, -84526.94, -60828.19, -107203.34, 0.000, 0.000, 0.000, 16:54:28.437
20, -9981.55, 96693.30, 81589.07, 114897.33, 133990.17, 101263.32, 112682.09, 175252.88, -3376.66, -65394.36, -73937.83, 2537.30, -73318.88, -84523.81, -60826.70, -107206.61, 0.000, 0.000, 0.000, 16:54:28.438
22, -9981.55, 96693.30, 81589.07, 114897.33, 133990.17, 101263.32, 112682.09, 175252.88, -3384.08, -65394.90, -73938.23, 2535.27, -73307.88, -84505.17, -60830.43, -107201.98, 0.000, 0.000, 0.000, 16:54:28.438
23, -10014.39, 96680.39, 81574.59, 114882.87, 133981.31, 101256.33, 112684.44, 175273.81, -3384.08, -65394.90, -73938.23, 2535.27, -73307.88, -84505.17, -60830.43, -107201.98, 0.000, 0.000, 0.000, 16:54:28.438
24, -10014.39, 96680.39, 81574.59, 114882.87, 133981.31, 101256.33, 112684.44, 175273.81, -3385.31, -65407.01, -73946.30, 2527.27, -73315.58, -84521.69, -60827.66, -107205.76, 0.352, 0.896, 0.002, 16:54:28.438
25, -10028.24, 96674.69, 81568.11, 114877.08, 133993.98, 101247.19, 112687.68, 175286.84, -3385.31, -65407.01, -73946.30, 2527.27, -73315.58, -84521.69, -60827.66, -107205.76, 0.000, 0.000, 0.000, 16:54:28.438
26, -10028.24, 96674.69, 81568.11, 114877.08, 133993.98, 101247.19, 112687.68, 175286.84, -3383.09, -65413.68, -73958.68, 2517.01, -73319.30, -84533.89, -60827.52, -107205.27, 0.000, 0.000, 0.000, 16:54:28.439
27, -10035.33, 96651.66, 81550.11, 114863.11, 134004.73, 101253.40, 112706.45, 175300.72, -3383.09, -65413.68, -73958.68, 2517.01, -73319.30, -84533.89, -60827.52, -107205.27, 0.000, 0.000, 0.000, 16:54:28.439
28, -10035.33, 96651.66, 81550.11, 114863.11, 134004.73, 101253.40, 112706.45, 175300.72, -3394.16, -65422.86, -73975.71, 2502.37, -73332.70, -84539.86, -60825.22, -107198.98, 0.000, 0.000, 0.000, 16:54:28.439
29, -10051.40, 96638.68, 81540.50, 114858.48, 134005.92, 101263.14, 112763.98, 175313.58, -3394.16, -65422.86, -73975.71, 2502.37, -73332.70, -84539.86, -60825.22, -107198.98, 0.000, 0.000, 0.000, 16:54:28.439
30, -10051.40, 96638.68, 81540.50, 114858.48, 134005.92, 101263.14, 112763.98, 175313.58, -3406.96, -65429.10, -73987.06, 2491.62, -73340.92, -84533.00, -60833.11, -107202.94, 0.000, 0.000, 0.000, 16:54:28.439
31, -10056.45, 96639.22, 81539.20, 114857.34, 134003.53, 101258.45, 112852.27, 175318.94, -3406.96, -65429.10, -73987.06, 2491.62, -73340.92, -84533.00, -60833.11, -107202.94, 0.000, 0.000, 0.000, 16:54:28.439
32, -10056.45, 96639.22, 81539.20, 114857.34, 134003.53, 101258.45, 112852.27, 175318.94, -3411.81, -65425.88, -73981.61, 2496.02, -73339.60, -84530.79, -60835.14, -107211.84, 0.000, 0.000, 0.000, 16:54:28.440
33, -10051.87, 96639.89, 81534.98, 114853.92, 133986.16, 101246.45, 112788.73, 175319.33, -3411.81, -65425.88, -73981.61, 2496.02, -73339.60, -84530.79, -60835.14, -107211.84, 0.000, 0.000, 0.000, 16:54:28.440
34, -10051.87, 96639.89, 81534.98, 114853.92, 133986.16, 101246.45, 112788.73, 175319.33, -3416.73, -65417.56, -73974.77, 2502.48, -73342.40, -84527.23, -60847.79, -107220.27, 0.360, 0.910, 0.004, 16:54:28.901
35, -10036.00, 96647.60, 81547.61, 114866.39, 133981.94, 101261.94, 112764.84, 175285.56, -3416.73, -65417.56, -73974.77, 2502.48, -73342.40, -84527.23, -60847.79, -107220.27, 0.000, 0.000, 0.000, 16:54:28.901
36, -10036.00, 96647.60, 81547.61, 114866.39, 133981.94, 101261.94, 112764.84, 175285.56, -3418.99, -65410.57, -73964.71, 2511.73, -73327.87, -84530.23, -60846.14, -107213.23, 0.000, 0.000, 0.000, 16:54:28.901
37, -10027.84, 96650.84, 81556.23, 114869.90, 133984.75, 101258.14, 112721.70, 175265.83, -3418.99, -65410.57, -73964.71, 2511.73, -73327.87, -84530.23, -60846.14, -107213.23, 0.000, 0.000, 0.000, 16:54:28.901
38, -10027.84, 96650.84, 81556.23, 114869.90, 133984.75, 101258.14, 112721.70, 175265.83, -3413.49, -65399.70, -73951.05, 2525.99, -73326.30, -84524.64, -60837.80, -107216.51, 0.000, 0.000, 0.000, 16:54:28.901
39, -10015.10, 96665.30, 81575.46, 114879.89, 133989.42, 101244.48, 112708.66, 175272.05, -3413.49, -65399.70, -73951.05, 2525.99, -73326.30, -84524.64, -60837.80, -107216.51, 0.000, 0.000, 0.000, 16:54:28.902
40, -10015.10, 96665.30, 81575.46, 114879.89, 133989.42, 101244.48, 112708.66, 175272.05, -3426.70, -65391.64, -73938.88, 2538.42, -73321.95, -84529.16, -60838.61, -107223.39, 0.000, 0.000, 0.000, 16:54:28.902
41, -10015.10, 96673.35, 81583.82, 114882.40, 133978.77, 101223.25, 112707.62, 175282.17, -3426.70, -65391.64, -73938.88, 2538.42, -73321.95, -84529.16, -60838.61, -107223.39, 0.000, 0.000, 0.000, 16:54:28.902
42, -10015.10, 96673.35, 81583.82, 114882.40, 133978.77, 101223.25, 112707.62, 175282.17, -3411.10, -65384.10, -73922.85, 2551.16, -73305.12, -84517.87, -60829.55, -107214.84, 0.000, 0.000, 0.000, 16:54:28.902
43, -10014.45, 96682.69, 81590.97, 114893.13, 133993.58, 101237.33, 112703.55, 175263.91, -3411.10, -65384.10, -73922.85, 2551.16, -73305.12, -84517.87, -60829.55, -107214.84, 0.000, 0.000, 0.000, 16:54:28.902
44, -10014.45, 96682.69, 81590.97, 114893.13, 133993.58, 101237.33, 112703.55, 175263.91, -3411.17, -65389.63, -73929.17, 2547.16, -73308.69, -84508.32, -60830.65, -107211.62, 0.362, 0.912, 0.008, 16:54:28.902
45, -10007.61, 96672.48, 81584.89, 114893.23, 133991.95, 101232.97, 112705.59, 175290.73, -3411.17, -65389.63, -73929.17, 2547.16, -73308.69, -84508.32, -60830.65, -107211.62, 0.000, 0.000, 0.000, 16:54:28.903
46, -10007.61, 96672.48, 81584.89, 114893.23, 133991.95, 101232.97, 112705.59, 175290.73, -3400.21, -65393.04, -73931.55, 2543.07, -73311.69, -84519.07, -60822.76, -107211.10, 0.000, 0.000, 0.000, 16:54:28.903
47, -9999.05, 96664.66, 81576.51, 114882.48, 133985.61, 101206.46, 112703.99, 175301.44, -3400.21, -65393.04, -73931.55, 2543.07, -73311.69, -84519.07, -60822.76, -107211.10, 0.000, 0.000, 0.000, 16:54:28.903
48, -9999.05, 96664.66, 81576.51, 114882.48, 133985.61, 101206.46, 112703.99, 175301.44, -3409.22, -65401.02, -73937.06, 2532.79, -73315.69, -84524.28, -60829.62, -107224.45, 0.000, 0.000, 0.000, 16:54:28.903
49, -10010.18, 96663.78, 81574.32, 114884.43, 133991.44, 101214.20, 112700.55, 175296.25, -3409.22, -65401.02, -73937.06, 2532.79, -73315.69, -84524.28, -60829.62, -107224.45, 0.000, 0.000, 0.000, 16:54:28.903
50, -10010.18, 96663.78, 81574.32, 114884.43, 133991.44, 101214.20, 112700.55, 175296.25, -3421.60, -65403.71, -73939.19, 2527.45, -73306.34, -84523.23, -60829.98, -107211.48, 0.000, 0.000, 0.000, 16:54:28.903
51, -10015.46, 96646.86, 81569.78, 114882.06, 134013.08, 101225.70, 112703.23, 175302.17, -3421.60, -65403.71, -73939.19, 2527.45, -73306.34, -84523.23, -60829.98, -107211.48, 0.000, 0.000, 0.000, 16:54:28.904
52, -10015.46, 96646.86, 81569.78, 114882.06, 134013.08, 101225.70, 112703.23, 175302.17, -3433.05, -65409.05, -73944.02, 2525.28, -73305.74, -84521.69, -60827.77, -107209.49, 0.000, 0.000, 0.000, 16:54:28.904
53, -10020.22, 96641.23, 81561.71, 114879.73, 134024.88, 101233.10, 112697.00, 175328.16, -3433.05, -65409.05, -73944.02, 2525.28, -73305.74, -84521.69, -60827.77, -107209.49, 0.000, 0.000, 0.000, 16:54:28.904
54, -10020.22, 96641.23, 81561.71, 114879.73, 134024.88, 101233.10, 112697.00, 175328.16, -3453.84, -65416.29, -73954.88, 2516.02, -73307.95, -84526.38, -60833.80, -107207.91, 0.364, 0.908, 0.010, 16:54:28.904
55, -10028.31, 96628.53, 81550.72, 114868.43, 134030.52, 101236.44, 112692.95, 175356.52, -3453.84, -65416.29, -73954.88, 2516.02, -73307.95, -84526.38, -60833.80, -107207.91, 0.000, 0.000, 0.000, 16:54:28.904
56, -10028.31, 96628.53, 81550.72, 114868.43, 134030.52, 101236.44, 112692.95, 175356.52, -3455.60, -65438.66, -73977.99, 2490.10, -73323.89, -84538.12, -60846.14, -107222.19, 0.000, 0.000, 0.000, 16:54:28.904
57, -10049.52, 96601.33, 81528.52, 114841.49, 134008.16, 101206.59, 112672.30, 175354.81, -3455.60, -65438.66, -73977.99, 2490.10, -73323.89, -84538.12, -60846.14, -107222.19, 0.000, 0.000, 0.000, 16:54:28.905
58, -10049.52, 96601.33, 81528.52, 114841.49, 134008.16, 101206.59, 112672.30, 175354.81, -3463.63, -65446.31, -73986.22, 2479.39, -73334.77, -84535.61, -60857.54, -107235.51, 0.000, 0.000, 0.000, 16:54:28.905
59, -10053.43, 96599.92, 81527.54, 114842.21, 134008.25, 101203.89, 112663.98, 175358.91, -3463.63, -65446.31, -73986.22, 2479.39, -73334.77, -84535.61, -60857.54, -107235.51, 0.000, 0.000, 0.000, 16:54:28.905
60, -10053.43, 96599.92, 81527.54, 114842.21, 134008.25, 101203.89, 112663.98, 175358.91, -3458.84, -65444.07, -73981.86, 2481.87, -73335.60, -84547.62, -60856.69, -107238.15, 0.000, 0.000, 0.000, 16:54:28.905
61, -10052.52, 96599.38, 81528.41, 114838.21, 133981.47, 101176.33, 112651.96, 175351.16, -3458.84, -65444.07, -73981.86, 2481.87, -73335.60, -84547.62, -60856.69, -107238.15, 0.000, 0.000, 0.000, 16:54:28.905
62, -10052.52, 96599.38, 81528.41, 114838.21, 133981.47, 101176.33, 112651.96, 175351.16, -3456.61, -65444.95, -73981.61, 2484.51, -73338.89, -84553.27, -60858.39, -107239.11, 0.000, 0.000, 0.000, 16:54:28.906
63, -10051.53, 96630.16, 81546.42, 114860.45, 134018.64, 101208.85, 112628.94, 175294.16, -3456.61, -65444.95, -73981.61, 2484.51, -73338.89, -84553.27, -60858.39, -107239.11, 0.000, 0.000, 0.000, 16:54:28.906
64, -10051.53, 96630.16, 81546.42, 114860.45, 134018.64, 101208.85, 112628.94, 175294.16, -3467.96, -65417.83, -73952.84, 2517.88, -73312.69, -84510.27, -60842.50, -107225.96, 0.360, 0.908, 0.004, 16:54:28.906
65, -10027.06, 96645.45, 81562.90, 114877.23, 134012.42, 101202.99, 112640.56, 175323.50, -3467.96, -65417.83, -73952.84, 2517.88, -73312.69, -84510.27, -60842.50, -107225.96, 0.000, 0.000, 0.000, 16:54:28.906
66, -10027.06, 96645.45, 81562.90, 114877.23, 134012.42, 101202.99, 112640.56, 175323.50, -3454.46, -65416.16, -73942.41, 2529.37, -73318.19, -84511.32, -60841.51, -107228.35, 0.000, 0.000, 0.000, 16:54:28.906
67, -10021.05, 96649.30, 81563.34, 114878.80, 134003.05, 101201.79, 112625.16, 175316.55, -3454.46, -65416.16, -73942.41, 2529.37, -73318.19, -84511.32, -60841.51, -107228.35, 0.000, 0.000, 0.000, 16:54:28.906
68, -10021.05, 96649.30, 81563.34, 114878.80, 134003.05, 101201.79, 112625.16, 175316.55, -3457.41, -65420.38, -73932.35, 2535.78, -73311.95, -84513.33, -60838.77, -107228.67, 0.000, 0.000, 0.000, 16:54:28.907
69, -10009.40, 96666.20, 81578.37, 114888.55, 134013.33, 101208.05, 112626.55, 175320.44, -3457.41, -65420.38, -73932.35, 2535.78, -73311.95, -84513.33, -60838.77, -107228.67, 0.000, 0.000, 0.000, 16:54:28.907
70, -10009.40, 96666.20, 81578.37, 114888.55, 134013.33, 101208.05, 112626.55, 175320.44, -3450.08, -65416.42, -73927.61, 2540.70, -73306.81, -84524.59, -60833.18, -107229.18, 0.000, 0.000, 0.000, 16:54:28.907
71, -10000.08, 96654.95, 81573.65, 114878.64, 133994.44, 101187.66, 112611.10, 175332.33, -3450.08, -65416.42, -73927.61, 2540.70, -73306.81, -84524.59, -60833.18, -107229.18, 0.000, 0.000, 0.000, 16:54:28.907
72, -10000.08, 96654.95, 81573.65, 114878.64, 133994.44, 101187.66, 112611.10, 175332.33, -3447.69, -65416.29, -73922.67, 2543.70, -73309.45, -84539.50, -60836.57, -107231.20, 0.000, 0.000, 0.000, 16:54:28.907
73, -9993.64, 96654.66, 81579.35, 114890.78, 134001.08, 101190.28, 112614.09, 175329.36, -3447.69, -65416.29, -73922.67, 2543.70, -73309.45, -84539.50, -60836.57, -107231.20, 0.360, 0.916, 0.004, 16:54:28.907
74, -9993.64, 96654.66, 81579.35, 114890.78, 134001.08, 101190.28, 112614.09, 175329.36, -3446.57, -65422.55, -73926.41, 2540.25, -73313.43, -84519.72, -60833.04, -107225.18, 0.000, 0.000, 0.000, 16:54:28.907
75, -9995.57, 96641.34, 81572.09, 114885.50, 133999.17, 101174.79, 112611.62, 175334.16, -3446.57, -65422.55, -73926.41, 2540.25, -73313.43, -84519.72, -60833.04, -107225.18, 0.000, 0.000, 0.000, 16:54:28.908
76, -9995.57, 96641.34, 81572.09, 114885.50, 133999.17, 101174.79, 112611.62, 175334.16, -3457.57, -65424.70, -73925.91, 2539.81, -73312.53, -84500.16, -60830.56, -107230.28, 0.000, 0.000, 0.000, 16:54:28.908
77, -10014.97, 96643.91, 81574.88, 114886.24, 134008.19, 101167.23, 112614.70, 175366.89, -3457.57, -65424.70, -73925.91, 2539.81, -73312.53, -84500.16, -60830.56, -107230.28, 0.000, 0.000, 0.000, 16:54:28.908
78, -10014.97, 96643.91, 81574.88, 114886.24, 134008.19, 101167.23, 112614.70, 175366.89, -3462.96, -65436.85, -73933.31, 2532.74, -73316.67, -84518.67, -60828.32, -107233.59, 0.000, 0.000, 0.000, 16:54:28.908
79, -10008.53, 96647.76, 81578.32, 114892.57, 134019.88, 101189.41, 112617.36, 175330.30, -3462.96, -65436.85, -73933.31, 2532.74, -73316.67, -84518.67, -60828.32, -107233.59, 0.000, 0.000, 0.000, 16:54:28.908
80, -10008.53, 96647.76, 81578.32, 114892.57, 134019.88, 101189.41, 112617.36, 175330.30, -3454.60, -65428.49, -73930.56, 2535.92, -73303.98, -84518.47, -60826.09, -107213.54, 0.000, 0.000, 0.000, 16:54:28.909
81, -10000.35, 96645.90, 81573.96, 114893.75, 134028.83, 101200.58, 112622.39, 175346.28, -3454.60, -65428.49, -73930.56, 2535.92, -73303.98, -84518.47, -60826.09, -107213.54, 0.000, 0.000, 0.000, 16:54:28.909
82, -10000.35, 96645.90, 81573.96, 114893.75, 134028.83, 101200.58, 112622.39, 175346.28, -3468.57, -65424.96, -73932.82, 2539.36, -73296.62, -84494.77, -60823.97, -107207.84, 0.000, 0.000, 0.000, 16:54:28.909
83, -10006.70, 96635.95, 81565.63, 114886.13, 134029.75, 101199.95, 112620.27, 175361.59, -3468.57, -65424.96, -73932.82, 2539.36, -73296.62, -84494.77, -60823.97, -107207.84, 0.360, 0.910, 0.004, 16:54:28.909
84, -10006.70, 96635.95, 81565.63, 114886.13, 134029.75, 101199.95, 112620.27, 175361.59, -3492.37, -65452.99, -73956.76, 2514.48, -73312.04, -84526.07, -60835.81, -107222.72, 0.000, 0.000, 0.000, 16:54:28.909
85, -10012.44, 96610.41, 81549.63, 114863.33, 134027.89, 101179.99, 112606.77, 175370.70, -3492.37, -65452.99, -73956.76, 2514.48, -73312.04, -84526.07, -60835.81, -107222.72, 0.000, 0.000, 0.000, 16:54:28.910
86, -10012.44, 96610.41, 81549.63, 114863.33, 134027.89, 101179.99, 112606.77, 175370.70, -3493.13, -65473.78, -73960.40, 2502.10, -73316.11, -84539.44, -60838.41, -107231.75, 0.000, 0.000, 0.000, 16:54:28.910
87, -10020.51, 96615.79, 81554.67, 114867.40, 134033.73, 101176.71, 112602.66, 175371.64, -3493.13, -65473.78, -73960.40, 2502.10, -73316.11, -84539.44, -60838.41, -107231.75, 0.000, 0.000, 0.000, 16:54:28.910
88, -10020.51, 96615.79, 81554.67, 114867.40, 134033.73, 101176.71, 112602.66, 175371.64, -3508.35, -65464.82, -73948.58, 2509.70, -73316.71, -84503.77, -60841.78, -107236.38, 0.000, 0.000, 0.000, 16:54:28.910
89, -10023.50, 96626.81, 81555.88, 114867.66, 134009.70, 101145.82, 112595.68, 175369.39, -3508.35, -65464.82, -73948.58, 2509.70, -73316.71, -84503.77, -60841.78, -107236.38, 0.000, 0.000, 0.000, 16:54:28.910
90, -10023.50, 96626.81, 81555.88, 114867.66, 134009.70, 101145.82, 112595.68, 175369.39, -3513.14, -65458.49, -73945.13, 2517.72, -73331.76, -84523.97, -60845.54, -107251.09, 0.000, 0.000, 0.000, 16:54:28.910
91, -10006.38, 96620.73, 81557.29, 114864.80, 134011.41, 101150.76, 112578.34, 175361.14, -3513.14, -65458.49, -73945.13, 2517.72, -73331.76, -84523.97, -60845.54, -107251.09, 0.000, 0.000, 0.000, 16:54:28.911
92, -10006.38, 96620.73, 81557.29, 114864.80, 134011.41, 101150.76, 112578.34, 175361.14, -3501.83, -65456.77, -73944.30, 2521.28, -73330.75, -84525.80, -60853.70, -107256.72, 0.000, 0.000, 0.000, 16:54:28.911
93, -9957.32, 96630.52, 81570.95, 114870.57, 134008.47, 101141.88, 112567.80, 175350.92, -3501.83, -65456.77, -73944.30, 2521.28, -73330.75, -84525.80, -60853.70, -107256.72, 0.350, 0.908, 0.000, 16:54:28.911
94, -9957.32, 96630.52, 81570.95, 114870.57, 134008.47, 101141.88, 112567.80, 175350.92, -3480.01, -65442.29, -73926.60, 2536.68, -73304.42, -84527.55, -60843.28, -107242.82, 0.000, 0.000, 0.000, 16:54:28.911
95, -9943.62, 96634.79, 81572.91, 114870.41, 134005.36, 101144.10, 112579.77, 175354.25, -3480.01, -65442.29, -73926.60, 2536.68, -73304.42, -84527.55, -60843.28, -107242.82, 0.000, 0.000, 0.000, 16:54:28.911
96, -9943.62, 96634.79, 81572.91, 114870.41, 134005.36, 101144.10, 112579.77, 175354.25, -3486.80, -65449.41, -73928.84, 2530.44, -73316.40, -84526.25, -60850.77, -107247.66, 0.000, 0.000, 0.000, 16:54:28.912
97, -9934.30, 96639.04, 81572.82, 114874.20, 134010.73, 101140.63, 112585.69, 175361.72, -3486.80, -65449.41, -73928.84, 2530.44, -73316.40, -84526.25, -60850.77, -107247.66, 0.000, 0.000, 0.000, 16:54:28.912
98, -9934.30, 96639.04, 81572.82, 114874.20, 134010.73, 101140.63, 112585.69, 175361.72, -3474.31, -65457.42, -73928.50, 2525.43, -73314.93, -84522.80, -60844.24, -107243.58, 0.000, 0.000, 0.000, 16:54:28.912
99, -9933.63, 96627.33, 81562.61, 114860.09, 133999.47, 101122.15, 112587.92, 175367.88, -3474.31, -65457.42, -73928.50, 2525.43, -73314.93, -84522.80, -60844.24, -107243.58, 0.000, 0.000, 0.000, 16:54:28.912
100, -9933.63, 96627.33, 81562.61, 114860.09, 133999.47, 101122.15, 112587.92, 175367.88, -3461.39, -65468.95, -73941.67, 2510.44, -73332.14, -84552.09, -60853.32, -107258.93, 0.000, 0.000, 0.000, 16:54:28.913
101, -9944.54, 96619.62, 81553.58, 114852.16, 134000.98, 101111.71, 112592.46, 175373.91, -3461.39, -65468.95, -73941.67, 2510.44, -73332.14, -84552.09, -60853.32, -107258.93, 0.000, 0.000, 0.000, 16:54:28.913
102, -9944.54, 96619.62, 81553.58, 114852.16, 134000.98, 101111.71, 112592.46, 175373.91, -3472.50, -65460.41, -73948.29, 2512.29, -73324.05, -84557.92, -60853.81, -107256.02, 0.000, 0.000, 0.000, 16:54:28.913
103, -9954.13, 96618.45, 81555.92, 114860.27, 134008.19, 101119.22, 112600.89, 175383.34, -3472.50, -65460.41, -73948.29, 2512.29, -73324.05, -84557.92, -60853.81, -107256.02, 0.354, 0.912, -0.002, 16:54:28.913
104, -9954.13, 96618.45, 81555.92, 114860.27, 134008.19, 101119.22, 112600.89, 175383.34, -3483.34, -65450.82, -73950.34, 2517.88, -73330.59, -84505.93, -60849.29, -107244.52, 0.000, 0.000, 0.000, 16:54:28.913
105, -9958.53, 96610.14, 81560.35, 114868.34, 134008.56, 101128.90, 112610.88, 175382.52, -3483.34, -65450.82, -73950.34, 2517.88, -73330.59, -84505.93, -60849.29, -107244.52, 0.000, 0.000, 0.000, 16:54:28.914
106, -9958.53, 96610.14, 81560.35, 114868.34, 134008.56, 101128.90, 112610.88, 175382.52, -3470.76, -65446.42, -73945.16, 2525.05, -73319.38, -84502.04, -60842.47, -107234.01, 0.000, 0.000, 0.000, 16:54:28.914
107, -9942.64, 96617.70, 81567.41, 114875.27, 134038.11, 101122.87, 112612.84, 175358.42, -3470.76, -65446.42, -73945.16, 2525.05, -73319.38, -84502.04, -60842.47, -107234.01, 0.000, 0.000, 0.000, 16:54:28.914
108, -9942.64, 96617.70, 81567.41, 114875.27, 134038.11, 101122.87, 112612.84, 175358.42, -3459.54, -65454.13, -73937.80, 2523.29, -73310.99, -84517.24, -60841.65, -107240.42, 0.000, 0.000, 0.000, 16:54:28.914
109, -9938.14, 96621.13, 81565.89, 114868.31, 134024.67, 101104.70, 112613.74, 175376.81, -3459.54, -65454.13, -73937.80, 2523.29, -73310.99, -84517.24, -60841.65, -107240.42, 0.000, 0.000, 0.000, 16:54:28.914
110, -9938.14, 96621.13, 81565.89, 114868.31, 134024.67, 101104.70, 112613.74, 175376.81, -3447.15, -65468.01, -73937.58, 2515.62, -73317.56, -84540.11, -60841.43, -107245.50, 0.000, 0.000, 0.000, 16:54:28.915
111, -9934.03, 96623.01, 81572.42, 114870.55, 134031.73, 101111.73, 112613.47, 175391.50, -3447.15, -65468.01, -73937.58, 2515.62, -73317.56, -84540.11, -60841.43, -107245.50, 0.000, 0.000, 0.000, 16:54:28.915
112, -9934.03, 96623.01, 81572.42, 114870.55, 134031.73, 101111.73, 112613.47, 175391.50, -3454.28, -65462.65, -73927.05, 2522.08, -73311.40, -84530.77, -60835.77, -107234.66, 0.000, 0.000, 0.000, 16:54:28.915
113, -9940.58, 96622.92, 81580.09, 114880.34, 134022.86, 101105.70, 112604.84, 175388.09, -3454.28, -65462.65, -73927.05, 2522.08, -73311.40, -84530.77, -60835.77, -107234.66, 0.358, 0.908, -0.004, 16:54:28.915
114, -9940.58, 96622.92, 81580.09, 114880.34, 134022.86, 101105.70, 112604.84, 175388.09, -3470.98, -65451.54, -73914.65, 2536.03, -73304.09, -84513.20, -60835.84, -107229.70, 0.000, 0.000, 0.000, 16:54:28.915
115, -9928.89, 96618.59, 81587.04, 114890.51, 134018.39, 101098.45, 112595.08, 175372.66, -3470.98, -65451.54, -73914.65, 2536.03, -73304.09, -84513.20, -60835.84, -107229.70, 0.000, 0.000, 0.000, 16:54:28.915
116, -9928.89, 96618.59, 81587.04, 114890.51, 134018.39, 101098.45, 112595.08, 175372.66, -3489.55, -65452.70, -73923.41, 2535.27, -73319.33, -84517.22, -60839.03, -107233.72, 0.000, 0.000, 0.000, 16:54:28.916
117, -9921.09, 96611.14, 81586.79, 114889.39, 134016.73, 101097.98, 112595.03, 175380.36, -3489.55, -65452.70, -73923.41, 2535.27, -73319.33, -84517.22, -60839.03, -107233.72, 0.000, 0.000, 0.000, 16:54:28.916
118, -9921.09, 96611.14, 81586.79, 114889.39, 134016.73, 101097.98, 112595.03, 175380.36, -3496.91, -65453.21, -73913.62, 2544.41, -73318.97, -84533.69, -60835.55, -107231.84, 0.000, 0.000, 0.000, 16:54:28.916
119, -9919.88, 96641.79, 81597.39, 114896.19, 134032.66, 101094.30, 112594.23, 175388.13, -3496.91, -65453.21, -73913.62, 2544.41, -73318.97, -84533.69, -60835.55, -107231.84, 0.000, 0.000, 0.000, 16:54:28.916
120, -9919.88, 96641.79, 81597.39, 114896.19, 134032.66, 101094.30, 112594.23, 175388.13, -3510.18, -65441.52, -73906.91, 2550.42, -73317.81, -84505.02, -60841.96, -107241.86, 0.000, 0.000, 0.000, 16:54:28.917
121, -9917.36, 96630.77, 81588.11, 114882.22, 134009.91, 101065.87, 112579.05, 175389.34, -3510.18, -65441.52, -73906.91, 2550.42, -73317.81, -84505.02, -60841.96, -107241.86, 0.000, 0.000, 0.000, 16:54:28.917
122, -9917.36, 96630.77, 81588.11, 114882.22, 134009.91, 101065.87, 112579.05, 175389.34, -3498.23, -65457.02, -73917.71, 2536.97, -73314.10, -84519.37, -60851.37, -107255.40, 0.354, 0.906, 0.000, 16:54:28.917
123, -9908.86, 96634.41, 81590.26, 114891.00, 134010.73, 101085.96, 112576.63, 175391.36, -3498.23, -65457.02, -73917.71, 2536.97, -73314.10, -84519.37, -60851.37, -107255.40, 0.000, 0.000, 0.000, 16:54:28.917
124, -9908.86, 96634.41, 81590.26, 114891.00, 134010.73, 101085.96, 112576.63, 175391.36, -3502.90, -65445.46, -73909.66, 2546.71, -73313.36, -84503.98, -60841.91, -107239.06, 0.000, 0.000, 0.000, 16:54:28.918
125, -9902.47, 96636.94, 81591.30, 114891.67, 134022.47, 101085.47, 112583.05, 175389.59, -3502.90, -65445.46, -73909.66, 2546.71, -73313.36, -84503.98, -60841.91, -107239.06, 0.000, 0.000, 0.000, 16:54:28.918
126, -9902.47, 96636.94, 81591.30, 114891.67, 134022.47, 101085.47, 112583.05, 175389.59, -3514.66, -65451.20, -73920.03, 2533.73, -73321.77, -84517.24, -60849.94, -107243.78, 0.000, 0.000, 0.000, 16:54:28.918
127, -9916.02, 96632.45, 81583.64, 114888.45, 134017.03, 101088.35, 112578.52, 175406.78, -3514.66, -65451.20, -73920.03, 2533.73, -73321.77, -84517.24, -60849.94, -107243.78, 0.000, 0.000, 0.000, 16:54:28.918
128, -9916.02, 96632.45, 81583.64, 114888.45, 134017.03, 101088.35, 112578.52, 175406.78, -3519.91, -65452.63, -73928.99, 2526.26, -73325.48, -84517.84, -60853.47, -107235.93, 0.000, 0.000, 0.000, 16:54:28.918
129, -9918.16, 96623.37, 81580.45, 114881.08, 134029.81, 101092.65, 112578.78, 175408.33, -3519.91, -65452.63, -73928.99, 2526.26, -73325.48, -84517.84, -60853.47, -107235.93, 0.000, 0.000, 0.000, 16:54:28.919
130, -9918.16, 96623.37, 81580.45, 114881.08, 134029.81, 101092.65, 112578.78, 175408.33, -3509.09, -65459.00, -73935.63, 2514.55, -73322.73, -84516.21, -60850.01, -107232.55, 0.000, 0.000, 0.000, 16:54:28.919
131, -9912.39, 96610.74, 81571.80, 114869.27, 134035.20, 101089.31, 112572.99, 175420.53, -3509.09, -65459.00, -73935.63, 2514.55, -73322.73, -84516.21, -60850.01, -107232.55, 0.000, 0.000, 0.000, 16:54:28.919
132, -9912.39, 96610.74, 81571.80, 114869.27, 134035.20, 101089.31, 112572.99, 175420.53, -3495.28, -65471.79, -73949.47, 2502.01, -73331.78, -84532.80, -60856.49, -107238.16, 0.358, 0.902, -0.002, 16:54:28.919
133, -9915.93, 96607.01, 81562.18, 114862.13, 134032.97, 101085.25, 112548.09, 175414.03, -3495.28, -65471.79, -73949.47, 2502.01, -73331.78, -84532.80, -60856.49, -107238.16, 0.000, 0.000, 0.000, 16:54:28.919
134, -9915.93, 96607.01, 81562.18, 114862.13, 134032.97, 101085.25, 112548.09, 175414.03, -3462.73, -65484.17, -73956.42, 2493.27, -73327.60, -84517.28, -60863.15, -107247.84, 0.000, 0.000, 0.000, 16:54:28.919
135, -9912.28, 96612.33, 81562.25, 114859.87, 134023.42, 101070.90, 112526.30, 175417.38, -3462.73, -65484.17, -73956.42, 2493.27, -73327.60, -84517.28, -60863.15, -107247.84, 0.000, 0.000, 0.000, 16:54:28.920
136, -9912.28, 96612.33, 81562.25, 114859.87, 134023.42, 101070.90, 112526.30, 175417.38, -3443.62, -65475.41, -73942.56, 2505.85, -73319.71, -84522.05, -60859.55, -107250.28, 0.000, 0.000, 0.000, 16:54:28.920
137, -9901.60, 96630.74, 81572.69, 114871.13, 134021.33, 101065.78, 112515.99, 175409.67, -3443.62, -65475.41, -73942.56, 2505.85, -73319.71, -84522.05, -60859.55, -107250.28, 0.000, 0.000, 0.000, 16:54:28.920
138, -9901.60, 96630.74, 81572.69, 114871.13, 134021.33, 101065.78, 112515.99, 175409.67, -3428.47, -65464.12, -73935.30, 2513.95, -73315.62, -84521.94, -60858.55, -107251.13, 0.000, 0.000, 0.000, 16:54:28.920
139, -9894.76, 96634.23, 81579.48, 114869.01, 134029.45, 101045.70, 112512.35, 175405.02, -3428.47, -65464.12, -73935.30, 2513.95, -73315.62, -84521.94, -60858.55, -107251.13, 0.000, 0.000, 0.000, 16:54:28.920
140, -9894.76, 96634.23, 81579.48, 114869.01, 134029.45, 101045.70, 112512.35, 175405.02, -3414.97, -65461.80, -73924.66, 2525.10, -73304.60, -84517.73, -60846.45, -107241.66, 0.000, 0.000, 0.000, 16:54:28.920
141, -9885.89, 96649.32, 81595.48, 114893.48, 134038.38, 101074.32, 112522.03, 175389.11, -3414.97, -65461.80, -73924.66, 2525.10, -73304.60, -84517.73, -60846.45, -107241.66, 0.000, 0.000, 0.000, 16:54:28.921
142, -9885.89, 96649.32, 81595.48, 114893.48, 134038.38, 101074.32, 112522.03, 175389.11, -3401.89, -65449.62, -73908.45, 2542.78, -73309.02, -84489.70, -60834.81, -107214.12, 0.358, 0.906, 0.000, 16:54:28.921
143, -9869.90, 96648.38, 81600.90, 114895.52, 134026.83, 101065.69, 112522.01, 175404.23, -3401.89, -65449.62, -73908.45, 2542.78, -73309.02, -84489.70, -60834.81, -107214.12, 0.000, 0.000, 0.000, 16:54:28.921
144, -9869.90, 96648.38, 81600.90, 114895.52, 134026.83, 101065.69, 112522.01, 175404.23, -3379.05, -65452.43, -73909.70, 2542.31, -73334.23, -84505.75, -60834.90, -107224.20, 0.000, 0.000, 0.000, 16:54:28.921
145, -9853.83, 96645.16, 81603.38, 114892.97, 134025.06, 101051.90, 112689.16, 175427.61, -3379.05, -65452.43, -73909.70, 2542.31, -73334.23, -84505.75, -60834.90, -107224.20, 0.000, 0.000, 0.000, 16:54:28.921
146, -9853.83, 96645.16, 81603.38, 114892.97, 134025.06, 101051.90, 112689.16, 175427.61, -3360.99, -65434.59, -73896.66, 2554.27, -73307.15, -84495.83, -60832.71, -107228.00, 0.000, 0.000, 0.000, 16:54:28.921
147, -9846.17, 96648.42, 81612.67, 114899.02, 134024.81, 101044.55, 112809.20, 175408.61, -3360.99, -65434.59, -73896.66, 2554.27, -73307.15, -84495.83, -60832.71, -107228.00, 0.000, 0.000, 0.000, 16:54:28.922
148, -9846.17, 96648.42, 81612.67, 114899.02, 134024.81, 101044.55, 112809.20, 175408.61, -3347.49, -65432.72, -73896.23, 2555.25, -73310.86, -84507.36, -60840.78, -107232.34, 0.000, 0.000, 0.000, 16:54:28.922
149, -9844.49, 96647.40, 81605.55, 114893.41, 134015.83, 101049.20, 112784.48, 175393.53, -3347.49, -65432.72, -73896.23, 2555.25, -73310.86, -84507.36, -60840.78, -107232.34, 0.000, 0.000, 0.000, 16:54:28.922
150, -9844.49, 96647.40, 81605.55, 114893.41, 134015.83, 101049.20, 112784.48, 175393.53, -3312.57, -65427.13, -73893.16, 2557.35, -73306.09, -84527.41, -60842.54, -107223.68, 0.000, 0.000, 0.000, 16:54:28.922
151, -9836.82, 96641.43, 81614.13, 114901.22, 134020.19, 101078.43, 112791.13, 175425.47, -3312.57, -65427.13, -73893.16, 2557.35, -73306.09, -84527.41, -60842.54, -107223.68, 0.000, 0.000, 0.000, 16:54:28.922
152, -9836.82, 96641.43, 81614.13, 114901.22, 134020.19, 101078.43, 112791.13, 175425.47, -3308.06, -65421.65, -73908.81, 2547.12, -73313.88, -84502.20, -60844.26, -107223.20, 0.366, 0.904, -0.004, 16:54:28.922
153, -9847.55, 96632.71, 81611.49, 114893.64, 134022.28, 101054.65, 112780.71, 175450.14, -3308.06, -65421.65, -73908.81, 2547.12, -73313.88, -84502.20, -60844.26, -107223.20, 0.000, 0.000, 0.000, 16:54:28.923
154, -9847.55, 96632.71, 81611.49, 114893.64, 134022.28, 101054.65, 112780.71, 175450.14, -3330.21, -65418.08, -73914.60, 2541.51, -73314.08, -84481.77, -60836.91, -107213.96, 0.000, 0.000, 0.000, 16:54:29.292
155, -9855.26, 96623.52, 81617.33, 114893.08, 134031.73, 101071.75, 112775.52, 175443.89, -3330.21, -65418.08, -73914.60, 2541.51, -73314.08, -84481.77, -60836.91, -107213.96, 0.000, 0.000, 0.000, 16:54:29.292
156, -9855.26, 96623.52, 81617.33, 114893.08, 134031.73, 101071.75, 112775.52, 175443.89, -3348.45, -65407.26, -73918.91, 2538.40, -73298.92, -84493.84, -60831.84, -107198.49, 0.000, 0.000, 0.000, 16:54:29.292
157, -9863.82, 96621.18, 81627.83, 114892.90, 134039.55, 101090.05, 112771.30, 175472.63, -3348.45, -65407.26, -73918.91, 2538.40, -73298.92, -84493.84, -60831.84, -107198.49, 0.000, 0.000, 0.000, 16:54:29.292
158, -9863.82, 96621.18, 81627.83, 114892.90, 134039.55, 101090.05, 112771.30, 175472.63, -3351.38, -65409.79, -73929.29, 2526.55, -73304.63, -84520.17, -60833.04, -107200.15, 0.000, 0.000, 0.000, 16:54:29.292
159, -9877.66, 96603.59, 81607.05, 114866.04, 134016.05, 101057.44, 112735.94, 175470.78, -3351.38, -65409.79, -73929.29, 2526.55, -73304.63, -84520.17, -60833.04, -107200.15, 0.000, 0.000, 0.000, 16:54:29.292
160, -9877.66, 96603.59, 81607.05, 114866.04, 134016.05, 101057.44, 112735.94, 175470.78, -3335.57, -65419.87, -73943.75, 2513.10, -73334.93, -84536.73, -60850.23, -107203.45, 0.000, 0.000, 0.000, 16:54:29.293
161, -9882.78, 96616.06, 81614.35, 114881.32, 134007.42, 101063.32, 112715.87, 175445.66, -3335.57, -65419.87, -73943.75, 2513.10, -73334.93, -84536.73, -60850.23, -107203.45, 0.000, 0.000, 0.000, 16:54:29.293
162, -9882.78, 96616.06, 81614.35, 114881.32, 134007.42, 101063.32, 112715.87, 175445.66, -3318.99, -65400.29, -73926.49, 2532.01, -73308.00, -84512.41, -60844.26, -107186.11, 0.358, 0.904, 0.000, 16:54:29.293
163, -9886.06, 96630.95, 81632.52, 114891.78, 134021.92, 101067.70, 112701.07, 175450.30, -3318.99, -65400.29, -73926.49, 2532.01, -73308.00, -84512.41, -60844.26, -107186.11, 0.000, 0.000, 0.000, 16:54:29.293
164, -9886.06, 96630.95, 81632.52, 114891.78, 134021.92, 101067.70, 112701.07, 175450.30, -3299.01, -65383.59, -73913.88, 2540.52, -73299.05, -84507.20, -60836.66, -107184.48, 0.000, 0.000, 0.000, 16:54:29.293
165, -9875.72, 96634.52, 81637.98, 114894.55, 134020.41, 101053.69, 112682.47, 175445.19, -3299.01, -65383.59, -73913.88, 2540.52, -73299.05, -84507.20, -60836.66, -107184.48, 0.000, 0.000, 0.000, 16:54:29.294
166, -9875.72, 96634.52, 81637.98, 114894.55, 134020.41, 101053.69, 112682.47, 175445.19, -3251.84, -65386.90, -73912.32, 2539.20, -73300.40, -84525.76, -60841.16, -107200.84, 0.000, 0.000, 0.000, 16:54:29.294
167, -9881.88, 96631.46, 81640.93, 114891.63, 134009.44, 101033.03, 112670.80, 175432.67, -3251.84, -65386.90, -73912.32, 2539.20, -73300.40, -84525.76, -60841.16, -107200.84, 0.000, 0.000, 0.000, 16:54:29.294
168, -9881.88, 96631.46, 81640.93, 114891.63, 134009.44, 101033.03, 112670.80, 175432.67, -3248.83, -65391.64, -73921.09, 2531.76, -73309.98, -84537.65, -60848.00, -107213.63, 0.000, 0.000, 0.000, 16:54:29.294
169, -9886.27, 96633.72, 81638.72, 114884.01, 134004.67, 101025.99, 112665.38, 175414.97, -3248.83, -65391.64, -73921.09, 2531.76, -73309.98, -84537.65, -60848.00, -107213.63, 0.000, 0.000, 0.000, 16:54:29.294
170, -9886.27, 96633.72, 81638.72, 114884.01, 134004.67, 101025.99, 112665.38, 175414.97, -3236.38, -65380.32, -73907.00, 2545.35, -73299.15, -84512.39, -60839.30, -107203.59, 0.000, 0.000, 0.000, 16:54:29.294
171, -9885.77, 96640.96, 81648.38, 114891.02, 133986.70, 101022.30, 112670.13, 175421.33, -3236.38, -65380.32, -73907.00, 2545.35, -73299.15, -84512.39, -60839.30, -107203.59, 0.000, 0.000, 0.000, 16:54:29.295
172, -9885.77, 96640.96, 81648.38, 114891.02, 133986.70, 101022.30, 112670.13, 175421.33, -3229.20, -65393.94, -73913.38, 2535.81, -73315.93, -84532.30, -60838.45, -107208.30, 0.358, 0.904, 0.006, 16:54:29.295
173, -9885.01, 96640.55, 81644.62, 114883.98, 134013.95, 101026.46, 112661.64, 175413.69, -3229.20, -65393.94, -73913.38, 2535.81, -73315.93, -84532.30, -60838.45, -107208.30, 0.000, 0.000, 0.000, 16:54:29.295
174, -9885.01, 96640.55, 81644.62, 114883.98, 134013.95, 101026.46, 112661.64, 175413.69, -3226.30, -65398.14, -73923.25, 2524.81, -73308.20, -84546.30, -60841.16, -107214.12, 0.000, 0.000, 0.000, 16:54:29.295
175, -9887.12, 96634.86, 81642.36, 114884.38, 134012.06, 101019.73, 112655.05, 175419.75, -3226.30, -65398.14, -73923.25, 2524.81, -73308.20, -84546.30, -60841.16, -107214.12, 0.000, 0.000, 0.000, 16:54:29.295
176, -9887.12, 96634.86, 81642.36, 114884.38, 134012.06, 101019.73, 112655.05, 175419.75, -3230.59, -65388.33, -73915.74, 2532.85, -73308.00, -84538.19, -60833.63, -107204.46, 0.000, 0.000, 0.000, 16:54:29.296
177, -9877.86, 96635.17, 81646.27, 114893.88, 134017.64, 101025.01, 112671.36, 175447.84, -3230.59, -65388.33, -73915.74, 2532.85, -73308.00, -84538.19, -60833.63, -107204.46, 0.000, 0.000, 0.000, 16:54:29.296
178, -9877.86, 96635.17, 81646.27, 114893.88, 134017.64, 101025.01, 112671.36, 175447.84, -3243.93, -65377.11, -73912.43, 2537.55, -73305.47, -84507.56, -60832.04, -107194.83, 0.000, 0.000, 0.000, 16:54:29.296
179, -9870.66, 96629.43, 81634.91, 114890.69, 134013.14, 101037.10, 112672.79, 175443.66, -3243.93, -65377.11, -73912.43, 2537.55, -73305.47, -84507.56, -60832.04, -107194.83, 0.000, 0.000, 0.000, 16:54:29.296
180, -9870.66, 96629.43, 81634.91, 114890.69, 134013.14, 101037.10, 112672.79, 175443.66, -3230.30, -65393.16, -73930.29, 2519.44, -73319.13, -84530.05, -60839.90, -107199.27, 0.000, 0.000, 0.000, 16:54:29.296
181, -9880.92, 96616.93, 81624.77, 114883.27, 134020.25, 101040.21, 112674.16, 175444.56, -3230.30, -65393.16, -73930.29, 2519.44, -73319.13, -84530.05, -60839.90, -107199.27, 0.360, 0.904, 0.008, 16:54:29.297
182, -9880.92, 96616.93, 81624.77, 114883.27, 134020.25, 101040.21, 112674.16, 175444.56, -3231.82, -65395.03, -73934.13, 2516.29, -73312.63, -84522.83, -60840.39, -107193.24, 0.000, 0.000, 0.000, 16:54:29.297
183, -9891.41, 96608.33, 81619.16, 114878.95, 134021.77, 101040.68, 112685.27, 175461.70, -3231.82, -65395.03, -73934.13, 2516.29, -73312.63, -84522.83, -60840.39, -107193.24, 0.000, 0.000, 0.000, 16:54:29.297
184, -9891.41, 96608.33, 81619.16, 114878.95, 134021.77, 101040.68, 112685.27, 175461.70, -3229.83, -65401.58, -73941.00, 2510.59, -73316.24, -84530.83, -60839.48, -107194.41, 0.000, 0.000, 0.000, 16:54:29.297
185, -9895.90, 96607.55, 81616.72, 114874.44, 134028.14, 101041.02, 112690.96, 175461.05, -3229.83, -65401.58, -73941.00, 2510.59, -73316.24, -84530.83, -60839.48, -107194.41, 0.000, 0.000, 0.000, 16:54:29.297
186, -9895.90, 96607.55, 81616.72, 114874.44, 134028.14, 101041.02, 112690.96, 175461.05, -3226.59, -65415.26, -73948.15, 2498.14, -73324.42, -84556.49, -60851.59, -107211.23, 0.000, 0.000, 0.000, 16:54:29.297
187, -9896.26, 96611.26, 81610.87, 114870.39, 134016.41, 101005.25, 112689.80, 175450.30, -3226.59, -65415.26, -73948.15, 2498.14, -73324.42, -84556.49, -60851.59, -107211.23, 0.000, 0.000, 0.000, 16:54:29.298
188, -9896.26, 96611.26, 81610.87, 114870.39, 134016.41, 101005.25, 112689.80, 175450.30, -3218.83, -65400.15, -73929.84, 2516.14, -73309.45, -84515.66, -60843.01, -107203.48, 0.000, 0.000, 0.000, 16:54:29.298
189, -9885.35, 96616.46, 81614.60, 114882.40, 134015.17, 101009.14, 112693.60, 175447.94, -3218.83, -65400.15, -73929.84, 2516.14, -73309.45, -84515.66, -60843.01, -107203.48, 0.000, 0.000, 0.000, 16:54:29.298
190, -9885.35, 96616.46, 81614.60, 114882.40, 134015.17, 101009.14, 112693.60, 175447.94, -3215.05, -65402.05, -73936.69, 2513.65, -73320.80, -84523.37, -60853.58, -107211.91, 0.000, 0.000, 0.000, 16:54:29.298
191, -9893.31, 96615.57, 81601.41, 114874.10, 133996.67, 100998.73, 112674.63, 175428.31, -3215.05, -65402.05, -73936.69, 2513.65, -73320.80, -84523.37, -60853.58, -107211.91, 0.360, 0.898, 0.010, 16:54:29.298
192, -9893.31, 96615.57, 81601.41, 114874.10, 133996.67, 100998.73, 112674.63, 175428.31, -3215.75, -65409.05, -73938.16, 2511.20, -73333.16, -84540.22, -60859.57, -107218.68, 0.000, 0.000, 0.000, 16:54:29.298
193, -9889.75, 96632.42, 81607.49, 114879.00, 134009.13, 100992.22, 112676.30, 175443.66, -3215.75, -65409.05, -73938.16, 2511.20, -73333.16, -84540.22, -60859.57, -107218.68, 0.000, 0.000, 0.000, 16:54:29.299
194, -9889.75, 96632.42, 81607.49, 114879.00, 134009.13, 100992.22, 112676.30, 175443.66, -3214.02, -65395.91, -73918.22, 2526.84, -73305.34, -84527.68, -60852.38, -107209.18, 0.000, 0.000, 0.000, 16:54:29.299
195, -9882.11, 96647.53, 81621.70, 114894.98, 134002.13, 100998.12, 112697.76, 175451.84, -3214.02, -65395.91, -73918.22, 2526.84, -73305.34, -84527.68, -60852.38, -107209.18, 0.000, 0.000, 0.000, 16:54:29.299
196, -9882.11, 96647.53, 81621.70, 114894.98, 134002.13, 100998.12, 112697.76, 175451.84, -3202.36, -65403.95, -73920.91, 2525.72, -73315.51, -84513.69, -60849.36, -107204.77, 0.000, 0.000, 0.000, 16:54:29.299
197, -9874.67, 96634.26, 81609.86, 114888.92, 133999.75, 100992.33, 112700.64, 175448.56, -3202.36, -65403.95, -73920.91, 2525.72, -73315.51, -84513.69, -60849.36, -107204.77, 0.000, 0.000, 0.000, 16:54:29.299
198, -9874.67, 96634.26, 81609.86, 114888.92, 133999.75, 100992.33, 112700.64, 175448.56, -3198.20, -65398.83, -73919.32, 2527.87, -73316.70, -84530.36, -60849.36, -107207.32, 0.000, 0.000, 0.000, 16:54:29.300
199, -9874.37, 96646.50, 81616.34, 114892.57, 134012.27, 100981.18, 112701.23, 175429.52, -3198.20, -65398.83, -73919.32, 2527.87, -73316.70, -84530.36, -60849.36, -107207.32, 0.000, 0.000, 0.000, 16:54:29.300
200, -9874.37, 96646.50, 81616.34, 114892.57, 134012.27, 100981.18, 112701.23, 175429.52, -3213.42, -65400.29, -73916.86, 2527.62, -73335.18, -84544.87, -60852.89, -107217.42, 0.000, 0.000, 0.000, 16:54:29.300
201, -9869.01, 96650.19, 81621.35, 114894.00, 134010.70, 100977.35, 112708.38, 175443.22, -3213.42, -65400.29, -73916.86, 2527.62, -73335.18, -84544.87, -60852.89, -107217.42, 0.354, 0.904, 0.012, 16:54:29.301
202, -9869.01, 96650.19, 81621.35, 114894.00, 134010.70, 100977.35, 112708.38, 175443.22, -3189.17, -65390.32, -73899.63, 2541.57, -73305.74, -84502.82, -60837.78, -107194.00, 0.000, 0.000, 0.000, 16:54:29.301
203, -9861.39, 96663.98, 81640.23, 114911.45, 134024.55, 101001.47, 112723.40, 175441.23, -3189.17, -65390.32, -73899.63, 2541.57, -73305.74, -84502.82, -60837.78, -107194.00, 0.000, 0.000, 0.000, 16:54:29.301
204, -9861.39, 96663.98, 81640.23, 114911.45, 134024.55, 101001.47, 112723.40, 175441.23, -3181.37, -65395.75, -73901.77, 2538.22, -73306.84, -84506.47, -60834.94, -107185.53, 0.000, 0.000, 0.000, 16:54:29.301
205, -9869.10, 96643.11, 81631.52, 114898.11, 134019.13, 100987.03, 112736.98, 175465.55, -3181.37, -65395.75, -73901.77, 2538.22, -73306.84, -84506.47, -60834.94, -107185.53, 0.000, 0.000, 0.000, 16:54:29.301
206, -9869.10, 96643.11, 81631.52, 114898.11, 134019.13, 100987.03, 112736.98, 175465.55, -3183.74, -65414.99, -73925.02, 2515.85, -73335.52, -84518.16, -60846.86, -107196.13, 0.000, 0.000, 0.000, 16:54:29.302
207, -9886.29, 96636.34, 81622.87, 114892.88, 134011.13, 100998.48, 112759.43, 175477.73, -3183.74, -65414.99, -73925.02, 2515.85, -73335.52, -84518.16, -60846.86, -107196.13, 0.000, 0.000, 0.000, 16:54:29.302
208, -9886.29, 96636.34, 81622.87, 114892.88, 134011.13, 100998.48, 112759.43, 175477.73, -3205.44, -65419.39, -73929.35, 2508.20, -73320.27, -84524.64, -60845.85, -107196.03, 0.000, 0.000, 0.000, 16:54:29.302
209, -9886.85, 96617.31, 81614.27, 114874.88, 134044.22, 100981.91, 112788.84, 175492.53, -3205.44, -65419.39, -73929.35, 2508.20, -73320.27, -84524.64, -60845.85, -107196.03, 0.000, 0.000, 0.000, 16:54:29.303
210, -9886.85, 96617.31, 81614.27, 114874.88, 134044.22, 100981.91, 112788.84, 175492.53, -3186.38, -65420.78, -73928.46, 2502.19, -73311.08, -84532.62, -60839.64, -107207.81, 0.000, 0.000, 0.000, 16:54:29.303
211, -9891.38, 96625.16, 81615.00, 114877.08, 134046.30, 100989.73, 112809.27, 175477.97, -3186.38, -65420.78, -73928.46, 2502.19, -73311.08, -84532.62, -60839.64, -107207.81, 0.364, 0.908, 0.014, 16:54:29.303
212, -9891.38, 96625.16, 81615.00, 114877.08, 134046.30, 100989.73, 112809.27, 175477.97, -3186.42, -65421.39, -73926.11, 2502.55, -73316.94, -84531.27, -60842.72, -107205.53, 0.000, 0.000, 0.000, 16:54:29.303
213, -9906.61, 96620.35, 81608.02, 114872.20, 134022.08, 100977.38, 112805.72, 175480.59, -3186.42, -65421.39, -73926.11, 2502.55, -73316.94, -84531.27, -60842.72, -107205.53, 0.000, 0.000, 0.000, 16:54:29.304
214, -9906.61, 96620.35, 81608.02, 114872.20, 134022.08, 100977.38, 112805.72, 175480.59, -3188.77, -65427.35, -73928.37, 2499.60, -73323.51, -84537.96, -60852.04, -107221.38, 0.000, 0.000, 0.000, 16:54:29.304
215, -9897.15, 96621.70, 81612.74, 114876.85, 134022.55, 100965.51, 112803.88, 175463.73, -3188.77, -65427.35, -73928.37, 2499.60, -73323.51, -84537.96, -60852.04, -107221.38, 0.000, 0.000, 0.000, 16:54:29.304
216, -9897.15, 96621.70, 81612.74, 114876.85, 134022.55, 100965.51, 112803.88, 175463.73, -3175.40, -65421.09, -73923.59, 2505.21, -73316.65, -84530.05, -60852.58, -107217.25, 0.000, 0.000, 0.000, 16:54:29.304
217, -9877.28, 96624.29, 81620.66, 114886.98, 134022.28, 100962.13, 112800.80, 175453.56, -3175.40, -65421.09, -73923.59, 2505.21, -73316.65, -84530.05, -60852.58, -107217.25, 0.000, 0.000, 0.000, 16:54:29.305
218, -9877.28, 96624.29, 81620.66, 114886.98, 134022.28, 100962.13, 112800.80, 175453.56, -3166.26, -65407.86, -73909.52, 2519.06, -73302.90, -84522.76, -60842.81, -107213.89, 0.000, 0.000, 0.000, 16:54:29.305
219, -9880.10, 96622.07, 81625.66, 114883.76, 134029.17, 100947.90, 112796.06, 175446.45, -3166.26, -65407.86, -73909.52, 2519.06, -73302.90, -84522.76, -60842.81, -107213.89, 0.000, 0.000, 0.000, 16:54:29.305
220, -9880.10, 96622.07, 81625.66, 114883.76, 134029.17, 100947.90, 112796.06, 175446.45, -3173.81, -65412.07, -73911.77, 2512.67, -73305.29, -84525.11, -60844.00, -107223.41, 0.000, 0.000, 0.000, 16:54:29.305
221, -9887.14, 96620.98, 81616.95, 114871.22, 134019.27, 100941.28, 112800.27, 175452.69, -3173.81, -65412.07, -73911.77, 2512.67, -73305.29, -84525.11, -60844.00, -107223.41, 0.366, 0.906, 0.012, 16:54:29.306
222, -9887.14, 96620.98, 81616.95, 114871.22, 134019.27, 100941.28, 112800.27, 175452.69, -3169.70, -65429.28, -73928.44, 2495.91, -73323.94, -84541.91, -60853.45, -107236.11, 0.000, 0.000, 0.000, 16:54:29.307
223, -9899.16, 96605.53, 81605.21, 114860.27, 134012.53, 100927.58, 112792.93, 175455.38, -3169.70, -65429.28, -73928.44, 2495.91, -73323.94, -84541.91, -60853.45, -107236.11, 0.000, 0.000, 0.000, 16:54:29.307
224, -9899.16, 96605.53, 81605.21, 114860.27, 134012.53, 100927.58, 112792.93, 175455.38, -3195.47, -65437.75, -73936.23, 2487.17, -73324.63, -84558.84, -60859.93, -107245.74, 0.000, 0.000, 0.000, 16:54:29.307
225, -9904.77, 96608.93, 81606.93, 114873.01, 134016.83, 100921.61, 112792.42, 175457.98, -3195.47, -65437.75, -73936.23, 2487.17, -73324.63, -84558.84, -60859.93, -107245.74, 0.000, 0.000, 0.000, 16:54:29.308
226, -9904.77, 96608.93, 81606.93, 114873.01, 134016.83, 100921.61, 112792.42, 175457.98, -3201.82, -65423.35, -73929.35, 2501.07, -73325.79, -84540.87, -60855.46, -107225.13, 0.000, 0.000, 0.000, 16:54:29.308
227, -9892.21, 96619.86, 81606.77, 114879.60, 134009.16, 100913.54, 112788.75, 175446.30, -3201.82, -65423.35, -73929.35, 2501.07, -73325.79, -84540.87, -60855.46, -107225.13, 0.000, 0.000, 0.000, 16:54:29.308
228, -9892.21, 96619.86, 81606.77, 114879.60, 134009.16, 100913.54, 112788.75, 175446.30, -3192.92, -65416.09, -73923.61, 2509.12, -73320.49, -84523.59, -60848.53, -107213.23, 0.000, 0.000, 0.000, 16:54:29.308
229, -9880.92, 96632.65, 81617.91, 114891.54, 134021.91, 100929.57, 112791.75, 175459.63, -3192.92, -65416.09, -73923.61, 2509.12, -73320.49, -84523.59, -60848.53, -107213.23, 0.000, 0.000, 0.000, 16:54:29.308
230, -9880.92, 96632.65, 81617.91, 114891.54, 134021.91, 100929.57, 112791.75, 175459.63, -3196.12, -65421.21, -73926.23, 2503.84, -73332.41, -84524.86, -60842.90, -107207.23, 0.364, 0.902, 0.010, 16:54:29.308
231, -9881.75, 96613.98, 81603.45, 114877.19, 134022.08, 100929.55, 112791.75, 175476.70, -3196.12, -65421.21, -73926.23, 2503.84, -73332.41, -84524.86, -60842.90, -107207.23, 0.000, 0.000, 0.000, 16:54:29.309
232, -9881.75, 96613.98, 81603.45, 114877.19, 134022.08, 100929.55, 112791.75, 175476.70, -3195.85, -65427.71, -73933.87, 2497.87, -73322.70, -84547.23, -60841.02, -107207.55, 0.000, 0.000, 0.000, 16:54:29.309
233, -9880.34, 96610.45, 81600.56, 114875.47, 134032.92, 100927.66, 112793.13, 175500.53, -3195.85, -65427.71, -73933.87, 2497.87, -73322.70, -84547.23, -60841.02, -107207.55, 0.000, 0.000, 0.000, 16:54:29.309
234, -9880.34, 96610.45, 81600.56, 114875.47, 134032.92, 100927.66, 112793.13, 175500.53, -3192.86, -65424.09, -73933.31, 2500.44, -73325.72, -84536.53, -60836.64, -107205.04, 0.000, 0.000, 0.000, 16:54:29.309
235, -9887.07, 96607.01, 81604.30, 114878.10, 134058.11, 100925.48, 112805.00, 175519.61, -3192.86, -65424.09, -73933.31, 2500.44, -73325.72, -84536.53, -60836.64, -107205.04, 0.000, 0.000, 0.000, 16:54:29.309
236, -9887.07, 96607.01, 81604.30, 114878.10, 134058.11, 100925.48, 112805.00, 175519.61, -3195.76, -65425.81, -73937.58, 2495.21, -73318.62, -84521.76, -60830.89, -107200.21, 0.000, 0.000, 0.000, 16:54:29.309
237, -9889.33, 96598.31, 81592.73, 114871.91, 134055.44, 100944.56, 112808.29, 175507.52, -3195.76, -65425.81, -73937.58, 2495.21, -73318.62, -84521.76, -60830.89, -107200.21, 0.000, 0.000, 0.000, 16:54:29.310
238, -9889.33, 96598.31, 81592.73, 114871.91, 134055.44, 100944.56, 112808.29, 175507.52, -3211.92, -65440.32, -73950.07, 2481.67, -73335.67, -84534.79, -60841.67, -107217.47, 0.000, 0.000, 0.000, 16:54:29.310
239, -9901.08, 96584.27, 81581.72, 114856.31, 134014.73, 100904.27, 112798.45, 175525.58, -3211.92, -65440.32, -73950.07, 2481.67, -73335.67, -84534.79, -60841.67, -107217.47, 0.000, 0.000, 0.000, 16:54:29.310
240, -9901.08, 96584.27, 81581.72, 114856.31, 134014.73, 100904.27, 112798.45, 175525.58, -3214.43, -65442.51, -73947.10, 2484.46, -73332.45, -84541.76, -60858.97, -107232.05, 0.366, 0.902, 0.010, 16:54:29.310
241, -9897.46, 96607.50, 81599.13, 114877.75, 134054.34, 100912.06, 112776.69, 175504.61, -3214.43, -65442.51, -73947.10, 2484.46, -73332.45, -84541.76, -60858.97, -107232.05, 0.000, 0.000, 0.000, 16:54:29.310
242, -9897.46, 96607.50, 81599.13, 114877.75, 134054.34, 100912.06, 112776.69, 175504.61, -3213.85, -65422.79, -73923.90, 2506.66, -73322.75, -84525.29, -60853.98, -107221.80, 0.000, 0.000, 0.000, 16:54:29.310
243, -9887.16, 96623.10, 81607.96, 114887.07, 134027.83, 100910.39, 112759.16, 175486.25, -3213.85, -65422.79, -73923.90, 2506.66, -73322.75, -84525.29, -60853.98, -107221.80, 0.000, 0.000, 0.000, 16:54:29.311
244, -9887.16, 96623.10, 81607.96, 114887.07, 134027.83, 100910.39, 112759.16, 175486.25, -3209.22, -65400.75, -73900.85, 2530.89, -73322.17, -84516.41, -60848.33, -107214.72, 0.000, 0.000, 0.000, 16:54:29.311
245, -9853.99, 96640.05, 81622.78, 114901.20, 134039.66, 100915.44, 112762.29, 175490.31, -3209.22, -65400.75, -73900.85, 2530.89, -73322.17, -84516.41, -60848.33, -107214.72, 0.000, 0.000, 0.000, 16:54:29.311
246, -9853.99, 96640.05, 81622.78, 114901.20, 134039.66, 100915.44, 112762.29, 175490.31, -3194.38, -65401.22, -73893.52, 2531.89, -73296.46, -84516.99, -60843.05, -107215.13, 0.000, 0.000, 0.000, 16:54:29.311
247, -9850.93, 96636.04, 81631.30, 114901.42, 134054.52, 100900.48, 112756.23, 175489.81, -3194.38, -65401.22, -73893.52, 2531.89, -73296.46, -84516.99, -60843.05, -107215.13, 0.000, 0.000, 0.000, 16:54:29.311
248, -9850.93, 96636.04, 81631.30, 114901.42, 134054.52, 100900.48, 112756.23, 175489.81, -3179.85, -65419.84, -73893.75, 2527.16, -73301.23, -84520.34, -60831.50, -107220.48, 0.000, 0.000, 0.000, 16:54:29.311
249, -9844.11, 96635.55, 81629.38, 114897.40, 134041.16, 100885.40, 112764.93, 175499.00, -3179.85, -65419.84, -73893.75, 2527.16, -73301.23, -84520.34, -60831.50, -107220.48, 0.000, 0.000, 0.000, 16:54:29.760
250, -9844.11, 96635.55, 81629.38, 114897.40, 134041.16, 100885.40, 112764.93, 175499.00, -3173.97, -65424.65, -73896.20, 2523.82, -73308.98, -84520.91, -60835.07, -107228.04, 0.370, 0.904, 0.012, 16:54:29.760
251, -9842.77, 96637.12, 81626.49, 114901.09, 134047.98, 100879.90, 112764.77, 175508.47, -3173.97, -65424.65, -73896.20, 2523.82, -73308.98, -84520.91, -60835.07, -107228.04, 0.000, 0.000, 0.000, 16:54:29.760
252, -9842.77, 96637.12, 81626.49, 114901.09, 134047.98, 100879.90, 112764.77, 175508.47, -3178.02, -65424.16, -73899.31, 2524.41, -73327.94, -84514.45, -60835.19, -107213.16, 0.000, 0.000, 0.000, 16:54:29.760
253, -9842.95, 96627.28, 81617.55, 114898.49, 134038.64, 100885.16, 112766.49, 175500.91, -3178.02, -65424.16, -73899.31, 2524.41, -73327.94, -84514.45, -60835.19, -107213.16, 0.000, 0.000, 0.000, 16:54:29.761
254, -9842.95, 96627.28, 81617.55, 114898.49, 134038.64, 100885.16, 112766.49, 175500.91, -3179.69, -65421.43, -73892.85, 2529.17, -73304.98, -84519.61, -60826.71, -107207.95, 0.000, 0.000, 0.000, 16:54:29.761
255, -9845.16, 96626.84, 81629.62, 114910.49, 134050.53, 100896.60, 112780.44, 175523.58, -3179.69, -65421.43, -73892.85, 2529.17, -73304.98, -84519.61, -60826.71, -107207.95, 0.000, 0.000, 0.000, 16:54:29.761
0, -9845.16, 96626.84, 81629.62, 114910.49, 134050.53, 100896.60, 112780.44, 175523.58, -3188.03, -65424.18, -73888.85, 2528.68, -73306.84, -84520.10, -60815.65, -107206.23, 0.000, 0.000, 0.000, 16:54:29.761
1, -9844.92, 96623.98, 81635.81, 114915.84, 134066.92, 100896.91, 112789.47, 175539.13, -3188.03, -65424.18, -73888.85, 2528.68, -73306.84, -84520.10, -60815.65, -107206.23, 0.000, 0.000, 0.000, 16:54:29.761
2, -9844.92, 96623.98, 81635.81, 114915.84, 134066.92, 100896.91, 112789.47, 175539.13, -3181.01, -65434.68, -73895.94, 2520.74, -73303.37, -84505.10, -60804.41, -107200.02, 0.000, 0.000, 0.000, 16:54:29.761
3, -9850.37, 96611.26, 81628.26, 114907.48, 134073.98, 100894.67, 112790.99, 175547.64, -3181.01, -65434.68, -73895.94, 2520.74, -73303.37, -84505.10, -60804.41, -107200.02, 0.000, 0.000, 0.000, 16:54:29.762
4, -9850.37, 96611.26, 81628.26, 114907.48, 134073.98, 100894.67, 112790.99, 175547.64, -3193.10, -65442.11, -73906.48, 2511.42, -73308.58, -84515.50, -60806.33, -107206.56, 0.364, 0.906, 0.008, 16:54:29.762
5, -9868.25, 96591.65, 81612.72, 114889.44, 134080.63, 100876.62, 112790.99, 175549.20, -3193.10, -65442.11, -73906.48, 2511.42, -73308.58, -84515.50, -60806.33, -107206.56, 0.000, 0.000, 0.000, 16:54:29.762
6, -9868.25, 96591.65, 81612.72, 114889.44, 134080.63, 100876.62, 112790.99, 175549.20, -3193.08, -65460.97, -73922.16, 2495.10, -73313.01, -84533.13, -60825.15, -107215.08, 0.000, 0.000, 0.000, 16:54:29.762
7, -9877.57, 96584.97, 81598.15, 114884.21, 134078.81, 100888.22, 112783.32, 175546.13, -3193.08, -65460.97, -73922.16, 2495.10, -73313.01, -84533.13, -60825.15, -107215.08, 0.000, 0.000, 0.000, 16:54:29.763
8, -9877.57, 96584.97, 81598.15, 114884.21, 134078.81, 100888.22, 112783.32, 175546.13, -3192.99, -65460.32, -73927.50, 2492.40, -73316.71, -84530.74, -60840.98, -107222.08, 0.000, 0.000, 0.000, 16:54:29.763
9, -9878.76, 96585.95, 81585.70, 114872.72, 134056.58, 100867.20, 112768.03, 175545.23, -3192.99, -65460.32, -73927.50, 2492.40, -73316.71, -84530.74, -60840.98, -107222.08, 0.000, 0.000, 0.000, 16:54:29.763
10, -9878.76, 96585.95, 81585.70, 114872.72, 134056.58, 100867.20, 112768.03, 175545.23, -3191.23, -65461.51, -73930.38, 2491.77, -73327.20, -84539.44, -60862.23, -107236.18, 0.000, 0.000, 0.000, 16:54:29.763
11, -9875.38, 96603.37, 81588.94, 114885.66, 134043.39, 100870.96, 112766.02, 175543.70, -3191.23, -65461.51, -73930.38, 2491.77, -73327.20, -84539.44, -60862.23, -107236.18, 0.000, 0.000, 0.000, 16:54:29.763
12, -9875.38, 96603.37, 81588.94, 114885.66, 134043.39, 100870.96, 112766.02, 175543.70, -3177.66, -65450.62, -73909.26, 2516.11, -73313.77, -84513.62, -60843.61, -107220.51, 0.000, 0.000, 0.000, 16:54:29.764
13, -9852.98, 96621.72, 81604.49, 114900.05, 134056.27, 100881.65, 112766.45, 175536.02, -3177.66, -65450.62, -73909.26, 2516.11, -73313.77, -84513.62, -60843.61, -107220.51, 0.000, 0.000, 0.000, 16:54:29.764
14, -9852.98, 96621.72, 81604.49, 114900.05, 134056.27, 100881.65, 112766.45, 175536.02, -3173.90, -65452.50, -73903.20, 2518.93, -73315.06, -84515.59, -60850.05, -107233.83, 0.360, 0.904, 0.014, 16:54:29.764
15, -9861.41, 96625.85, 81601.26, 114890.22, 134038.36, 100836.63, 112747.23, 175521.31, -3173.90, -65452.50, -73903.20, 2518.93, -73315.06, -84515.59, -60850.05, -107233.83, 0.000, 0.000, 0.000, 16:54:29.764
16, -9861.41, 96625.85, 81601.26, 114890.22, 134038.36, 100836.63, 112747.23, 175521.31, -3183.38, -65449.68, -73901.81, 2520.43, -73322.26, -84519.25, -60850.97, -107248.61, 0.000, 0.000, 0.000, 16:54:29.764
17, -9856.47, 96628.84, 81611.73, 114898.29, 134045.83, 100849.46, 112747.47, 175510.73, -3183.38, -65449.68, -73901.81, 2520.43, -73322.26, -84519.25, -60850.97, -107248.61, 0.000, 0.000, 0.000, 16:54:29.765
18, -9856.47, 96628.84, 81611.73, 114898.29, 134045.83, 100849.46, 112747.47, 175510.73, -3171.40, -65453.30, -73900.95, 2519.85, -73303.21, -84512.66, -60841.85, -107241.45, 0.000, 0.000, 0.000, 16:54:29.765
19, -9855.93, 96620.27, 81607.91, 114893.22, 134045.67, 100843.78, 112741.84, 175505.78, -3171.40, -65453.30, -73900.95, 2519.85, -73303.21, -84512.66, -60841.85, -107241.45, 0.000, 0.000, 0.000, 16:54:29.765
20, -9855.93, 96620.27, 81607.91, 114893.22, 134045.67, 100843.78, 112741.84, 175505.78, -3161.07, -65460.03, -73907.59, 2512.87, -73311.46, -84520.95, -60847.97, -107244.49, 0.000, 0.000, 0.000, 16:54:29.765
21, -9860.90, 96618.50, 81610.46, 114900.44, 134044.70, 100851.05, 112744.09, 175510.34, -3161.07, -65460.03, -73907.59, 2512.87, -73311.46, -84520.95, -60847.97, -107244.49, 0.000, 0.000, 0.000, 16:54:29.765
22, -9860.90, 96618.50, 81610.46, 114900.44, 134044.70, 100851.05, 112744.09, 175510.34, -3170.19, -65456.84, -73905.70, 2514.08, -73317.81, -84529.71, -60850.54, -107242.37, 0.000, 0.000, 0.000, 16:54:29.765
23, -9860.27, 96610.45, 81598.82, 114887.41, 134028.61, 100822.23, 112737.84, 175526.52, -3170.19, -65456.84, -73905.70, 2514.08, -73317.81, -84529.71, -60850.54, -107242.37, 0.362, 0.898, 0.010, 16:54:29.766
24, -9860.27, 96610.45, 81598.82, 114887.41, 134028.61, 100822.23, 112737.84, 175526.52, -3157.74, -65465.57, -73910.04, 2508.29, -73323.89, -84535.32, -60854.88, -107242.88, 0.000, 0.000, 0.000, 16:54:29.766
25, -9852.83, 96623.10, 81611.18, 114906.58, 134039.34, 100844.32, 112753.37, 175543.16, -3157.74, -65465.57, -73910.04, 2508.29, -73323.89, -84535.32, -60854.88, -107242.88, 0.000, 0.000, 0.000, 16:54:29.766
26, -9852.83, 96623.10, 81611.18, 114906.58, 134039.34, 100844.32, 112753.37, 175543.16, -3148.53, -65458.24, -73905.93, 2516.29, -73319.44, -84510.55, -60837.98, -107221.18, 0.000, 0.000, 0.000, 16:54:29.766
27, -9854.79, 96615.86, 81605.37, 114906.18, 134038.28, 100845.57, 112754.17, 175543.31, -3148.53, -65458.24, -73905.93, 2516.29, -73319.44, -84510.55, -60837.98, -107221.18, 0.000, 0.000, 0.000, 16:54:29.766
