%OpenBCI Raw EEG Data
%
%Sample Rate = 250.0 Hz
%First Column = SampleIndex
%Last Column = Timestamp 
%Other Columns = EEG data in microvolts followed by Accel Data (in G) interleaved with Aux Data
69, -46353.79, 95615.48, 81999.49, 115406.77, 135214.23, 104548.42, 114748.09, 161233.56, 2039.22, -65382.70, -75027.38, 515.27, -74763.03, -85865.61, -62129.31, -108303.30, 0.000, 0.000, 0.000, 16:55:30.031
70, -46353.79, 95615.48, 81999.49, 115406.77, 135214.23, 104548.42, 114748.09, 161233.56, 2028.98, -65395.37, -75033.73, 504.12, -74750.51, -85889.39, -62126.22, -108319.34, 0.000, 0.000, 0.000, 16:55:30.031
71, -46382.39, 95599.59, 81989.34, 115389.80, 135223.44, 104541.81, 114746.32, 161209.50, 2028.98, -65395.37, -75033.73, 504.12, -74750.51, -85889.39, -62126.22, -108319.34, 0.000, 0.000, 0.000, 16:55:30.031
72, -46382.39, 95599.59, 81989.34, 115389.80, 135223.44, 104541.81, 114746.32, 161209.50, 2034.68, -65398.07, -75039.19, 500.03, -74769.51, -85886.28, -62124.23, -108318.67, 0.000, 0.000, 0.000, 16:55:30.032
73, -46379.04, 95602.99, 81997.15, 115398.55, 135226.00, 104566.35, 114745.73, 161200.31, 2034.68, -65398.07, -75039.19, 500.03, -74769.51, -85886.28, -62124.23, -108318.67, 0.000, 0.000, 0.000, 16:55:30.032
74, -46379.04, 95602.99, 81997.15, 115398.55, 135226.00, 104566.35, 114745.73, 161200.31, 2049.83, -65393.34, -75027.16, 509.69, -74742.29, -85877.68, -62125.78, -108321.02, 0.000, 0.000, 0.000, 16:55:30.032
75, -46383.51, 95607.10, 82004.48, 115398.90, 135204.48, 104531.59, 114720.37, 161186.17, 2049.83, -65393.34, -75027.16, 509.69, -74742.29, -85877.68, -62125.78, -108321.02, 0.000, 0.000, 0.000, 16:55:30.032
76, -46383.51, 95607.10, 82004.48, 115398.90, 135204.48, 104531.59, 114720.37, 161186.17, 2066.17, -65392.17, -75020.74, 515.63, -74757.69, -85895.70, -62143.03, -108343.59, 0.306, 0.924, 0.070, 16:55:30.033
77, -46383.00, 95615.10, 82010.63, 115405.98, 135181.31, 104501.48, 114704.88, 161184.84, 2066.17, -65392.17, -75020.74, 515.63, -74757.69, -85895.70, -62143.03, -108343.59, 0.000, 0.000, 0.000, 16:55:30.033
78, -46383.00, 95615.10, 82010.63, 115405.98, 135181.31, 104501.48, 114704.88, 161184.84, 2078.96, -65377.06, -75006.95, 533.45, -74755.41, -85888.01, -62146.39, -108340.51, 0.000, 0.000, 0.000, 16:55:30.033
79, -46377.61, 95629.52, 82018.96, 115426.04, 135159.11, 104511.34, 114697.62, 161170.64, 2078.96, -65377.06, -75006.95, 533.45, -74755.41, -85888.01, -62146.39, -108340.51, 0.000, 0.000, 0.000, 16:55:30.033
80, -46377.61, 95629.52, 82018.96, 115426.04, 135159.11, 104511.34, 114697.62, 161170.64, 2081.01, -65361.37, -74994.30, 550.81, -74756.41, -85874.05, -62148.09, -108329.55, 0.000, 0.000, 0.000, 16:55:30.033
81, -46373.34, 95648.12, 82029.11, 115437.77, 135178.77, 104511.01, 114698.55, 161196.89, 2081.01, -65361.37, -74994.30, 550.81, -74756.41, -85874.05, -62148.09, -108329.55, 0.000, 0.000, 0.000, 16:55:30.034
82, -46373.34, 95648.12, 82029.11, 115437.77, 135178.77, 104511.01, 114698.55, 161196.89, 2109.40, -65357.59, -74987.40, 555.78, -74746.27, -85873.74, -62146.68, -108327.77, 0.000, 0.000, 0.000, 16:55:30.034
83, -46360.82, 95647.36, 82026.56, 115436.83, 135160.81, 104498.34, 114688.18, 161197.58, 2109.40, -65357.59, -74987.40, 555.78, -74746.27, -85873.74, -62146.68, -108327.77, 0.000, 0.000, 0.000, 16:55:30.034
84, -46360.82, 95647.36, 82026.56, 115436.83, 135160.81, 104498.34, 114688.18, 161197.58, 2111.35, -65353.53, -74989.30, 554.86, -74757.38, -85854.86, -62159.59, -108330.54, 0.000, 0.000, 0.000, 16:55:30.034
85, -46361.07, 95639.36, 82027.28, 115442.94, 135150.67, 104504.21, 114687.27, 161186.30, 2111.35, -65353.53, -74989.30, 554.86, -74757.38, -85854.86, -62159.59, -108330.54, 0.000, 0.000, 0.000, 16:55:30.034
86, -46361.07, 95639.36, 82027.28, 115442.94, 135150.67, 104504.21, 114687.27, 161186.30, 2121.72, -65355.83, -74995.55, 548.44, -74751.49, -85861.18, -62156.85, -108329.36, 0.300, 0.918, 0.066, 16:55:30.034
87, -46349.87, 95631.98, 82032.62, 115450.40, 135163.30, 104515.19, 114699.72, 161198.77, 2121.72, -65355.83, -74995.55, 548.44, -74751.49, -85861.18, -62156.85, -108329.36, 0.000, 0.000, 0.000, 16:55:30.035
88, -46349.87, 95631.98, 82032.62, 115450.40, 135163.30, 104515.19, 114699.72, 161198.77, 2106.65, -65345.86, -74986.50, 562.12, -74761.51, -85838.95, -62139.97, -108304.30, 0.000, 0.000, 0.000, 16:55:30.035
89, -46373.95, 95629.34, 82049.63, 115462.09, 135190.05, 104553.63, 114720.33, 161217.98, 2106.65, -65345.86, -74986.50, 562.12, -74761.51, -85838.95, -62139.97, -108304.30, 0.000, 0.000, 0.000, 16:55:30.035
90, -46373.95, 95629.34, 82049.63, 115462.09, 135190.05, 104553.63, 114720.33, 161217.98, 2089.49, -65355.40, -74982.68, 562.30, -74737.08, -85843.50, -62114.89, -108294.17, 0.000, 0.000, 0.000, 16:55:30.035
91, -46383.73, 95622.68, 82070.48, 115466.52, 135215.73, 104549.34, 114738.90, 161240.45, 2089.49, -65355.40, -74982.68, 562.30, -74737.08, -85843.50, -62114.89, -108294.17, 0.000, 0.000, 0.000, 16:55:30.035
92, -46383.73, 95622.68, 82070.48, 115466.52, 135215.73, 104549.34, 114738.90, 161240.45, 2089.13, -65369.57, -74988.06, 550.66, -74730.84, -85856.78, -62097.59, -108298.87, 0.000, 0.000, 0.000, 16:55:30.035
93, -46379.67, 95600.64, 82052.96, 115431.09, 135224.83, 104514.27, 114730.72, 161245.97, 2089.13, -65369.57, -74988.06, 550.66, -74730.84, -85856.78, -62097.59, -108298.87, 0.000, 0.000, 0.000, 16:55:30.036
94, -46379.67, 95600.64, 82052.96, 115431.09, 135224.83, 104514.27, 114730.72, 161245.97, 2085.31, -65404.22, -75013.34, 516.53, -74736.90, -85876.80, -62111.56, -108329.88, 0.000, 0.000, 0.000, 16:55:30.036
95, -46372.47, 95584.48, 82042.92, 115415.15, 135228.92, 104498.23, 114733.18, 161236.73, 2085.31, -65404.22, -75013.34, 516.53, -74736.90, -85876.80, -62111.56, -108329.88, 0.000, 0.000, 0.000, 16:55:30.036
96, -46372.47, 95584.48, 82042.92, 115415.15, 135228.92, 104498.23, 114733.18, 161236.73, 2095.61, -65406.72, -75007.80, 514.47, -74743.85, -85878.33, -62107.09, -108335.52, 0.296, 0.920, 0.066, 16:55:30.036
97, -46358.03, 95583.72, 82035.68, 115409.16, 135239.31, 104514.09, 114732.55, 161241.56, 2095.61, -65406.72, -75007.80, 514.47, -74743.85, -85878.33, -62107.09, -108335.52, 0.000, 0.000, 0.000, 16:55:30.036
98, -46358.03, 95583.72, 82035.68, 115409.16, 135239.31, 104514.09, 114732.55, 161241.56, 2101.22, -65412.67, -75009.79, 511.01, -74742.48, -85889.48, -62114.33, -108343.55, 0.000, 0.000, 0.000, 16:55:30.036
99, -46347.66, 95583.32, 82023.32, 115403.55, 135227.52, 104484.59, 114722.20, 161234.22, 2101.22, -65412.67, -75009.79, 511.01, -74742.48, -85889.48, -62114.33, -108343.55, 0.000, 0.000, 0.000, 16:55:30.036
100, -46347.66, 95583.32, 82023.32, 115403.55, 135227.52, 104484.59, 114722.20, 161234.22, 2101.02, -65407.59, -75008.83, 517.64, -74759.19, -85883.47, -62126.71, -108359.40, 0.000, 0.000, 0.000, 16:55:30.037
101, -46339.84, 95594.83, 82029.02, 115418.13, 135214.38, 104477.23, 114714.94, 161216.16, 2101.02, -65407.59, -75008.83, 517.64, -74759.19, -85883.47, -62126.71, -108359.40, 0.000, 0.000, 0.000, 16:55:30.037
102, -46339.84, 95594.83, 82029.02, 115418.13, 135214.38, 104477.23, 114714.94, 161216.16, 2097.44, -65387.14, -74992.85, 537.05, -74730.48, -85864.54, -62133.04, -108350.37, 0.000, 0.000, 0.000, 16:55:30.037
103, -46348.53, 95616.76, 82037.96, 115431.02, 135199.47, 104478.58, 114698.80, 161199.66, 2097.44, -65387.14, -74992.85, 537.05, -74730.48, -85864.54, -62133.04, -108350.37, 0.000, 0.000, 0.000, 16:55:30.037
104, -46348.53, 95616.76, 82037.96, 115431.02, 135199.47, 104478.58, 114698.80, 161199.66, 2090.72, -65384.01, -74992.60, 540.15, -74738.35, -85870.91, -62146.86, -108351.62, 0.000, 0.000, 0.000, 16:55:30.037
105, -46343.21, 95611.20, 82030.30, 115427.47, 135174.72, 104458.35, 114685.68, 161206.47, 2090.72, -65384.01, -74992.60, 540.15, -74738.35, -85870.91, -62146.86, -108351.62, 0.000, 0.000, 0.000, 16:55:30.037
106, -46343.21, 95611.20, 82030.30, 115427.47, 135174.72, 104458.35, 114685.68, 161206.47, 2108.78, -65377.73, -74985.74, 546.97, -74761.13, -85861.01, -62152.13, -108353.45, 0.298, 0.922, 0.064, 16:55:30.038
107, -46339.01, 95619.10, 82047.13, 115443.27, 135188.47, 104468.90, 114689.08, 161204.02, 2108.78, -65377.73, -74985.74, 546.97, -74761.13, -85861.01, -62152.13, -108353.45, 0.000, 0.000, 0.000, 16:55:30.038
108, -46339.01, 95619.10, 82047.13, 115443.27, 135188.47, 104468.90, 114689.08, 161204.02, 2107.68, -65372.68, -74986.81, 549.00, -74777.05, -85869.52, -62154.54, -108346.84, 0.000, 0.000, 0.000, 16:55:30.038
109, -46344.20, 95608.78, 82044.20, 115438.30, 135173.38, 104455.06, 114681.63, 161215.64, 2107.68, -65372.68, -74986.81, 549.00, -74777.05, -85869.52, -62154.54, -108346.84, 0.000, 0.000, 0.000, 16:55:30.038
110, -46344.20, 95608.78, 82044.20, 115438.30, 135173.38, 104455.06, 114681.63, 161215.64, 2117.69, -65366.18, -74971.01, 562.17, -74730.10, -85858.93, -62147.50, -108338.63, 0.000, 0.000, 0.000, 16:55:30.038
111, -46345.13, 95629.97, 82079.38, 115463.74, 135188.05, 104477.34, 114702.73, 161242.33, 2117.69, -65366.18, -74971.01, 562.17, -74730.10, -85858.93, -62147.50, -108338.63, 0.000, 0.000, 0.000, 16:55:30.038
112, -46345.13, 95629.97, 82079.38, 115463.74, 135188.05, 104477.34, 114702.73, 161242.33, 2130.59, -65356.45, -74954.18, 572.34, -74719.33, -85842.45, -62128.23, -108313.35, 0.000, 0.000, 0.000, 16:55:30.039
113, -46348.75, 95622.41, 82083.76, 115457.66, 135189.66, 104484.86, 114698.77, 161253.48, 2130.59, -65356.45, -74954.18, 572.34, -74719.33, -85842.45, -62128.23, -108313.35, 0.000, 0.000, 0.000, 16:55:30.039
114, -46348.75, 95622.41, 82083.76, 115457.66, 135189.66, 104484.86, 114698.77, 161253.48, 2137.88, -65368.21, -74954.59, 561.99, -74724.16, -85851.33, -62125.53, -108316.93, 0.000, 0.000, 0.000, 16:55:30.039
115, -46360.58, 95622.46, 82089.77, 115455.54, 135201.92, 104483.16, 114711.95, 161268.05, 2137.88, -65368.21, -74954.59, 561.99, -74724.16, -85851.33, -62125.53, -108316.93, 0.000, 0.000, 0.000, 16:55:30.039
116, -46360.58, 95622.46, 82089.77, 115455.54, 135201.92, 104483.16, 114711.95, 161268.05, 2147.40, -65390.50, -74970.72, 538.57, -74750.96, -85871.38, -62125.06, -108326.45, 0.296, 0.922, 0.070, 16:55:30.039
117, -46357.14, 95597.55, 82067.49, 115428.43, 135193.27, 104462.38, 114697.52, 161235.64, 2147.40, -65390.50, -74970.72, 538.57, -74750.96, -85871.38, -62125.06, -108326.45, 0.000, 0.000, 0.000, 16:55:30.040
118, -46357.14, 95597.55, 82067.49, 115428.43, 135193.27, 104462.38, 114697.52, 161235.64, 2155.80, -65404.73, -74981.95, 522.27, -74758.89, -85877.70, -62122.18, -108342.26, 0.000, 0.000, 0.000, 16:55:30.040
119, -46368.74, 95582.47, 82070.08, 115417.25, 135210.80, 104450.55, 114703.41, 161242.70, 2155.80, -65404.73, -74981.95, 522.27, -74758.89, -85877.70, -62122.18, -108342.26, 0.000, 0.000, 0.000, 16:55:30.040
120, -46368.74, 95582.47, 82070.08, 115417.25, 135210.80, 104450.55, 114703.41, 161242.70, 2155.33, -65417.54, -74993.34, 512.95, -74714.30, -85893.57, -62118.96, -108358.98, 0.000, 0.000, 0.000, 16:55:30.040
121, -46402.67, 95575.01, 82081.59, 115422.84, 135220.30, 104465.97, 114710.89, 161238.59, 2155.33, -65417.54, -74993.34, 512.95, -74714.30, -85893.57, -62118.96, -108358.98, 0.000, 0.000, 0.000, 16:55:30.040
122, -46402.67, 95575.01, 82081.59, 115422.84, 135220.30, 104465.97, 114710.89, 161238.59, 2133.83, -65396.48, -74980.76, 532.28, -74703.55, -85870.75, -62106.53, -108342.50, 0.000, 0.000, 0.000, 16:55:30.040
123, -46420.77, 95583.25, 82086.98, 115425.84, 135227.80, 104441.45, 114706.11, 161268.59, 2133.83, -65396.48, -74980.76, 532.28, -74703.55, -85870.75, -62106.53, -108342.50, 0.000, 0.000, 0.000, 16:55:30.040
124, -46420.77, 95583.25, 82086.98, 115425.84, 135227.80, 104441.45, 114706.11, 161268.59, 2140.60, -65387.79, -74982.45, 538.57, -74725.08, -85876.14, -62120.66, -108352.55, 0.000, 0.000, 0.000, 16:55:30.041
125, -46445.85, 95593.78, 82071.20, 115431.16, 135199.23, 104479.09, 114685.59, 161235.59, 2140.60, -65387.79, -74982.45, 538.57, -74725.08, -85876.14, -62120.66, -108352.55, 0.296, 0.920, 0.068, 16:55:30.041
126, -46445.85, 95593.78, 82071.20, 115431.16, 135199.23, 104479.09, 114685.59, 161235.59, 2134.37, -65379.63, -74985.65, 544.94, -74737.37, -85868.07, -62143.52, -108364.72, 0.000, 0.000, 0.000, 16:55:30.041
127, -46468.85, 95605.27, 82064.74, 115432.52, 135185.98, 104424.66, 114682.35, 161261.02, 2134.37, -65379.63, -74985.65, 544.94, -74737.37, -85868.07, -62143.52, -108364.72, 0.000, 0.000, 0.000, 16:55:30.041
128, -46468.85, 95605.27, 82064.74, 115432.52, 135185.98, 104424.66, 114682.35, 161261.02, 2135.57, -65376.10, -74982.27, 550.77, -74778.43, -85856.11, -62157.52, -108378.09, 0.000, 0.000, 0.000, 16:55:30.041
129, -46473.88, 95592.93, 82055.93, 115436.43, 135164.34, 104454.46, 114669.38, 161229.97, 2135.57, -65376.10, -74982.27, 550.77, -74778.43, -85856.11, -62157.52, -108378.09, 0.000, 0.000, 0.000, 16:55:30.041
130, -46473.88, 95592.93, 82055.93, 115436.43, 135164.34, 104454.46, 114669.38, 161229.97, 2146.04, -65371.65, -74983.26, 553.18, -74733.52, -85862.79, -62165.61, -108364.80, 0.000, 0.000, 0.000, 16:55:30.042
131, -46490.26, 95589.87, 82056.31, 115437.37, 135169.08, 104452.54, 114667.24, 161222.59, 2146.04, -65371.65, -74983.26, 553.18, -74733.52, -85862.79, -62165.61, -108364.80, 0.000, 0.000, 0.000, 16:55:30.042
132, -46490.26, 95589.87, 82056.31, 115437.37, 135169.08, 104452.54, 114667.24, 161222.59, 2145.23, -65358.71, -74980.51, 562.48, -74750.16, -85854.27, -62163.82, -108351.53, 0.000, 0.000, 0.000, 16:55:30.042
133, -46509.20, 95600.62, 82074.13, 115461.66, 135176.63, 104477.64, 114687.91, 161254.80, 2145.23, -65358.71, -74980.51, 562.48, -74750.16, -85854.27, -62163.82, -108351.53, 0.000, 0.000, 0.000, 16:55:30.042
134, -46509.20, 95600.62, 82074.13, 115461.66, 135176.63, 104477.64, 114687.91, 161254.80, 2148.16, -65349.10, -74975.77, 573.55, -74774.79, -85837.67, -62151.10, -108331.46, 0.000, 0.000, 0.000, 16:55:30.042
135, -46525.13, 95581.58, 82064.98, 115456.70, 135173.20, 104461.68, 114687.13, 161287.17, 2148.16, -65349.10, -74975.77, 573.55, -74774.79, -85837.67, -62151.10, -108331.46, 0.292, 0.916, 0.066, 16:55:30.042
136, -46525.13, 95581.58, 82064.98, 115456.70, 135173.20, 104461.68, 114687.13, 161287.17, 2157.81, -65362.04, -74991.48, 560.54, -74776.88, -85841.88, -62152.09, -108340.04, 0.000, 0.000, 0.000, 16:55:30.043
137, -46552.82, 95595.26, 82078.13, 115466.09, 135204.47, 104473.91, 114696.36, 161282.20, 2157.81, -65362.04, -74991.48, 560.54, -74776.88, -85841.88, -62152.09, -108340.04, 0.000, 0.000, 0.000, 16:55:30.043
138, -46552.82, 95595.26, 82078.13, 115466.09, 135204.47, 104473.91, 114696.36, 161282.20, 2168.79, -65350.13, -74977.90, 573.59, -74751.25, -85835.81, -62124.28, -108315.39, 0.000, 0.000, 0.000, 16:55:30.043
139, -46550.73, 95602.34, 82091.52, 115472.39, 135197.58, 104483.61, 114721.42, 161289.91, 2168.79, -65350.13, -74977.90, 573.59, -74751.25, -85835.81, -62124.28, -108315.39, 0.000, 0.000, 0.000, 16:55:30.043
140, -46550.73, 95602.34, 82091.52, 115472.39, 135197.58, 104483.61, 114721.42, 161289.91, 2178.51, -65350.04, -74973.42, 574.53, -74741.88, -85822.85, -62112.93, -108306.45, 0.000, 0.000, 0.000, 16:55:30.043
141, -46583.40, 95565.39, 82075.29, 115447.90, 135202.33, 104467.76, 114703.34, 161275.50, 2178.51, -65350.04, -74973.42, 574.53, -74741.88, -85822.85, -62112.93, -108306.45, 0.000, 0.000, 0.000, 16:55:30.043
142, -46583.40, 95565.39, 82075.29, 115447.90, 135202.33, 104467.76, 114703.34, 161275.50, 2192.28, -65403.97, -75019.83, 521.78, -74769.40, -85877.10, -62139.97, -108350.52, 0.000, 0.000, 0.000, 16:55:30.044
143, -46585.44, 95536.43, 82052.54, 115423.96, 135196.78, 104462.04, 114690.51, 161252.59, 2192.28, -65403.97, -75019.83, 521.78, -74769.40, -85877.10, -62139.97, -108350.52, 0.000, 0.000, 0.000, 16:55:30.044
144, -46585.44, 95536.43, 82052.54, 115423.96, 135196.78, 104462.04, 114690.51, 161252.59, 2232.83, -65405.52, -75014.66, 519.14, -74792.11, -85856.45, -62138.56, -108348.45, 0.000, 0.000, 0.000, 16:55:30.044
145, -46595.88, 95553.08, 82069.61, 115428.52, 135211.70, 104460.56, 114704.14, 161254.38, 2232.83, -65405.52, -75014.66, 519.14, -74792.11, -85856.45, -62138.56, -108348.45, 0.294, 0.918, 0.062, 16:55:30.045
146, -46595.88, 95553.08, 82069.61, 115428.52, 135211.70, 104460.56, 114704.14, 161254.38, 2249.21, -65408.71, -75005.79, 519.23, -74745.26, -85861.56, -62135.59, -108348.31, 0.000, 0.000, 0.000, 16:55:30.045
147, -46597.08, 95552.52, 82065.66, 115417.66, 135197.97, 104447.02, 114693.73, 161242.66, 2249.21, -65408.71, -75005.79, 519.23, -74745.26, -85861.56, -62135.59, -108348.31, 0.000, 0.000, 0.000, 16:55:30.045
148, -46597.08, 95552.52, 82065.66, 115417.66, 135197.97, 104447.02, 114693.73, 161242.66, 2301.16, -65409.85, -74999.58, 517.15, -74748.95, -85876.12, -62144.98, -108356.73, 0.000, 0.000, 0.000, 16:55:30.045
149, -46584.95, 95566.13, 82076.20, 115418.48, 135193.14, 104431.34, 114683.53, 161233.55, 2301.16, -65409.85, -74999.58, 517.15, -74748.95, -85876.12, -62144.98, -108356.73, 0.000, 0.000, 0.000, 16:55:30.045
150, -46584.95, 95566.13, 82076.20, 115418.48, 135193.14, 104431.34, 114683.53, 161233.55, 2257.97, -65403.77, -74988.29, 527.50, -74747.52, -85867.69, -62151.15, -108369.95, 0.000, 0.000, 0.000, 16:55:30.046
151, -46572.03, 95574.91, 82074.69, 115413.41, 135178.88, 104408.50, 114665.61, 161216.78, 2257.97, -65403.77, -74988.29, 527.50, -74747.52, -85867.69, -62151.15, -108369.95, 0.000, 0.000, 0.000, 16:55:30.046
152, -46572.03, 95574.91, 82074.69, 115413.41, 135178.88, 104408.50, 114665.61, 161216.78, 2114.77, -65396.20, -74979.05, 539.68, -74748.21, -85865.88, -62160.60, -108372.90, 0.000, 0.000, 0.000, 16:55:30.046
153, -46569.84, 95587.74, 82082.27, 115429.27, 135174.63, 104414.05, 114673.92, 161201.67, 2114.77, -65396.20, -74979.05, 539.68, -74748.21, -85865.88, -62160.60, -108372.90, 0.000, 0.000, 0.000, 16:55:30.046
154, -46569.84, 95587.74, 82082.27, 115429.27, 135174.63, 104414.05, 114673.92, 161201.67, 1970.60, -65387.88, -74985.05, 544.44, -74785.49, -85878.17, -62165.12, -108373.21, 0.000, 0.000, 0.000, 16:55:30.046
155, -46551.06, 95570.49, 82069.88, 115419.58, 135151.30, 104394.60, 114664.31, 161200.80, 1970.60, -65387.88, -74985.05, 544.44, -74785.49, -85878.17, -62165.12, -108373.21, 0.298, 0.918, 0.066, 16:55:30.047
156, -46551.06, 95570.49, 82069.88, 115419.58, 135151.30, 104394.60, 114664.31, 161200.80, 1861.03, -65384.71, -74992.18, 541.76, -74749.77, -85875.96, -62175.64, -108370.48, 0.000, 0.000, 0.000, 16:55:30.047
157, -46519.41, 95573.64, 82081.02, 115427.65, 135145.06, 104405.60, 114667.17, 161203.09, 1861.03, -65384.71, -74992.18, 541.76, -74749.77, -85875.96, -62175.64, -108370.48, 0.000, 0.000, 0.000, 16:55:30.047
158, -46519.41, 95573.64, 82081.02, 115427.65, 135145.06, 104405.60, 114667.17, 161203.09, 1737.11, -65371.81, -74995.27, 548.69, -74756.19, -85874.66, -62167.80, -108347.24, 0.000, 0.000, 0.000, 16:55:30.047
159, -46522.23, 95567.88, 82091.80, 115440.72, 135156.33, 104423.63, 114692.16, 161232.41, 1737.11, -65371.81, -74995.27, 548.69, -74756.19, -85874.66, -62167.80, -108347.24, 0.000, 0.000, 0.000, 16:55:30.047
160, -46522.23, 95567.88, 82091.80, 115440.72, 135156.33, 104423.63, 114692.16, 161232.41, 1612.97, -65359.38, -75000.05, 552.74, -74794.55, -85876.43, -62150.72, -108329.54, 0.000, 0.000, 0.000, 16:55:30.047
161, -46522.16, 95563.70, 82100.63, 115447.85, 135164.81, 104421.63, 114708.52, 161256.20, 1612.97, -65359.38, -75000.05, 552.74, -74794.55, -85876.43, -62150.72, -108329.54, 0.000, 0.000, 0.000, 16:55:30.048
162, -46522.16, 95563.70, 82100.63, 115447.85, 135164.81, 104421.63, 114708.52, 161256.20, 1510.49, -65350.11, -74994.77, 560.69, -74761.73, -85844.29, -62126.14, -108290.27, 0.000, 0.000, 0.000, 16:55:30.048
163, -46501.35, 95568.41, 82111.99, 115459.45, 135175.97, 104456.74, 114723.81, 161240.00, 1510.49, -65350.11, -74994.77, 560.69, -74761.73, -85844.29, -62126.14, -108290.27, 0.000, 0.000, 0.000, 16:55:30.048
164, -46501.35, 95568.41, 82111.99, 115459.45, 135175.97, 104456.74, 114723.81, 161240.00, 1413.48, -65346.11, -75006.38, 554.41, -74763.74, -85861.45, -62118.65, -108279.71, 0.000, 0.000, 0.000, 16:55:30.048
165, -46465.68, 95559.34, 82100.05, 115453.30, 135189.58, 104472.72, 114722.38, 161221.31, 1413.48, -65346.11, -75006.38, 554.41, -74763.74, -85861.45, -62118.65, -108279.71, 0.304, 0.920, 0.062, 16:55:30.048
166, -46465.68, 95559.34, 82100.05, 115453.30, 135189.58, 104472.72, 114722.38, 161221.31, 1318.69, -65345.08, -75010.38, 552.09, -74790.25, -85876.59, -62113.06, -108283.98, 0.000, 0.000, 0.000, 16:55:30.048
167, -46440.62, 95565.75, 82108.10, 115449.66, 135208.69, 104444.65, 114740.91, 161257.17, 1318.69, -65345.08, -75010.38, 552.09, -74790.25, -85876.59, -62113.06, -108283.98, 0.000, 0.000, 0.000, 16:55:30.049
168, -46440.62, 95565.75, 82108.10, 115449.66, 135208.69, 104444.65, 114740.91, 161257.17, 1233.44, -65343.11, -75001.79, 552.92, -74739.36, -85867.64, -62103.34, -108287.60, 0.000, 0.000, 0.000, 16:55:30.049
169, -46407.52, 95565.44, 82110.45, 115454.89, 135218.48, 104477.37, 114741.40, 161241.13, 1233.44, -65343.11, -75001.79, 552.92, -74739.36, -85867.64, -62103.34, -108287.60, 0.000, 0.000, 0.000, 16:55:30.049
170, -46407.52, 95565.44, 82110.45, 115454.89, 135218.48, 104477.37, 114741.40, 161241.13, 1149.75, -65343.11, -75007.27, 547.44, -74772.91, -85862.28, -62102.33, -108289.55, 0.000, 0.000, 0.000, 16:55:30.049
171, -46374.08, 95545.12, 82092.75, 115442.17, 135203.94, 104445.01, 114734.00, 161251.58, 1149.75, -65343.11, -75007.27, 547.44, -74772.91, -85862.28, -62102.33, -108289.55, 0.000, 0.000, 0.000, 16:55:30.049
172, -46374.08, 95545.12, 82092.75, 115442.17, 135203.94, 104445.01, 114734.00, 161251.58, 1091.32, -65352.27, -75023.92, 531.19, -74785.09, -85862.95, -62118.36, -108306.34, 0.000, 0.000, 0.000, 16:55:30.050
173, -46342.36, 95533.90, 82081.66, 115434.04, 135174.58, 104425.78, 114698.82, 161228.05, 1091.32, -65352.27, -75023.92, 531.19, -74785.09, -85862.95, -62118.36, -108306.34, 0.000, 0.000, 0.000, 16:55:30.050
174, -46342.36, 95533.90, 82081.66, 115434.04, 135174.58, 104425.78, 114698.82, 161228.05, 1042.82, -65352.05, -75020.55, 529.71, -74765.04, -85871.51, -62141.85, -108314.07, 0.000, 0.000, 0.000, 16:55:30.050
175, -46339.88, 95532.63, 82088.79, 115442.42, 135169.02, 104432.76, 114684.56, 161221.36, 1042.82, -65352.05, -75020.55, 529.71, -74765.04, -85871.51, -62141.85, -108314.07, 0.310, 0.922, 0.060, 16:55:30.050
176, -46339.88, 95532.63, 82088.79, 115442.42, 135169.02, 104432.76, 114684.56, 161221.36, 1028.74, -65358.91, -75023.13, 521.71, -74763.05, -85881.88, -62159.59, -108322.63, 0.000, 0.000, 0.000, 16:55:30.050
177, -46321.84, 95526.88, 82076.23, 115428.92, 135151.03, 104417.16, 114659.70, 161201.31, 1028.74, -65358.91, -75023.13, 521.71, -74763.05, -85881.88, -62159.59, -108322.63, 0.000, 0.000, 0.000, 16:55:30.050
178, -46321.84, 95526.88, 82076.23, 115428.92, 135151.03, 104417.16, 114659.70, 161201.31, 1012.49, -65373.66, -75023.98, 516.86, -74770.74, -85890.35, -62175.11, -108342.63, 0.000, 0.000, 0.000, 16:55:30.051
179, -46307.31, 95516.38, 82074.64, 115424.54, 135142.91, 104397.46, 114656.29, 161202.25, 1012.49, -65373.66, -75023.98, 516.86, -74770.74, -85890.35, -62175.11, -108342.63, 0.000, 0.000, 0.000, 16:55:30.051
180, -46307.31, 95516.38, 82074.64, 115424.54, 135142.91, 104397.46, 114656.29, 161202.25, 1014.10, -65374.38, -75020.48, 518.58, -74790.59, -85884.16, -62173.23, -108342.68, 0.000, 0.000, 0.000, 16:55:30.051
181, -46289.75, 95507.91, 82074.48, 115424.38, 135139.11, 104384.92, 114658.37, 161204.83, 1014.10, -65374.38, -75020.48, 518.58, -74790.59, -85884.16, -62173.23, -108342.68, 0.000, 0.000, 0.000, 16:55:30.051
182, -46289.75, 95507.91, 82074.48, 115424.38, 135139.11, 104384.92, 114658.37, 161204.83, 996.02, -65379.57, -75020.43, 514.89, -74793.47, -85908.75, -62171.40, -108347.98, 0.000, 0.000, 0.000, 16:55:30.051
183, -46275.29, 95509.38, 82079.96, 115424.34, 135129.45, 104390.80, 114669.54, 161225.83, 996.02, -65379.57, -75020.43, 514.89, -74793.47, -85908.75, -62171.40, -108347.98, 0.000, 0.000, 0.000, 16:55:30.051
184, -46275.29, 95509.38, 82079.96, 115424.34, 135129.45, 104390.80, 114669.54, 161225.83, 976.17, -65370.96, -75011.47, 523.28, -74772.77, -85885.21, -62157.18, -108335.02, 0.306, 0.932, 0.060, 16:55:30.052
185, -46248.55, 95515.28, 82094.96, 115435.83, 135154.72, 104396.26, 114685.19, 161236.92, 976.17, -65370.96, -75011.47, 523.28, -74772.77, -85885.21, -62157.18, -108335.02, 0.000, 0.000, 0.000, 16:55:30.052
186, -46248.55, 95515.28, 82094.96, 115435.83, 135154.72, 104396.26, 114685.19, 161236.92, 949.17, -65370.29, -75008.79, 524.62, -74761.22, -85886.53, -62142.00, -108318.78, 0.000, 0.000, 0.000, 16:55:30.052
187, -46233.42, 95505.02, 82096.19, 115431.73, 135166.50, 104386.51, 114682.02, 161229.44, 949.17, -65370.29, -75008.79, 524.62, -74761.22, -85886.53, -62142.00, -108318.78, 0.000, 0.000, 0.000, 16:55:30.052
188, -46233.42, 95505.02, 82096.19, 115431.73, 135166.50, 104386.51, 114682.02, 161229.44, 909.05, -65378.36, -75013.19, 520.35, -74764.08, -85894.69, -62134.90, -108308.80, 0.000, 0.000, 0.000, 16:55:30.052
189, -46228.43, 95510.14, 82103.95, 115441.93, 135188.78, 104411.56, 114701.10, 161247.20, 909.05, -65378.36, -75013.19, 520.35, -74764.08, -85894.69, -62134.90, -108308.80, 0.000, 0.000, 0.000, 16:55:30.512
190, -46228.43, 95510.14, 82103.95, 115441.93, 135188.78, 104411.56, 114701.10, 161247.20, 871.20, -65377.64, -75012.48, 520.35, -74771.09, -85892.56, -62116.59, -108306.24, 0.000, 0.000, 0.000, 16:55:30.512
191, -46216.43, 95513.52, 82110.29, 115445.30, 135212.05, 104411.95, 114716.37, 161268.05, 871.20, -65377.64, -75012.48, 520.35, -74771.09, -85892.56, -62116.59, -108306.24, 0.000, 0.000, 0.000, 16:55:30.513
192, -46216.43, 95513.52, 82110.29, 115445.30, 135212.05, 104411.95, 114716.37, 161268.05, 835.42, -65379.90, -75020.97, 515.12, -74764.98, -85867.30, -62107.29, -108293.70, 0.000, 0.000, 0.000, 16:55:30.513
193, -46219.29, 95498.63, 82104.03, 115440.48, 135214.11, 104426.50, 114716.91, 161238.84, 835.42, -65379.90, -75020.97, 515.12, -74764.98, -85867.30, -62107.29, -108293.70, 0.000, 0.000, 0.000, 16:55:30.513
194, -46219.29, 95498.63, 82104.03, 115440.48, 135214.11, 104426.50, 114716.91, 161238.84, 788.50, -65384.71, -75025.75, 506.47, -74787.84, -85888.56, -62108.99, -108302.58, 0.308, 0.924, 0.058, 16:55:30.513
195, -46231.45, 95497.67, 82105.02, 115437.32, 135219.67, 104410.56, 114716.81, 161252.66, 788.50, -65384.71, -75025.75, 506.47, -74787.84, -85888.56, -62108.99, -108302.58, 0.000, 0.000, 0.000, 16:55:30.514
196, -46231.45, 95497.67, 82105.02, 115437.32, 135219.67, 104410.56, 114716.81, 161252.66, 770.20, -65378.09, -75015.29, 514.58, -74736.50, -85890.42, -62105.57, -108308.73, 0.000, 0.000, 0.000, 16:55:30.514
197, -46222.18, 95497.11, 82098.83, 115432.67, 135216.36, 104397.24, 114703.94, 161247.67, 770.20, -65378.09, -75015.29, 514.58, -74736.50, -85890.42, -62105.57, -108308.73, 0.000, 0.000, 0.000, 16:55:30.514
198, -46222.18, 95497.11, 82098.83, 115432.67, 135216.36, 104397.24, 114703.94, 161247.67, 774.31, -65389.40, -75030.78, 501.51, -74763.70, -85910.94, -62131.79, -108335.59, 0.000, 0.000, 0.000, 16:55:30.514
199, -46215.16, 95495.50, 82090.06, 115427.84, 135187.75, 104372.18, 114679.96, 161228.27, 774.31, -65389.40, -75030.78, 501.51, -74763.70, -85910.94, -62131.79, -108335.59, 0.000, 0.000, 0.000, 16:55:30.514
200, -46215.16, 95495.50, 82090.06, 115427.84, 135187.75, 104372.18, 114679.96, 161228.27, 751.29, -65366.42, -75011.27, 522.72, -74754.09, -85869.30, -62145.02, -108326.09, 0.000, 0.000, 0.000, 16:55:30.514
201, -46237.09, 95523.91, 82100.46, 115448.37, 135199.44, 104409.60, 114680.96, 161225.11, 751.29, -65366.42, -75011.27, 522.72, -74754.09, -85869.30, -62145.02, -108326.09, 0.000, 0.000, 0.000, 16:55:30.515
202, -46237.09, 95523.91, 82100.46, 115448.37, 135199.44, 104409.60, 114680.96, 161225.11, 758.64, -65367.68, -75006.22, 529.09, -74760.34, -85869.30, -62143.43, -108324.41, 0.000, 0.000, 0.000, 16:55:30.515
203, -46226.49, 95507.21, 82090.94, 115440.05, 135171.77, 104381.08, 114672.96, 161238.53, 758.64, -65367.68, -75006.22, 529.09, -74760.34, -85869.30, -62143.43, -108324.41, 0.000, 0.000, 0.000, 16:55:30.515
204, -46226.49, 95507.21, 82090.94, 115440.05, 135171.77, 104381.08, 114672.96, 161238.53, 763.65, -65377.78, -75009.75, 520.75, -74762.54, -85881.81, -62156.85, -108328.93, 0.302, 0.926, 0.056, 16:55:30.515
205, -46218.40, 95500.44, 82092.08, 115440.66, 135167.16, 104391.92, 114665.90, 161216.94, 763.65, -65377.78, -75009.75, 520.75, -74762.54, -85881.81, -62156.85, -108328.93, 0.000, 0.000, 0.000, 16:55:30.515
206, -46218.40, 95500.44, 82092.08, 115440.66, 135167.16, 104391.92, 114665.90, 161216.94, 761.46, -65379.54, -75008.27, 519.97, -74784.48, -85891.02, -62157.70, -108328.80, 0.000, 0.000, 0.000, 16:55:30.515
207, -46227.88, 95498.77, 82096.45, 115441.57, 135163.98, 104400.57, 114675.73, 161233.59, 761.46, -65379.54, -75008.27, 519.97, -74784.48, -85891.02, -62157.70, -108328.80, 0.000, 0.000, 0.000, 16:55:30.516
208, -46227.88, 95498.77, 82096.45, 115441.57, 135163.98, 104400.57, 114675.73, 161233.59, 752.40, -65383.41, -75009.41, 517.82, -74754.85, -85891.27, -62150.23, -108328.95, 0.000, 0.000, 0.000, 16:55:30.516
209, -46221.68, 95489.02, 82097.53, 115439.73, 135170.25, 104393.93, 114677.59, 161248.41, 752.40, -65383.41, -75009.41, 517.82, -74754.85, -85891.27, -62150.23, -108328.95, 0.000, 0.000, 0.000, 16:55:30.516
210, -46221.68, 95489.02, 82097.53, 115439.73, 135170.25, 104393.93, 114677.59, 161248.41, 760.61, -65391.64, -75012.05, 512.66, -74761.80, -85881.57, -62149.31, -108324.84, 0.000, 0.000, 0.000, 16:55:30.516
211, -46212.07, 95477.75, 82093.40, 115443.49, 135187.45, 104394.67, 114683.91, 161235.64, 760.61, -65391.64, -75012.05, 512.66, -74761.80, -85881.57, -62149.31, -108324.84, 0.000, 0.000, 0.000, 16:55:30.516
212, -46212.07, 95477.75, 82093.40, 115443.49, 135187.45, 104394.67, 114683.91, 161235.64, 771.34, -65390.65, -75023.18, 511.41, -74794.43, -85865.59, -62144.69, -108317.80, 0.000, 0.000, 0.000, 16:55:30.517
213, -46186.50, 95465.19, 82089.55, 115446.06, 135175.36, 104394.80, 114690.73, 161245.56, 771.34, -65390.65, -75023.18, 511.41, -74794.43, -85865.59, -62144.69, -108317.80, 0.000, 0.000, 0.000, 16:55:30.517
214, -46186.50, 95465.19, 82089.55, 115446.06, 135175.36, 104394.80, 114690.73, 161245.56, 787.85, -65388.26, -75017.41, 516.15, -74768.48, -85873.86, -62129.42, -108316.80, 0.310, 0.922, 0.062, 16:55:30.517
215, -46199.15, 95480.26, 82110.23, 115455.43, 135202.08, 104399.70, 114720.77, 161267.86, 787.85, -65388.26, -75017.41, 516.15, -74768.48, -85873.86, -62129.42, -108316.80, 0.000, 0.000, 0.000, 16:55:30.517
216, -46199.15, 95480.26, 82110.23, 115455.43, 135202.08, 104399.70, 114720.77, 161267.86, 744.96, -65377.51, -75007.18, 523.39, -74751.52, -85874.20, -62116.88, -108296.84, 0.000, 0.000, 0.000, 16:55:30.517
217, -46204.36, 95470.73, 82117.84, 115453.48, 135213.91, 104417.89, 114724.82, 161259.06, 744.96, -65377.51, -75007.18, 523.39, -74751.52, -85874.20, -62116.88, -108296.84, 0.000, 0.000, 0.000, 16:55:30.517
218, -46204.36, 95470.73, 82117.84, 115453.48, 135213.91, 104417.89, 114724.82, 161259.06, 765.48, -65386.54, -75010.46, 513.80, -74742.11, -85874.10, -62110.67, -108309.53, 0.000, 0.000, 0.000, 16:55:30.518
219, -46173.94, 95470.69, 82123.48, 115448.95, 135211.16, 104405.76, 114717.22, 161260.77, 765.48, -65386.54, -75010.46, 513.80, -74742.11, -85874.10, -62110.67, -108309.53, 0.000, 0.000, 0.000, 16:55:30.518
220, -46173.94, 95470.69, 82123.48, 115448.95, 135211.16, 104405.76, 114717.22, 161260.77, 771.14, -65387.19, -75006.57, 514.60, -74760.30, -85882.71, -62115.59, -108322.70, 0.000, 0.000, 0.000, 16:55:30.518
221, -46167.79, 95474.35, 82126.85, 115450.47, 135202.36, 104394.96, 114706.98, 161250.22, 771.14, -65387.19, -75006.57, 514.60, -74760.30, -85882.71, -62115.59, -108322.70, 0.000, 0.000, 0.000, 16:55:30.518
222, -46167.79, 95474.35, 82126.85, 115450.47, 135202.36, 104394.96, 114706.98, 161250.22, 774.26, -65375.79, -74996.49, 525.18, -74767.30, -85877.95, -62119.30, -108323.19, 0.000, 0.000, 0.000, 16:55:30.518
223, -46157.40, 95472.10, 82129.78, 115453.15, 135199.73, 104382.06, 114692.50, 161243.67, 774.26, -65375.79, -74996.49, 525.18, -74767.30, -85877.95, -62119.30, -108323.19, 0.000, 0.000, 0.000, 16:55:30.518
224, -46157.40, 95472.10, 82129.78, 115453.15, 135199.73, 104382.06, 114692.50, 161243.67, 764.74, -65369.53, -74991.80, 532.71, -74752.75, -85870.17, -62133.58, -108321.11, 0.302, 0.924, 0.068, 16:55:30.519
225, -46176.42, 95472.50, 82131.70, 115463.50, 135206.09, 104392.39, 114685.10, 161243.94, 764.74, -65369.53, -74991.80, 532.71, -74752.75, -85870.17, -62133.58, -108321.11, 0.000, 0.000, 0.000, 16:55:30.519
226, -46176.42, 95472.50, 82131.70, 115463.50, 135206.09, 104392.39, 114685.10, 161243.94, 759.83, -65360.21, -74992.29, 534.83, -74764.44, -85871.98, -62133.49, -108314.83, 0.000, 0.000, 0.000, 16:55:30.519
227, -46158.65, 95469.05, 82132.94, 115462.13, 135185.98, 104401.80, 114677.56, 161234.81, 759.83, -65360.21, -74992.29, 534.83, -74764.44, -85871.98, -62133.49, -108314.83, 0.000, 0.000, 0.000, 16:55:30.519
228, -46158.65, 95469.05, 82132.94, 115462.13, 135185.98, 104401.80, 114677.56, 161234.81, 793.64, -65369.82, -74987.82, 534.36, -74725.19, -85872.09, -62134.20, -108311.19, 0.000, 0.000, 0.000, 16:55:30.519
229, -46142.63, 95467.96, 82139.10, 115460.63, 135205.36, 104384.77, 114677.34, 161231.36, 793.64, -65369.82, -74987.82, 534.36, -74725.19, -85872.09, -62134.20, -108311.19, 0.000, 0.000, 0.000, 16:55:30.519
230, -46142.63, 95467.96, 82139.10, 115460.63, 135205.36, 104384.77, 114677.34, 161231.36, 788.39, -65379.10, -74995.95, 525.20, -74737.93, -85887.54, -62138.90, -108320.73, 0.000, 0.000, 0.000, 16:55:30.520
231, -46146.14, 95459.16, 82128.48, 115454.18, 135188.36, 104389.59, 114674.03, 161233.23, 788.39, -65379.10, -74995.95, 525.20, -74737.93, -85887.54, -62138.90, -108320.73, 0.000, 0.000, 0.000, 16:55:30.520
232, -46146.14, 95459.16, 82128.48, 115454.18, 135188.36, 104389.59, 114674.03, 161233.23, 805.40, -65380.08, -75002.48, 516.75, -74751.34, -85877.79, -62139.88, -108322.72, 0.000, 0.000, 0.000, 16:55:30.520
233, -46127.98, 95452.59, 82123.77, 115454.67, 135179.36, 104384.16, 114681.52, 161246.11, 805.40, -65380.08, -75002.48, 516.75, -74751.34, -85877.79, -62139.88, -108322.72, 0.294, 0.918, 0.066, 16:55:30.520
234, -46127.98, 95452.59, 82123.77, 115454.67, 135179.36, 104384.16, 114681.52, 161246.11, 813.00, -65378.20, -75003.27, 517.71, -74752.86, -85856.60, -62139.28, -108323.61, 0.000, 0.000, 0.000, 16:55:30.521
235, -46123.47, 95443.38, 82113.84, 115446.33, 135180.00, 104358.52, 114688.30, 161271.61, 813.00, -65378.20, -75003.27, 517.71, -74752.86, -85856.60, -62139.28, -108323.61, 0.000, 0.000, 0.000, 16:55:30.521
236, -46123.47, 95443.38, 82113.84, 115446.33, 135180.00, 104358.52, 114688.30, 161271.61, 813.87, -65386.90, -75017.13, 506.60, -74797.20, -85880.18, -62149.83, -108330.27, 0.000, 0.000, 0.000, 16:55:30.521
237, -46115.85, 95437.34, 82110.63, 115445.35, 135195.42, 104380.79, 114687.31, 161262.84, 813.87, -65386.90, -75017.13, 506.60, -74797.20, -85880.18, -62149.83, -108330.27, 0.000, 0.000, 0.000, 16:55:30.522
238, -46115.85, 95437.34, 82110.63, 115445.35, 135195.42, 104380.79, 114687.31, 161262.84, 830.26, -65388.64, -75018.42, 503.25, -74768.86, -85881.63, -62145.80, -108321.58, 0.000, 0.000, 0.000, 16:55:30.522
239, -46111.09, 95437.27, 82113.11, 115446.73, 135206.39, 104395.79, 114697.95, 161276.48, 830.26, -65388.64, -75018.42, 503.25, -74768.86, -85881.63, -62145.80, -108321.58, 0.000, 0.000, 0.000, 16:55:30.522
240, -46111.09, 95437.27, 82113.11, 115446.73, 135206.39, 104395.79, 114697.95, 161276.48, 815.01, -65383.72, -75013.70, 505.82, -74740.48, -85872.27, -62143.59, -108314.18, 0.000, 0.000, 0.000, 16:55:30.522
241, -46144.08, 95440.70, 82120.02, 115450.18, 135217.97, 104402.78, 114696.01, 161267.31, 815.01, -65383.72, -75013.70, 505.82, -74740.48, -85872.27, -62143.59, -108314.18, 0.000, 0.000, 0.000, 16:55:30.523
242, -46144.08, 95440.70, 82120.02, 115450.18, 135217.97, 104402.78, 114696.01, 161267.31, 788.77, -65394.05, -75019.45, 495.74, -74750.51, -85874.08, -62147.23, -108328.35, 0.000, 0.000, 0.000, 16:55:30.523
243, -46157.91, 95423.20, 82104.75, 115433.23, 135195.89, 104385.50, 114687.63, 161269.17, 788.77, -65394.05, -75019.45, 495.74, -74750.51, -85874.08, -62147.23, -108328.35, 0.294, 0.918, 0.072, 16:55:30.523
244, -46157.91, 95423.20, 82104.75, 115433.23, 135195.89, 104385.50, 114687.63, 161269.17, 785.33, -65396.46, -75022.35, 494.51, -74770.41, -85892.14, -62154.61, -108336.04, 0.000, 0.000, 0.000, 16:55:30.523
245, -46178.10, 95425.54, 82112.55, 115439.47, 135200.31, 104380.95, 114689.01, 161280.33, 785.33, -65396.46, -75022.35, 494.51, -74770.41, -85892.14, -62154.61, -108336.04, 0.000, 0.000, 0.000, 16:55:30.524
246, -46178.10, 95425.54, 82112.55, 115439.47, 135200.31, 104380.95, 114689.01, 161280.33, 794.05, -65398.27, -75021.02, 493.33, -74787.73, -85882.02, -62158.23, -108349.48, 0.000, 0.000, 0.000, 16:55:30.524
247, -46196.72, 95429.05, 82120.73, 115440.27, 135209.83, 104346.55, 114682.64, 161265.34, 794.05, -65398.27, -75021.02, 493.33, -74787.73, -85882.02, -62158.23, -108349.48, 0.000, 0.000, 0.000, 16:55:30.524
248, -46196.72, 95429.05, 82120.73, 115440.27, 135209.83, 104346.55, 114682.64, 161265.34, 795.70, -65388.30, -75003.11, 508.57, -74749.70, -85884.01, -62152.84, -108347.64, 0.000, 0.000, 0.000, 16:55:30.524
249, -46211.63, 95441.03, 82130.34, 115454.13, 135195.11, 104358.05, 114686.02, 161270.30, 795.70, -65388.30, -75003.11, 508.57, -74749.70, -85884.01, -62152.84, -108347.64, 0.000, 0.000, 0.000, 16:55:30.525
250, -46211.63, 95441.03, 82130.34, 115454.13, 135195.11, 104358.05, 114686.02, 161270.30, 797.29, -65383.90, -74998.70, 514.18, -74766.47, -85880.95, -62158.28, -108338.03, 0.000, 0.000, 0.000, 16:55:30.525
251, -46223.99, 95448.95, 82131.20, 115463.95, 135193.38, 104370.41, 114686.22, 161262.67, 797.29, -65383.90, -74998.70, 514.18, -74766.47, -85880.95, -62158.28, -108338.03, 0.000, 0.000, 0.000, 16:55:30.525
252, -46223.99, 95448.95, 82131.20, 115463.95, 135193.38, 104370.41, 114686.22, 161262.67, 795.39, -65371.92, -74986.37, 527.34, -74744.77, -85857.90, -62151.93, -108334.41, 0.000, 0.000, 0.000, 16:55:30.526
253, -46265.61, 95453.34, 82142.44, 115467.38, 135201.05, 104361.09, 114697.88, 161271.50, 795.39, -65371.92, -74986.37, 527.34, -74744.77, -85857.90, -62151.93, -108334.41, 0.298, 0.914, 0.072, 16:55:30.526
254, -46265.61, 95453.34, 82142.44, 115467.38, 135201.05, 104361.09, 114697.88, 161271.50, 773.68, -65376.39, -74985.77, 522.36, -74749.69, -85870.57, -62145.78, -108338.55, 0.000, 0.000, 0.000, 16:55:30.526
255, -46294.44, 95441.61, 82133.67, 115457.35, 135192.55, 104349.27, 114692.32, 161280.03, 773.68, -65376.39, -74985.77, 522.36, -74749.69, -85870.57, -62145.78, -108338.55, 0.000, 0.000, 0.000, 16:55:30.526
0, -46294.44, 95441.61, 82133.67, 115457.35, 135192.55, 104349.27, 114692.32, 161280.03, 759.56, -65393.34, -74999.45, 509.26, -74769.87, -85872.83, -62151.95, -108341.65, 0.000, 0.000, 0.000, 16:55:30.526
1, -46322.60, 95426.37, 82135.23, 115463.01, 135198.39, 104354.28, 114695.52, 161286.98, 759.56, -65393.34, -74999.45, 509.26, -74769.87, -85872.83, -62151.95, -108341.65, 0.000, 0.000, 0.000, 16:55:30.527
2, -46322.60, 95426.37, 82135.23, 115463.01, 135198.39, 104354.28, 114695.52, 161286.98, 765.41, -65388.39, -74993.74, 513.84, -74746.76, -85866.95, -62144.20, -108331.57, 0.000, 0.000, 0.000, 16:55:30.527
3, -46342.77, 95425.95, 82136.29, 115463.63, 135206.02, 104345.61, 114697.26, 161290.86, 765.41, -65388.39, -74993.74, 513.84, -74746.76, -85866.95, -62144.20, -108331.57, 0.000, 0.000, 0.000, 16:55:30.527
4, -46342.77, 95425.95, 82136.29, 115463.63, 135206.02, 104345.61, 114697.26, 161290.86, 758.08, -65391.43, -75000.31, 509.26, -74745.10, -85874.48, -62150.66, -108336.76, 0.000, 0.000, 0.000, 16:55:30.527
5, -46360.91, 95422.21, 82129.65, 115457.51, 135177.47, 104348.24, 114699.74, 161294.78, 758.08, -65391.43, -75000.31, 509.26, -74745.10, -85874.48, -62150.66, -108336.76, 0.000, 0.000, 0.000, 16:55:30.527
6, -46360.91, 95422.21, 82129.65, 115457.51, 135177.47, 104348.24, 114699.74, 161294.78, 757.63, -65394.03, -75006.48, 506.20, -74752.50, -85874.41, -62154.05, -108339.82, 0.000, 0.000, 0.000, 16:55:30.528
7, -46394.93, 95425.83, 82128.04, 115452.01, 135229.13, 104335.37, 114701.15, 161296.08, 757.63, -65394.03, -75006.48, 506.20, -74752.50, -85874.41, -62154.05, -108339.82, 0.306, 0.920, 0.072, 16:55:30.528
8, -46394.93, 95425.83, 82128.04, 115452.01, 135229.13, 104335.37, 114701.15, 161296.08, 739.95, -65402.43, -75016.19, 497.30, -74756.03, -85888.79, -62163.80, -108350.41, 0.000, 0.000, 0.000, 16:55:30.528
9, -46412.14, 95404.53, 82114.31, 115440.03, 135211.89, 104337.09, 114692.79, 161286.05, 739.95, -65402.43, -75016.19, 497.30, -74756.03, -85888.79, -62163.80, -108350.41, 0.000, 0.000, 0.000, 16:55:30.528
10, -46412.14, 95404.53, 82114.31, 115440.03, 135211.89, 104337.09, 114692.79, 161286.05, 750.01, -65410.43, -75028.32, 489.57, -74800.29, -85895.02, -62175.93, -108359.55, 0.000, 0.000, 0.000, 16:55:30.529
11, -46429.76, 95401.87, 82114.74, 115440.03, 135233.97, 104339.75, 114700.56, 161306.05, 750.01, -65410.43, -75028.32, 489.57, -74800.29, -85895.02, -62175.93, -108359.55, 0.000, 0.000, 0.000, 16:55:30.529
12, -46429.76, 95401.87, 82114.74, 115440.03, 135233.97, 104339.75, 114700.56, 161306.05, 751.82, -65404.22, -75017.37, 498.13, -74747.67, -85874.66, -62162.88, -108351.73, 0.000, 0.000, 0.000, 16:55:30.529
13, -46451.41, 95406.49, 82126.61, 115449.48, 135226.66, 104348.55, 114707.27, 161311.23, 751.82, -65404.22, -75017.37, 498.13, -74747.67, -85874.66, -62162.88, -108351.73, 0.000, 0.000, 0.000, 16:55:30.529
14, -46451.41, 95406.49, 82126.61, 115449.48, 135226.66, 104348.55, 114707.27, 161311.23, 749.45, -65409.98, -75015.89, 495.00, -74758.60, -85875.78, -62158.68, -108353.34, 0.000, 0.000, 0.000, 16:55:30.529
15, -46469.61, 95404.08, 82127.34, 115447.16, 135218.61, 104334.32, 114693.63, 161312.25, 749.45, -65409.98, -75015.89, 495.00, -74758.60, -85875.78, -62158.68, -108353.34, 0.000, 0.000, 0.000, 16:55:30.530
16, -46469.61, 95404.08, 82127.34, 115447.16, 135218.61, 104334.32, 114693.63, 161312.25, 765.44, -65413.25, -75014.27, 496.16, -74757.24, -85889.52, -62166.28, -108361.92, 0.000, 0.000, 0.000, 16:55:30.530
17, -46478.75, 95407.05, 82129.67, 115448.32, 135202.09, 104316.68, 114682.62, 161312.05, 765.44, -65413.25, -75014.27, 496.16, -74757.24, -85889.52, -62166.28, -108361.92, 0.306, 0.924, 0.066, 16:55:30.530
18, -46478.75, 95407.05, 82129.67, 115448.32, 135202.09, 104316.68, 114682.62, 161312.05, 765.68, -65403.15, -74998.80, 508.44, -74768.75, -85895.60, -62163.62, -108363.55, 0.000, 0.000, 0.000, 16:55:30.530
19, -46515.03, 95417.05, 82139.06, 115460.59, 135201.47, 104308.99, 114691.36, 161327.91, 765.68, -65403.15, -74998.80, 508.44, -74768.75, -85895.60, -62163.62, -108363.55, 0.000, 0.000, 0.000, 16:55:30.530
20, -46515.03, 95417.05, 82139.06, 115460.59, 135201.47, 104308.99, 114691.36, 161327.91, 752.16, -65391.19, -74991.48, 518.78, -74770.36, -85857.02, -62156.94, -108346.95, 0.000, 0.000, 0.000, 16:55:30.531
21, -46572.16, 95416.51, 82149.09, 115470.74, 135227.53, 104331.62, 114691.06, 161300.80, 752.16, -65391.19, -74991.48, 518.78, -74770.36, -85857.02, -62156.94, -108346.95, 0.000, 0.000, 0.000, 16:55:30.531
22, -46572.16, 95416.51, 82149.09, 115470.74, 135227.53, 104331.62, 114691.06, 161300.80, 783.79, -65396.66, -74995.73, 510.07, -74746.78, -85858.34, -62155.62, -108353.88, 0.000, 0.000, 0.000, 16:55:30.531
23, -46593.28, 95411.81, 82142.86, 115464.81, 135202.23, 104325.84, 114690.66, 161309.50, 783.79, -65396.66, -74995.73, 510.07, -74746.78, -85858.34, -62155.62, -108353.88, 0.000, 0.000, 0.000, 16:55:30.531
24, -46593.28, 95411.81, 82142.86, 115464.81, 135202.23, 104325.84, 114690.66, 161309.50, 873.95, -65379.77, -74990.91, 520.95, -74770.47, -85852.49, -62145.04, -108342.63, 0.000, 0.000, 0.000, 16:55:30.531
25, -46640.85, 95411.62, 82144.45, 115474.59, 135209.97, 104352.47, 114699.13, 161324.41, 873.95, -65379.77, -74990.91, 520.95, -74770.47, -85852.49, -62145.04, -108342.63, 0.000, 0.000, 0.000, 16:55:30.532
26, -46640.85, 95411.62, 82144.45, 115474.59, 135209.97, 104352.47, 114699.13, 161324.41, 961.08, -65396.82, -75008.20, 505.19, -74771.48, -85865.48, -62154.39, -108353.54, 0.000, 0.000, 0.000, 16:55:30.532
27, -46666.98, 95393.46, 82127.84, 115453.66, 135182.19, 104317.42, 114674.80, 161318.25, 961.08, -65396.82, -75008.20, 505.19, -74771.48, -85865.48, -62154.39, -108353.54, 0.302, 0.920, 0.070, 16:55:30.532
28, -46666.98, 95393.46, 82127.84, 115453.66, 135182.19, 104317.42, 114674.80, 161318.25, 1019.28, -65397.52, -75009.93, 504.61, -74760.95, -85873.73, -62167.98, -108362.20, 0.000, 0.000, 0.000, 16:55:30.532
29, -46711.05, 95398.41, 82133.88, 115461.20, 135193.77, 104318.92, 114686.22, 161320.94, 1019.28, -65397.52, -75009.93, 504.61, -74760.95, -85873.73, -62167.98, -108362.20, 0.000, 0.000, 0.000, 16:55:30.532
30, -46711.05, 95398.41, 82133.88, 115461.20, 135193.77, 104318.92, 114686.22, 161320.94, 1056.72, -65392.62, -75006.75, 510.13, -74763.59, -85870.17, -62167.53, -108359.20, 0.000, 0.000, 0.000, 16:55:30.533
31, -46746.30, 95394.18, 82132.71, 115462.54, 135202.17, 104286.42, 114694.53, 161361.16, 1056.72, -65392.62, -75006.75, 510.13, -74763.59, -85870.17, -62167.53, -108359.20, 0.000, 0.000, 0.000, 16:55:30.533
32, -46746.30, 95394.18, 82132.71, 115462.54, 135202.17, 104286.42, 114694.53, 161361.16, 1105.14, -65398.07, -75013.21, 502.80, -74773.38, -85868.83, -62167.17, -108360.18, 0.000, 0.000, 0.000, 16:55:30.533
33, -46756.81, 95378.31, 82123.44, 115453.69, 135208.27, 104310.60, 114690.33, 161346.06, 1105.14, -65398.07, -75013.21, 502.80, -74773.38, -85868.83, -62167.17, -108360.18, 0.000, 0.000, 0.000, 16:55:30.533
34, -46756.81, 95378.31, 82123.44, 115453.69, 135208.27, 104310.60, 114690.33, 161346.06, 1141.35, -65413.50, -75026.53, 487.29, -74785.20, -85881.13, -62166.77, -108360.90, 0.000, 0.000, 0.000, 16:55:30.533
35, -46788.50, 95381.22, 82129.29, 115448.23, 135231.48, 104283.91, 114705.28, 161352.97, 1141.35, -65413.50, -75026.53, 487.29, -74785.20, -85881.13, -62166.77, -108360.90, 0.000, 0.000, 0.000, 16:55:30.533
36, -46788.50, 95381.22, 82129.29, 115448.23, 135231.48, 104283.91, 114705.28, 161352.97, 1176.84, -65410.97, -75013.95, 492.59, -74778.20, -85889.13, -62146.77, -108357.16, 0.304, 0.918, 0.076, 16:55:30.534
37, -46796.64, 95391.63, 82144.63, 115453.13, 135247.83, 104331.70, 114701.98, 161349.69, 1176.84, -65410.97, -75013.95, 492.59, -74778.20, -85889.13, -62146.77, -108357.16, 0.000, 0.000, 0.000, 16:55:30.534
38, -46796.64, 95391.63, 82144.63, 115453.13, 135247.83, 104331.70, 114701.98, 161349.69, 1205.99, -65403.23, -75005.37, 503.18, -74740.05, -85854.84, -62142.83, -108352.18, 0.000, 0.000, 0.000, 16:55:30.534
39, -46818.27, 95389.20, 82153.50, 115459.97, 135245.63, 104317.98, 114703.23, 161390.36, 1205.99, -65403.23, -75005.37, 503.18, -74740.05, -85854.84, -62142.83, -108352.18, 0.000, 0.000, 0.000, 16:55:30.534
40, -46818.27, 95389.20, 82153.50, 115459.97, 135245.63, 104317.98, 114703.23, 161390.36, 1221.32, -65411.71, -75013.08, 499.05, -74767.30, -85872.49, -62149.61, -108366.20, 0.000, 0.000, 0.000, 16:55:30.534
41, -46820.69, 95373.66, 82137.18, 115440.90, 135211.47, 104275.31, 114670.88, 161372.75, 1221.32, -65411.71, -75013.08, 499.05, -74767.30, -85872.49, -62149.61, -108366.20, 0.000, 0.000, 0.000, 16:55:30.535
42, -46820.69, 95373.66, 82137.18, 115440.90, 135211.47, 104275.31, 114670.88, 161372.75, 1261.67, -65412.18, -75015.65, 498.29, -74763.92, -85897.02, -62161.05, -108380.54, 0.000, 0.000, 0.000, 16:55:30.535
43, -46817.20, 95381.39, 82150.01, 115456.73, 135197.98, 104300.73, 114676.74, 161360.55, 1261.67, -65412.18, -75015.65, 498.29, -74763.92, -85897.02, -62161.05, -108380.54, 0.000, 0.000, 0.000, 16:55:30.535
44, -46817.20, 95381.39, 82150.01, 115456.73, 135197.98, 104300.73, 114676.74, 161360.55, 1301.56, -65400.91, -75001.81, 510.25, -74763.09, -85864.88, -62152.20, -108354.68, 0.000, 0.000, 0.000, 16:55:30.535
45, -46804.30, 95384.79, 82154.88, 115459.54, 135224.23, 104297.88, 114675.84, 161359.52, 1301.56, -65400.91, -75001.81, 510.25, -74763.09, -85864.88, -62152.20, -108354.68, 0.000, 0.000, 0.000, 16:55:30.535
46, -46804.30, 95384.79, 82154.88, 115459.54, 135224.23, 104297.88, 114675.84, 161359.52, 1323.04, -65408.20, -75003.78, 505.55, -74776.71, -85866.48, -62156.96, -108365.52, 0.300, 0.914, 0.070, 16:55:30.535
47, -46817.54, 95389.87, 82159.65, 115465.06, 135221.45, 104299.45, 114684.56, 161379.81, 1323.04, -65408.20, -75003.78, 505.55, -74776.71, -85866.48, -62156.96, -108365.52, 0.000, 0.000, 0.000, 16:55:30.536
48, -46817.54, 95389.87, 82159.65, 115465.06, 135221.45, 104299.45, 114684.56, 161379.81, 1324.50, -65398.63, -74989.67, 519.14, -74749.73, -85853.65, -62149.27, -108358.59, 0.000, 0.000, 0.000, 16:55:30.536
49, -46833.52, 95370.13, 82152.72, 115459.16, 135207.19, 104280.12, 114674.97, 161385.95, 1324.50, -65398.63, -74989.67, 519.14, -74749.73, -85853.65, -62149.27, -108358.59, 0.000, 0.000, 0.000, 16:55:30.536
50, -46833.52, 95370.13, 82152.72, 115459.16, 135207.19, 104280.12, 114674.97, 161385.95, 1329.55, -65421.77, -75014.98, 494.98, -74760.97, -85877.16, -62168.85, -108376.92, 0.000, 0.000, 0.000, 16:55:30.536
51, -46820.11, 95359.89, 82137.83, 115449.30, 135201.30, 104278.33, 114672.65, 161386.03, 1329.55, -65421.77, -75014.98, 494.98, -74760.97, -85877.16, -62168.85, -108376.92, 0.000, 0.000, 0.000, 16:55:30.537
52, -46820.11, 95359.89, 82137.83, 115449.30, 135201.30, 104278.33, 114672.65, 161386.03, 1355.77, -65417.65, -75015.07, 496.66, -74770.88, -85878.23, -62166.55, -108374.04, 0.000, 0.000, 0.000, 16:55:30.537
53, -46809.22, 95357.68, 82143.75, 115449.20, 135209.92, 104270.10, 114683.34, 161404.36, 1355.77, -65417.65, -75015.07, 496.66, -74770.88, -85878.23, -62166.55, -108374.04, 0.000, 0.000, 0.000, 16:55:30.994
54, -46809.22, 95357.68, 82143.75, 115449.20, 135209.92, 104270.10, 114683.34, 161404.36, 1389.16, -65413.61, -75014.77, 497.64, -74761.04, -85883.42, -62156.96, -108376.48, 0.000, 0.000, 0.000, 16:55:30.994
55, -46788.68, 95350.17, 82145.43, 115448.74, 135229.25, 104264.24, 114681.16, 161398.86, 1389.16, -65413.61, -75014.77, 497.64, -74761.04, -85883.42, -62156.96, -108376.48, 0.000, 0.000, 0.000, 16:55:30.995
56, -46788.68, 95350.17, 82145.43, 115448.74, 135229.25, 104264.24, 114681.16, 161398.86, 1418.33, -65419.60, -75017.80, 493.75, -74785.25, -85868.60, -62159.64, -108373.52, 0.296, 0.916, 0.070, 16:55:30.995
57, -46766.46, 95345.41, 82149.37, 115451.95, 135227.67, 104281.23, 114690.87, 161414.95, 1418.33, -65419.60, -75017.80, 493.75, -74785.25, -85868.60, -62159.64, -108373.52, 0.000, 0.000, 0.000, 16:55:30.995
58, -46766.46, 95345.41, 82149.37, 115451.95, 135227.67, 104281.23, 114690.87, 161414.95, 1441.64, -65413.29, -75008.32, 502.91, -74774.38, -85861.92, -62147.41, -108358.57, 0.000, 0.000, 0.000, 16:55:30.995
59, -46764.56, 95354.05, 82159.53, 115458.78, 135248.28, 104279.04, 114701.86, 161416.42, 1441.64, -65413.29, -75008.32, 502.91, -74774.38, -85861.92, -62147.41, -108358.57, 0.000, 0.000, 0.000, 16:55:30.996
60, -46764.56, 95354.05, 82159.53, 115458.78, 135248.28, 104279.04, 114701.86, 161416.42, 1459.95, -65413.45, -75001.81, 503.03, -74757.80, -85867.11, -62139.57, -108358.88, 0.000, 0.000, 0.000, 16:55:30.996
61, -46737.47, 95353.63, 82166.46, 115452.52, 135253.48, 104269.09, 114703.88, 161423.31, 1459.95, -65413.45, -75001.81, 503.03, -74757.80, -85867.11, -62139.57, -108358.88, 0.000, 0.000, 0.000, 16:55:30.996
62, -46737.47, 95353.63, 82166.46, 115452.52, 135253.48, 104269.09, 114703.88, 161423.31, 1475.24, -65419.78, -75007.24, 495.69, -74757.04, -85885.30, -62140.35, -108365.55, 0.000, 0.000, 0.000, 16:55:30.996
63, -46734.86, 95342.77, 82163.22, 115441.46, 135245.38, 104261.83, 114692.36, 161420.36, 1475.24, -65419.78, -75007.24, 495.69, -74757.04, -85885.30, -62140.35, -108365.55, 0.000, 0.000, 0.000, 16:55:30.996
64, -46734.86, 95342.77, 82163.22, 115441.46, 135245.38, 104261.83, 114692.36, 161420.36, 1474.10, -65427.80, -75017.95, 483.60, -74749.17, -85892.90, -62151.75, -108374.09, 0.000, 0.000, 0.000, 16:55:30.997
65, -46724.44, 95324.60, 82153.01, 115427.16, 135229.77, 104254.26, 114673.92, 161403.17, 1474.10, -65427.80, -75017.95, 483.60, -74749.17, -85892.90, -62151.75, -108374.09, 0.000, 0.000, 0.000, 16:55:30.997
66, -46724.44, 95324.60, 82153.01, 115427.16, 135229.77, 104254.26, 114673.92, 161403.17, 1491.06, -65428.54, -75024.09, 479.71, -74772.75, -85898.98, -62158.72, -108376.12, 0.300, 0.920, 0.072, 16:55:30.997
67, -46683.16, 95333.41, 82164.56, 115434.22, 135225.05, 104265.27, 114676.96, 161407.02, 1491.06, -65428.54, -75024.09, 479.71, -74772.75, -85898.98, -62158.72, -108376.12, 0.000, 0.000, 0.000, 16:55:30.997
68, -46683.16, 95333.41, 82164.56, 115434.22, 135225.05, 104265.27, 114676.96, 161407.02, 1528.41, -65409.32, -75011.06, 495.20, -74759.79, -85881.84, -62153.85, -108362.62, 0.000, 0.000, 0.000, 16:55:30.997
69, -46623.61, 95346.77, 82185.55, 115453.02, 135230.73, 104276.52, 114688.27, 161414.75, 1528.41, -65409.32, -75011.06, 495.20, -74759.79, -85881.84, -62153.85, -108362.62, 0.000, 0.000, 0.000, 16:55:30.998
70, -46623.61, 95346.77, 82185.55, 115453.02, 135230.73, 104276.52, 114688.27, 161414.75, 1552.66, -65382.76, -74992.91, 517.51, -74747.83, -85870.33, -62145.56, -108343.04, 0.000, 0.000, 0.000, 16:55:30.998
71, -46598.54, 95352.59, 82199.37, 115462.65, 135220.50, 104284.72, 114704.97, 161444.05, 1552.66, -65382.76, -74992.91, 517.51, -74747.83, -85870.33, -62145.56, -108343.04, 0.000, 0.000, 0.000, 16:55:30.998
72, -46598.54, 95352.59, 82199.37, 115462.65, 135220.50, 104284.72, 114704.97, 161444.05, 1553.27, -65391.50, -75007.52, 504.79, -74764.44, -85893.15, -62153.34, -108350.30, 0.000, 0.000, 0.000, 16:55:30.998
73, -46575.71, 95326.90, 82177.28, 115435.58, 135206.48, 104249.34, 114672.20, 161404.11, 1553.27, -65391.50, -75007.52, 504.79, -74764.44, -85893.15, -62153.34, -108350.30, 0.000, 0.000, 0.000, 16:55:30.998
74, -46575.71, 95326.90, 82177.28, 115435.58, 135206.48, 104249.34, 114672.20, 161404.11, 1540.15, -65412.96, -75035.66, 481.08, -74787.73, -85922.31, -62175.89, -108370.91, 0.000, 0.000, 0.000, 16:55:30.999
75, -46546.66, 95318.72, 82165.01, 115430.80, 135199.78, 104245.41, 114665.92, 161402.75, 1540.15, -65412.96, -75035.66, 481.08, -74787.73, -85922.31, -62175.89, -108370.91, 0.000, 0.000, 0.000, 16:55:30.999
76, -46546.66, 95318.72, 82165.01, 115430.80, 135199.78, 104245.41, 114665.92, 161402.75, 1553.96, -65392.57, -75026.47, 496.32, -74776.88, -85896.90, -62162.66, -108343.82, 0.304, 0.918, 0.074, 16:55:30.999
77, -46501.51, 95333.77, 82178.06, 115456.75, 135214.30, 104270.91, 114688.14, 161431.78, 1553.96, -65392.57, -75026.47, 496.32, -74776.88, -85896.90, -62162.66, -108343.82, 0.000, 0.000, 0.000, 16:55:30.999
78, -46501.51, 95333.77, 82178.06, 115456.75, 135214.30, 104270.91, 114688.14, 161431.78, 1569.45, -65381.87, -75020.07, 505.13, -74760.34, -85872.90, -62152.40, -108328.22, 0.000, 0.000, 0.000, 16:55:30.999
79, -46453.25, 95336.13, 82179.78, 115458.76, 135217.14, 104279.58, 114693.77, 161437.02, 1569.45, -65381.87, -75020.07, 505.13, -74760.34, -85872.90, -62152.40, -108328.22, 0.000, 0.000, 0.000, 16:55:31.000
80, -46453.25, 95336.13, 82179.78, 115458.76, 135217.14, 104279.58, 114693.77, 161437.02, 1581.68, -65387.32, -75033.26, 493.37, -74768.51, -85888.09, -62162.19, -108331.28, 0.000, 0.000, 0.000, 16:55:31.000
81, -46407.00, 95320.64, 82165.63, 115446.04, 135212.56, 104257.83, 114684.65, 161438.31, 1581.68, -65387.32, -75033.26, 493.37, -74768.51, -85888.09, -62162.19, -108331.28, 0.000, 0.000, 0.000, 16:55:31.000
82, -46407.00, 95320.64, 82165.63, 115446.04, 135212.56, 104257.83, 114684.65, 161438.31, 1584.92, -65395.41, -75039.88, 483.89, -74772.62, -85899.09, -62162.32, -108334.16, 0.000, 0.000, 0.000, 16:55:31.001
83, -46362.21, 95315.62, 82169.03, 115445.44, 135231.42, 104270.80, 114689.70, 161440.88, 1584.92, -65395.41, -75039.88, 483.89, -74772.62, -85899.09, -62162.32, -108334.16, 0.000, 0.000, 0.000, 16:55:31.001
84, -46362.21, 95315.62, 82169.03, 115445.44, 135231.42, 104270.80, 114689.70, 161440.88, 1592.56, -65399.23, -75041.51, 481.97, -74780.71, -85897.02, -62148.38, -108333.42, 0.000, 0.000, 0.000, 16:55:31.001
85, -46305.13, 95318.92, 82180.27, 115452.77, 135246.27, 104263.87, 114703.78, 161463.30, 1592.56, -65399.23, -75041.51, 481.97, -74780.71, -85897.02, -62148.38, -108333.42, 0.298, 0.916, 0.072, 16:55:31.001
86, -46305.13, 95318.92, 82180.27, 115452.77, 135246.27, 104263.87, 114703.78, 161463.30, 1609.77, -65386.81, -75024.66, 497.59, -74751.05, -85882.51, -62123.32, -108315.03, 0.000, 0.000, 0.000, 16:55:31.002
87, -46251.66, 95325.00, 82195.97, 115467.66, 135262.41, 104288.95, 114700.68, 161450.56, 1609.77, -65386.81, -75024.66, 497.59, -74751.05, -85882.51, -62123.32, -108315.03, 0.000, 0.000, 0.000, 16:55:31.002
88, -46251.66, 95325.00, 82195.97, 115467.66, 135262.41, 104288.95, 114700.68, 161450.56, 1629.78, -65388.86, -75022.47, 496.34, -74760.44, -85888.23, -62125.31, -108315.01, 0.000, 0.000, 0.000, 16:55:31.002
89, -46205.46, 95314.95, 82187.41, 115455.07, 135234.22, 104262.26, 114684.78, 161464.13, 1629.78, -65388.86, -75022.47, 496.34, -74760.44, -85888.23, -62125.31, -108315.01, 0.000, 0.000, 0.000, 16:55:31.003
90, -46205.46, 95314.95, 82187.41, 115455.07, 135234.22, 104262.26, 114684.78, 161464.13, 1633.87, -65400.04, -75032.01, 486.93, -74764.21, -85905.44, -62144.96, -108337.27, 0.000, 0.000, 0.000, 16:55:31.003
91, -46181.77, 95320.84, 82192.39, 115459.81, 135235.47, 104262.79, 114674.21, 161453.91, 1633.87, -65400.04, -75032.01, 486.93, -74764.21, -85905.44, -62144.96, -108337.27, 0.000, 0.000, 0.000, 16:55:31.003
92, -46181.77, 95320.84, 82192.39, 115459.81, 135235.47, 104262.79, 114674.21, 161453.91, 1617.17, -65386.32, -75018.87, 499.45, -74761.76, -85891.02, -62142.65, -108323.75, 0.000, 0.000, 0.000, 16:55:31.003
93, -46162.68, 95319.39, 82188.44, 115454.63, 135236.03, 104261.01, 114662.95, 161459.56, 1617.17, -65386.32, -75018.87, 499.45, -74761.76, -85891.02, -62142.65, -108323.75, 0.000, 0.000, 0.000, 16:55:31.004
94, -46162.68, 95319.39, 82188.44, 115454.63, 135236.03, 104261.01, 114662.95, 161459.56, 1626.36, -65402.21, -75027.43, 485.70, -74755.05, -85894.29, -62156.98, -108343.06, 0.000, 0.000, 0.000, 16:55:31.004
95, -46119.76, 95315.13, 82187.56, 115452.68, 135217.09, 104247.68, 114650.54, 161452.02, 1626.36, -65402.21, -75027.43, 485.70, -74755.05, -85894.29, -62156.98, -108343.06, 0.300, 0.922, 0.068, 16:55:31.004
96, -46119.76, 95315.13, 82187.56, 115452.68, 135217.09, 104247.68, 114650.54, 161452.02, 1641.85, -65394.96, -75016.30, 498.49, -74754.91, -85889.37, -62158.81, -108334.09, 0.000, 0.000, 0.000, 16:55:31.005
97, -46105.88, 95325.18, 82198.38, 115466.25, 135231.94, 104258.05, 114659.57, 161458.42, 1641.85, -65394.96, -75016.30, 498.49, -74754.91, -85889.37, -62158.81, -108334.09, 0.000, 0.000, 0.000, 16:55:31.005
98, -46105.88, 95325.18, 82198.38, 115466.25, 135231.94, 104258.05, 114659.57, 161458.42, 1622.07, -65391.05, -75013.62, 502.00, -74758.80, -85887.29, -62164.58, -108341.30, 0.000, 0.000, 0.000, 16:55:31.005
99, -46109.66, 95309.83, 82189.51, 115459.66, 135219.02, 104249.38, 114651.46, 161454.73, 1622.07, -65391.05, -75013.62, 502.00, -74758.80, -85887.29, -62164.58, -108341.30, 0.000, 0.000, 0.000, 16:55:31.005
100, -46109.66, 95309.83, 82189.51, 115459.66, 135219.02, 104249.38, 114651.46, 161454.73, 1627.43, -65410.93, -75026.53, 491.87, -74804.18, -85906.60, -62169.03, -108344.83, 0.000, 0.000, 0.000, 16:55:31.006
101, -46076.49, 95300.15, 82194.34, 115461.64, 135227.80, 104266.66, 114649.98, 161459.08, 1627.43, -65410.93, -75026.53, 491.87, -74804.18, -85906.60, -62169.03, -108344.83, 0.000, 0.000, 0.000, 16:55:31.006
102, -46076.49, 95300.15, 82194.34, 115461.64, 135227.80, 104266.66, 114649.98, 161459.08, 1640.37, -65396.33, -75011.09, 501.30, -74726.93, -85882.26, -62153.00, -108330.30, 0.000, 0.000, 0.000, 16:55:31.006
103, -46073.29, 95312.59, 82204.98, 115468.41, 135242.22, 104267.76, 114668.34, 161491.19, 1640.37, -65396.33, -75011.09, 501.30, -74726.93, -85882.26, -62153.00, -108330.30, 0.000, 0.000, 0.000, 16:55:31.006
104, -46073.29, 95312.59, 82204.98, 115468.41, 135242.22, 104267.76, 114668.34, 161491.19, 1644.69, -65406.66, -75017.55, 494.11, -74752.55, -85887.07, -62144.35, -108331.73, 0.000, 0.000, 0.000, 16:55:31.006
105, -46056.46, 95311.79, 82202.45, 115469.47, 135261.06, 104272.05, 114677.59, 161487.02, 1644.69, -65406.66, -75017.55, 494.11, -74752.55, -85887.07, -62144.35, -108331.73, 0.292, 0.924, 0.070, 16:55:31.006
106, -46056.46, 95311.79, 82202.45, 115469.47, 135261.06, 104272.05, 114677.59, 161487.02, 1623.47, -65411.86, -75020.16, 489.48, -74753.40, -85889.80, -62142.30, -108327.75, 0.000, 0.000, 0.000, 16:55:31.007
107, -46060.15, 95299.27, 82188.23, 115455.38, 135257.17, 104247.91, 114677.66, 161487.77, 1623.47, -65411.86, -75020.16, 489.48, -74753.40, -85889.80, -62142.30, -108327.75, 0.000, 0.000, 0.000, 16:55:31.007
108, -46060.15, 95299.27, 82188.23, 115455.38, 135257.17, 104247.91, 114677.66, 161487.77, 1600.85, -65433.77, -75038.58, 471.93, -74767.72, -85909.06, -62148.82, -108339.95, 0.000, 0.000, 0.000, 16:55:31.007
109, -46050.80, 95292.13, 82181.20, 115450.42, 135252.55, 104252.60, 114679.63, 161490.52, 1600.85, -65433.77, -75038.58, 471.93, -74767.72, -85909.06, -62148.82, -108339.95, 0.000, 0.000, 0.000, 16:55:31.007
110, -46050.80, 95292.13, 82181.20, 115450.42, 135252.55, 104252.60, 114679.63, 161490.52, 1602.96, -65432.74, -75035.50, 475.53, -74787.68, -85910.38, -62144.53, -108334.97, 0.000, 0.000, 0.000, 16:55:31.007
111, -46036.01, 95286.06, 82179.70, 115446.48, 135240.75, 104240.48, 114675.77, 161508.31, 1602.96, -65432.74, -75035.50, 475.53, -74787.68, -85910.38, -62144.53, -108334.97, 0.000, 0.000, 0.000, 16:55:31.007
112, -46036.01, 95286.06, 82179.70, 115446.48, 135240.75, 104240.48, 114675.77, 161508.31, 1599.04, -65438.35, -75038.89, 471.93, -74778.61, -85911.77, -62151.91, -108341.34, 0.000, 0.000, 0.000, 16:55:31.008
113, -46027.05, 95301.02, 82197.17, 115459.34, 135261.11, 104254.95, 114679.80, 161525.55, 1599.04, -65438.35, -75038.89, 471.93, -74778.61, -85911.77, -62151.91, -108341.34, 0.000, 0.000, 0.000, 16:55:31.008
114, -46027.05, 95301.02, 82197.17, 115459.34, 135261.11, 104254.95, 114679.80, 161525.55, 1598.37, -65422.70, -75017.39, 491.49, -74757.27, -85891.88, -62130.54, -108325.98, 0.000, 0.000, 0.000, 16:55:31.008
115, -46022.98, 95301.82, 82201.06, 115462.65, 135258.97, 104257.09, 114675.13, 161515.83, 1598.37, -65422.70, -75017.39, 491.49, -74757.27, -85891.88, -62130.54, -108325.98, 0.292, 0.918, 0.078, 16:55:31.008
116, -46022.98, 95301.82, 82201.06, 115462.65, 135258.97, 104257.09, 114675.13, 161515.83, 1602.73, -65436.27, -75028.26, 479.85, -74762.13, -85907.88, -62146.12, -108337.72, 0.000, 0.000, 0.000, 16:55:31.008
117, -46002.35, 95294.65, 82191.98, 115450.09, 135232.30, 104231.99, 114653.56, 161510.81, 1602.73, -65436.27, -75028.26, 479.85, -74762.13, -85907.88, -62146.12, -108337.72, 0.000, 0.000, 0.000, 16:55:31.008
118, -46002.35, 95294.65, 82191.98, 115450.09, 135232.30, 104231.99, 114653.56, 161510.81, 1616.03, -65439.82, -75028.08, 477.55, -74754.55, -85906.63, -62157.27, -108349.79, 0.000, 0.000, 0.000, 16:55:31.009
119, -45988.20, 95304.30, 82201.06, 115461.82, 135251.09, 104245.80, 114651.48, 161496.78, 1616.03, -65439.82, -75028.08, 477.55, -74754.55, -85906.63, -62157.27, -108349.79, 0.000, 0.000, 0.000, 16:55:31.009
120, -45988.20, 95304.30, 82201.06, 115461.82, 135251.09, 104245.80, 114651.48, 161496.78, 1608.95, -65436.41, -75023.76, 481.97, -74761.17, -85898.55, -62158.25, -108348.91, 0.000, 0.000, 0.000, 16:55:31.009
121, -45985.96, 95294.11, 82190.00, 115454.42, 135240.52, 104224.39, 114641.31, 161510.75, 1608.95, -65436.41, -75023.76, 481.97, -74761.17, -85898.55, -62158.25, -108348.91, 0.000, 0.000, 0.000, 16:55:31.009
122, -45985.96, 95294.11, 82190.00, 115454.42, 135240.52, 104224.39, 114641.31, 161510.75, 1610.13, -65439.56, -75029.77, 477.46, -74780.91, -85896.45, -62169.07, -108354.23, 0.000, 0.000, 0.000, 16:55:31.009
123, -45980.46, 95287.34, 82185.87, 115450.45, 135233.45, 104219.19, 114640.75, 161505.27, 1610.13, -65439.56, -75029.77, 477.46, -74780.91, -85896.45, -62169.07, -108354.23, 0.000, 0.000, 0.000, 16:55:31.009
124, -45980.46, 95287.34, 82185.87, 115450.45, 135233.45, 104219.19, 114640.75, 161505.27, 1587.51, -65453.17, -75039.25, 466.55, -74765.76, -85916.21, -62176.89, -108366.23, 0.000, 0.000, 0.000, 16:55:31.010
125, -46004.02, 95271.54, 82177.35, 115437.41, 135217.64, 104206.76, 114643.79, 161527.53, 1587.51, -65453.17, -75039.25, 466.55, -74765.76, -85916.21, -62176.89, -108366.23, 0.300, 0.916, 0.084, 16:55:31.010
126, -46004.02, 95271.54, 82177.35, 115437.41, 135217.64, 104206.76, 114643.79, 161527.53, 1585.66, -65464.88, -75041.89, 461.43, -74775.37, -85916.55, -62165.05, -108362.26, 0.000, 0.000, 0.000, 16:55:31.010
127, -45983.62, 95277.21, 82187.30, 115450.71, 135261.42, 104233.76, 114650.07, 161517.17, 1585.66, -65464.88, -75041.89, 461.43, -74775.37, -85916.55, -62165.05, -108362.26, 0.000, 0.000, 0.000, 16:55:31.010
128, -45983.62, 95277.21, 82187.30, 115450.71, 135261.42, 104233.76, 114650.07, 161517.17, 1591.33, -65458.78, -75037.87, 469.79, -74784.28, -85897.70, -62159.57, -108342.14, 0.000, 0.000, 0.000, 16:55:31.010
129, -45983.68, 95283.41, 82193.51, 115459.52, 135260.34, 104252.16, 114661.43, 161510.81, 1591.33, -65458.78, -75037.87, 469.79, -74784.28, -85897.70, -62159.57, -108342.14, 0.000, 0.000, 0.000, 16:55:31.010
130, -45983.68, 95283.41, 82193.51, 115459.52, 135260.34, 104252.16, 114661.43, 161510.81, 1590.17, -65456.70, -75025.62, 475.18, -74751.02, -85902.55, -62145.43, -108334.48, 0.000, 0.000, 0.000, 16:55:31.011
131, -45982.68, 95284.45, 82196.08, 115456.45, 135276.70, 104236.55, 114677.21, 161548.09, 1590.17, -65456.70, -75025.62, 475.18, -74751.02, -85902.55, -62145.43, -108334.48, 0.000, 0.000, 0.000, 16:55:31.011
132, -45982.68, 95284.45, 82196.08, 115456.45, 135276.70, 104236.55, 114677.21, 161548.09, 1587.53, -65456.46, -75037.98, 468.38, -74770.09, -85904.26, -62141.13, -108341.36, 0.000, 0.000, 0.000, 16:55:31.011
133, -45998.77, 95265.14, 82183.30, 115448.73, 135273.63, 104240.06, 114683.51, 161565.17, 1587.53, -65456.46, -75037.98, 468.38, -74770.09, -85904.26, -62141.13, -108341.36, 0.000, 0.000, 0.000, 16:55:31.011
134, -45998.77, 95265.14, 82183.30, 115448.73, 135273.63, 104240.06, 114683.51, 161565.17, 1584.11, -65463.41, -75042.23, 463.53, -74780.64, -85906.85, -62135.86, -108340.80, 0.300, 0.916, 0.084, 16:55:31.012
135, -45995.93, 95270.06, 82193.33, 115450.94, 135284.64, 104234.83, 114682.20, 161570.25, 1584.11, -65463.41, -75042.23, 463.53, -74780.64, -85906.85, -62135.86, -108340.80, 0.000, 0.000, 0.000, 16:55:31.012
136, -45995.93, 95270.06, 82193.33, 115450.94, 135284.64, 104234.83, 114682.20, 161570.25, 1584.11, -65455.81, -75028.70, 472.99, -74747.47, -85899.85, -62124.35, -108337.16, 0.000, 0.000, 0.000, 16:55:31.012
137, -45996.09, 95283.45, 82200.13, 115453.69, 135288.20, 104217.95, 114683.60, 161603.28, 1584.11, -65455.81, -75028.70, 472.99, -74747.47, -85899.85, -62124.35, -108337.16, 0.000, 0.000, 0.000, 16:55:31.013
138, -45996.09, 95283.45, 82200.13, 115453.69, 135288.20, 104217.95, 114683.60, 161603.28, 1582.01, -65468.66, -75037.71, 462.93, -74766.60, -85912.86, -62136.51, -108350.28, 0.000, 0.000, 0.000, 16:55:31.013
139, -45982.92, 95263.96, 82177.02, 115434.13, 135253.44, 104197.03, 114653.18, 161578.47, 1582.01, -65468.66, -75037.71, 462.93, -74766.60, -85912.86, -62136.51, -108350.28, 0.000, 0.000, 0.000, 16:55:31.013
140, -45982.92, 95263.96, 82177.02, 115434.13, 135253.44, 104197.03, 114653.18, 161578.47, 1594.10, -65464.26, -75041.91, 461.52, -74770.90, -85917.55, -62161.61, -108363.96, 0.000, 0.000, 0.000, 16:55:31.013
141, -45978.43, 95260.00, 82176.55, 115436.74, 135242.88, 104212.23, 114648.11, 161581.22, 1594.10, -65464.26, -75041.91, 461.52, -74770.90, -85917.55, -62161.61, -108363.96, 0.000, 0.000, 0.000, 16:55:31.013
142, -45978.43, 95260.00, 82176.55, 115436.74, 135242.88, 104212.23, 114648.11, 161581.22, 1598.46, -65465.29, -75044.84, 457.38, -74784.27, -85913.06, -62179.31, -108378.87, 0.000, 0.000, 0.000, 16:55:31.014
143, -45989.74, 95264.74, 82176.99, 115437.75, 135253.13, 104187.34, 114635.43, 161574.14, 1598.46, -65465.29, -75044.84, 457.38, -74784.27, -85913.06, -62179.31, -108378.87, 0.000, 0.000, 0.000, 16:55:31.014
144, -45989.74, 95264.74, 82176.99, 115437.75, 135253.13, 104187.34, 114635.43, 161574.14, 1576.63, -65456.75, -75033.59, 467.33, -74756.14, -85914.91, -62180.94, -108378.04, 0.304, 0.916, 0.080, 16:55:31.014
145, -46008.09, 95268.97, 82172.20, 115431.38, 135258.94, 104186.55, 114621.33, 161588.47, 1576.63, -65456.75, -75033.59, 467.33, -74756.14, -85914.91, -62180.94, -108378.04, 0.000, 0.000, 0.000, 16:55:31.014
146, -46008.09, 95268.97, 82172.20, 115431.38, 135258.94, 104186.55, 114621.33, 161588.47, 1580.58, -65461.95, -75038.31, 465.07, -74767.39, -85923.63, -62178.91, -108392.77, 0.000, 0.000, 0.000, 16:55:31.015
147, -46010.80, 95275.18, 82185.69, 115449.33, 135264.03, 104187.16, 114630.36, 161601.78, 1580.58, -65461.95, -75038.31, 465.07, -74767.39, -85923.63, -62178.91, -108392.77, 0.000, 0.000, 0.000, 16:55:31.015
148, -46010.80, 95275.18, 82185.69, 115449.33, 135264.03, 104187.16, 114630.36, 161601.78, 1575.44, -65441.86, -75021.39, 484.61, -74754.49, -85898.02, -62165.63, -108359.45, 0.000, 0.000, 0.000, 16:55:31.015
149, -46009.95, 95274.04, 82189.91, 115458.42, 135268.23, 104222.98, 114639.32, 161625.17, 1575.44, -65441.86, -75021.39, 484.61, -74754.49, -85898.02, -62165.63, -108359.45, 0.000, 0.000, 0.000, 16:55:31.015
150, -46009.95, 95274.04, 82189.91, 115458.42, 135268.23, 104222.98, 114639.32, 161625.17, 1582.28, -65458.13, -75032.97, 473.32, -74779.75, -85909.13, -62168.09, -108376.77, 0.000, 0.000, 0.000, 16:55:31.015
151, -46005.99, 95270.82, 82188.59, 115461.53, 135258.67, 104205.98, 114638.90, 161607.31, 1582.28, -65458.13, -75032.97, 473.32, -74779.75, -85909.13, -62168.09, -108376.77, 0.000, 0.000, 0.000, 16:55:31.016
152, -46005.99, 95270.82, 82188.59, 115461.53, 135258.67, 104205.98, 114638.90, 161607.31, 1577.90, -65442.57, -75021.44, 486.28, -74765.15, -85894.11, -62157.88, -108354.48, 0.000, 0.000, 0.000, 16:55:31.016
153, -46026.42, 95282.35, 82191.12, 115466.83, 135269.13, 104199.72, 114660.82, 161625.39, 1577.90, -65442.57, -75021.44, 486.28, -74765.15, -85894.11, -62157.88, -108354.48, 0.000, 0.000, 0.000, 16:55:31.016
154, -46026.42, 95282.35, 82191.12, 115466.83, 135269.13, 104199.72, 114660.82, 161625.39, 1568.02, -65451.32, -75027.72, 479.56, -74770.80, -85888.27, -62149.94, -108355.04, 0.308, 0.922, 0.078, 16:55:31.016
155, -46022.08, 95281.13, 82188.75, 115467.50, 135279.70, 104234.92, 114656.02, 161627.09, 1568.02, -65451.32, -75027.72, 479.56, -74770.80, -85888.27, -62149.94, -108355.04, 0.000, 0.000, 0.000, 16:55:31.016
156, -46022.08, 95281.13, 82188.75, 115467.50, 135279.70, 104234.92, 114656.02, 161627.09, 1585.68, -65452.93, -75025.64, 481.28, -74766.98, -85887.73, -62135.10, -108352.38, 0.000, 0.000, 0.000, 16:55:31.016
157, -46005.84, 95278.17, 82191.14, 115462.85, 135290.17, 104204.50, 114659.10, 161665.94, 1585.68, -65452.93, -75025.64, 481.28, -74766.98, -85887.73, -62135.10, -108352.38, 0.000, 0.000, 0.000, 16:55:31.017
158, -46005.84, 95278.17, 82191.14, 115462.85, 135290.17, 104204.50, 114659.10, 161665.94, 1599.38, -65466.02, -75029.75, 472.56, -74766.70, -85909.51, -62137.38, -108365.16, 0.000, 0.000, 0.000, 16:55:31.017
159, -45994.43, 95278.91, 82199.88, 115462.94, 135303.08, 104197.52, 114672.65, 161686.77, 1599.38, -65466.02, -75029.75, 472.56, -74766.70, -85909.51, -62137.38, -108365.16, 0.000, 0.000, 0.000, 16:55:31.017
160, -45994.43, 95278.91, 82199.88, 115462.94, 135303.08, 104197.52, 114672.65, 161686.77, 1611.05, -65447.43, -75006.66, 492.23, -74744.88, -85894.27, -62114.69, -108349.70, 0.000, 0.000, 0.000, 16:55:31.017
161, -45998.95, 95297.42, 82216.58, 115475.88, 135314.39, 104204.61, 114688.00, 161699.55, 1611.05, -65447.43, -75006.66, 492.23, -74744.88, -85894.27, -62114.69, -108349.70, 0.000, 0.000, 0.000, 16:55:31.017
162, -45998.95, 95297.42, 82216.58, 115475.88, 135314.39, 104204.61, 114688.00, 161699.55, 1602.82, -65448.41, -75007.71, 489.03, -74748.59, -85878.41, -62123.63, -108359.17, 0.000, 0.000, 0.000, 16:55:31.018
163, -46010.28, 95286.76, 82197.35, 115457.53, 135296.11, 104173.38, 114665.36, 161713.45, 1602.82, -65448.41, -75007.71, 489.03, -74748.59, -85878.41, -62123.63, -108359.17, 0.000, 0.000, 0.000, 16:55:31.018
164, -46010.28, 95286.76, 82197.35, 115457.53, 135296.11, 104173.38, 114665.36, 161713.45, 1605.59, -65465.66, -75025.04, 471.44, -74776.93, -85906.31, -62155.57, -108390.65, 0.304, 0.920, 0.076, 16:55:31.018
165, -46003.73, 95285.44, 82185.69, 115447.27, 135283.23, 104156.98, 114641.16, 161697.63, 1605.59, -65465.66, -75025.04, 471.44, -74776.93, -85906.31, -62155.57, -108390.65, 0.000, 0.000, 0.000, 16:55:31.018
166, -46003.73, 95285.44, 82185.69, 115447.27, 135283.23, 104156.98, 114641.16, 161697.63, 1616.59, -65462.40, -75019.45, 474.71, -74756.88, -85901.62, -62161.92, -108385.05, 0.000, 0.000, 0.000, 16:55:31.018
167, -45994.73, 95289.48, 82190.11, 115449.13, 135298.97, 104171.04, 114622.67, 161677.38, 1616.59, -65462.40, -75019.45, 474.71, -74756.88, -85901.62, -62161.92, -108385.05, 0.000, 0.000, 0.000, 16:55:31.019
168, -45994.73, 95289.48, 82190.11, 115449.13, 135298.97, 104171.04, 114622.67, 161677.38, 1636.30, -65467.14, -75022.47, 469.27, -74757.33, -85897.73, -62168.49, -108392.19, 0.000, 0.000, 0.000, 16:55:31.019
169, -45953.84, 95274.84, 82183.09, 115444.50, 135279.59, 104152.48, 114614.84, 161685.67, 1636.30, -65467.14, -75022.47, 469.27, -74757.33, -85897.73, -62168.49, -108392.19, 0.000, 0.000, 0.000, 16:55:31.019
170, -45953.84, 95274.84, 82183.09, 115444.50, 135279.59, 104152.48, 114614.84, 161685.67, 1671.58, -65464.14, -75024.95, 469.77, -74759.19, -85898.16, -62177.54, -108394.78, 0.000, 0.000, 0.000, 16:55:31.019
171, -45919.02, 95288.92, 82189.66, 115452.39, 135271.61, 104152.48, 114618.55, 161707.80, 1671.58, -65464.14, -75024.95, 469.77, -74759.19, -85898.16, -62177.54, -108394.78, 0.000, 0.000, 0.000, 16:55:31.019
172, -45919.02, 95288.92, 82189.66, 115452.39, 135271.61, 104152.48, 114618.55, 161707.80, 1674.15, -65447.65, -75013.37, 483.36, -74769.69, -85888.05, -62174.37, -108386.40, 0.000, 0.000, 0.000, 16:55:31.020
173, -45916.89, 95295.70, 82196.68, 115462.34, 135283.92, 104152.13, 114616.41, 161717.17, 1674.15, -65447.65, -75013.37, 483.36, -74769.69, -85888.05, -62174.37, -108386.40, 0.000, 0.000, 0.000, 16:55:31.475
174, -45916.89, 95295.70, 82196.68, 115462.34, 135283.92, 104152.13, 114616.41, 161717.17, 1676.05, -65443.27, -75006.10, 487.56, -74743.13, -85877.55, -62164.54, -108378.62, 0.304, 0.912, 0.080, 16:55:31.475
175, -45896.55, 95296.28, 82210.27, 115463.92, 135287.66, 104144.17, 114626.11, 161727.77, 1676.05, -65443.27, -75006.10, 487.56, -74743.13, -85877.55, -62164.54, -108378.62, 0.000, 0.000, 0.000, 16:55:31.475
176, -45896.55, 95296.28, 82210.27, 115463.92, 135287.66, 104144.17, 114626.11, 161727.77, 1701.53, -65459.88, -75011.54, 476.52, -74754.40, -85897.62, -62151.88, -108383.67, 0.000, 0.000, 0.000, 16:55:31.475
177, -45858.13, 95282.00, 82202.54, 115457.24, 135288.42, 104136.20, 114631.48, 161738.92, 1701.53, -65459.88, -75011.54, 476.52, -74754.40, -85897.62, -62151.88, -108383.67, 0.000, 0.000, 0.000, 16:55:31.475
178, -45858.13, 95282.00, 82202.54, 115457.24, 135288.42, 104136.20, 114631.48, 161738.92, 1701.55, -65456.07, -75012.92, 476.34, -74764.13, -85885.59, -62152.73, -108382.73, 0.000, 0.000, 0.000, 16:55:31.476
179, -45861.98, 95281.08, 82206.00, 115458.18, 135296.80, 104135.99, 114644.58, 161746.06, 1701.55, -65456.07, -75012.92, 476.34, -74764.13, -85885.59, -62152.73, -108382.73, 0.000, 0.000, 0.000, 16:55:31.476
180, -45861.98, 95281.08, 82206.00, 115458.18, 135296.80, 104135.99, 114644.58, 161746.06, 1708.68, -65454.82, -75009.14, 479.85, -74751.56, -85888.27, -62138.83, -108372.48, 0.000, 0.000, 0.000, 16:55:31.476
181, -45851.54, 95277.99, 82213.29, 115465.84, 135309.05, 104134.31, 114661.02, 161782.45, 1708.68, -65454.82, -75009.14, 479.85, -74751.56, -85888.27, -62138.83, -108372.48, 0.000, 0.000, 0.000, 16:55:31.476
182, -45851.54, 95277.99, 82213.29, 115465.84, 135309.05, 104134.31, 114661.02, 161782.45, 1715.68, -65457.77, -75019.00, 475.67, -74772.22, -85889.46, -62140.30, -108378.20, 0.000, 0.000, 0.000, 16:55:31.476
183, -45853.51, 95267.76, 82203.34, 115457.59, 135296.09, 104123.34, 114665.92, 161780.56, 1715.68, -65457.77, -75019.00, 475.67, -74772.22, -85889.46, -62140.30, -108378.20, 0.000, 0.000, 0.000, 16:55:31.476
184, -45853.51, 95267.76, 82203.34, 115457.59, 135296.09, 104123.34, 114665.92, 161780.56, 1713.10, -65450.91, -75008.32, 482.42, -74757.33, -85887.72, -62128.93, -108372.67, 0.306, 0.920, 0.080, 16:55:31.477
185, -45870.20, 95284.16, 82230.21, 115475.91, 135352.45, 104149.56, 114669.09, 161779.02, 1713.10, -65450.91, -75008.32, 482.42, -74757.33, -85887.72, -62128.93, -108372.67, 0.000, 0.000, 0.000, 16:55:31.477
186, -45870.20, 95284.16, 82230.21, 115475.91, 135352.45, 104149.56, 114669.09, 161779.02, 1705.66, -65436.94, -74992.36, 498.33, -74743.98, -85867.98, -62126.45, -108365.91, 0.000, 0.000, 0.000, 16:55:31.477
187, -45893.38, 95284.19, 82233.30, 115478.34, 135321.34, 104131.39, 114659.75, 161773.86, 1705.66, -65436.94, -74992.36, 498.33, -74743.98, -85867.98, -62126.45, -108365.91, 0.000, 0.000, 0.000, 16:55:31.477
188, -45893.38, 95284.19, 82233.30, 115478.34, 135321.34, 104131.39, 114659.75, 161773.86, 1698.53, -65427.62, -74988.00, 505.22, -74751.49, -85875.65, -62128.46, -108363.17, 0.000, 0.000, 0.000, 16:55:31.477
189, -45904.74, 95291.05, 82241.43, 115489.94, 135321.91, 104141.18, 114649.85, 161780.77, 1698.53, -65427.62, -74988.00, 505.22, -74751.49, -85875.65, -62128.46, -108363.17, 0.000, 0.000, 0.000, 16:55:31.478
190, -45904.74, 95291.05, 82241.43, 115489.94, 135321.91, 104141.18, 114649.85, 161780.77, 1678.19, -65430.57, -74987.35, 505.98, -74740.01, -85863.27, -62139.46, -108369.79, 0.000, 0.000, 0.000, 16:55:31.478
191, -45922.84, 95290.94, 82232.52, 115477.67, 135310.58, 104105.75, 114621.75, 161773.72, 1678.19, -65430.57, -74987.35, 505.98, -74740.01, -85863.27, -62139.46, -108369.79, 0.000, 0.000, 0.000, 16:55:31.478
192, -45922.84, 95290.94, 82232.52, 115477.67, 135310.58, 104105.75, 114621.75, 161773.72, 1675.46, -65441.75, -74992.05, 497.33, -74753.09, -85879.87, -62155.35, -108384.56, 0.000, 0.000, 0.000, 16:55:31.478
193, -45937.46, 95295.92, 82227.13, 115473.20, 135296.28, 104098.33, 114615.80, 161770.77, 1675.46, -65441.75, -74992.05, 497.33, -74753.09, -85879.87, -62155.35, -108384.56, 0.306, 0.926, 0.080, 16:55:31.478
194, -45937.46, 95295.92, 82227.13, 115473.20, 135296.28, 104098.33, 114615.80, 161770.77, 1651.82, -65445.84, -74992.24, 496.03, -74734.20, -85879.18, -62156.89, -108385.77, 0.000, 0.000, 0.000, 16:55:31.479
195, -45945.64, 95298.29, 82232.78, 115476.08, 135296.02, 104112.45, 114616.92, 161786.02, 1651.82, -65445.84, -74992.24, 496.03, -74734.20, -85879.18, -62156.89, -108385.77, 0.000, 0.000, 0.000, 16:55:31.479
196, -45945.64, 95298.29, 82232.78, 115476.08, 135296.02, 104112.45, 114616.92, 161786.02, 1646.18, -65454.89, -74995.09, 489.53, -74741.66, -85889.01, -62165.18, -108383.63, 0.000, 0.000, 0.000, 16:55:31.479
197, -45970.27, 95295.09, 82226.79, 115469.11, 135334.06, 104102.89, 114595.52, 161780.45, 1646.18, -65454.89, -74995.09, 489.53, -74741.66, -85889.01, -62165.18, -108383.63, 0.000, 0.000, 0.000, 16:55:31.479
198, -45970.27, 95295.09, 82226.79, 115469.11, 135334.06, 104102.89, 114595.52, 161780.45, 1621.78, -65445.79, -74988.91, 496.52, -74736.09, -85874.39, -62156.96, -108380.63, 0.000, 0.000, 0.000, 16:55:31.480
199, -46002.79, 95302.05, 82238.77, 115478.38, 135316.11, 104092.63, 114609.05, 161816.83, 1621.78, -65445.79, -74988.91, 496.52, -74736.09, -85874.39, -62156.96, -108380.63, 0.000, 0.000, 0.000, 16:55:31.480
200, -46002.79, 95302.05, 82238.77, 115478.38, 135316.11, 104092.63, 114609.05, 161816.83, 1601.70, -65449.75, -74987.46, 497.44, -74734.04, -85885.91, -62154.57, -108385.93, 0.000, 0.000, 0.000, 16:55:31.480
201, -46018.26, 95291.77, 82236.02, 115473.34, 135315.84, 104087.17, 114602.95, 161811.61, 1601.70, -65449.75, -74987.46, 497.44, -74734.04, -85885.91, -62154.57, -108385.93, 0.000, 0.000, 0.000, 16:55:31.480
202, -46018.26, 95291.77, 82236.02, 115473.34, 135315.84, 104087.17, 114602.95, 161811.61, 1608.05, -65448.90, -74990.95, 493.53, -74736.36, -85885.55, -62148.22, -108380.23, 0.000, 0.000, 0.000, 16:55:31.480
203, -46020.61, 95300.17, 82242.10, 115478.02, 135321.70, 104104.88, 114618.09, 161820.81, 1608.05, -65448.90, -74990.95, 493.53, -74736.36, -85885.55, -62148.22, -108380.23, 0.300, 0.926, 0.084, 16:55:31.480
204, -46020.61, 95300.17, 82242.10, 115478.02, 135321.70, 104104.88, 114618.09, 161820.81, 1601.93, -65445.61, -74989.63, 494.58, -74725.91, -85883.78, -62143.43, -108371.98, 0.000, 0.000, 0.000, 16:55:31.481
205, -46042.40, 95285.33, 82230.23, 115469.31, 135320.77, 104084.13, 114623.77, 161836.23, 1601.93, -65445.61, -74989.63, 494.58, -74725.91, -85883.78, -62143.43, -108371.98, 0.000, 0.000, 0.000, 16:55:31.481
206, -46042.40, 95285.33, 82230.23, 115469.31, 135320.77, 104084.13, 114623.77, 161836.23, 1576.36, -65464.08, -75003.47, 482.08, -74738.76, -85901.44, -62144.13, -108381.02, 0.000, 0.000, 0.000, 16:55:31.481
207, -46058.88, 95283.27, 82221.80, 115465.09, 135304.78, 104076.09, 114625.59, 161860.44, 1576.36, -65464.08, -75003.47, 482.08, -74738.76, -85901.44, -62144.13, -108381.02, 0.000, 0.000, 0.000, 16:55:31.481
208, -46058.88, 95283.27, 82221.80, 115465.09, 135304.78, 104076.09, 114625.59, 161860.44, 1509.68, -65451.54, -75003.35, 488.07, -74748.55, -85883.58, -62140.20, -108376.43, 0.000, 0.000, 0.000, 16:55:31.481
209, -46082.72, 95297.22, 82234.88, 115477.11, 135316.89, 104088.88, 114636.02, 161868.31, 1509.68, -65451.54, -75003.35, 488.07, -74748.55, -85883.58, -62140.20, -108376.43, 0.000, 0.000, 0.000, 16:55:31.482
210, -46082.72, 95297.22, 82234.88, 115477.11, 135316.89, 104088.88, 114636.02, 161868.31, 1423.69, -65446.26, -74991.87, 494.51, -74729.34, -85874.23, -62137.29, -108378.40, 0.000, 0.000, 0.000, 16:55:31.482
211, -46110.80, 95303.63, 82235.57, 115474.07, 135304.22, 104069.14, 114621.30, 161851.19, 1423.69, -65446.26, -74991.87, 494.51, -74729.34, -85874.23, -62137.29, -108378.40, 0.000, 0.000, 0.000, 16:55:31.482
212, -46110.80, 95303.63, 82235.57, 115474.07, 135304.22, 104069.14, 114621.30, 161851.19, 1390.30, -65444.21, -74991.13, 494.06, -74747.18, -85875.80, -62144.48, -108383.31, 0.000, 0.000, 0.000, 16:55:31.482
213, -46124.23, 95304.23, 82239.75, 115475.48, 135308.97, 104065.41, 114612.03, 161865.81, 1390.30, -65444.21, -74991.13, 494.06, -74747.18, -85875.80, -62144.48, -108383.31, 0.304, 0.918, 0.078, 16:55:31.482
214, -46124.23, 95304.23, 82239.75, 115475.48, 135308.97, 104065.41, 114612.03, 161865.81, 1367.68, -65448.68, -74990.39, 493.26, -74729.52, -85887.60, -62150.25, -108386.31, 0.000, 0.000, 0.000, 16:55:31.482
215, -46149.20, 95303.48, 82242.03, 115479.10, 135304.31, 104066.19, 114600.72, 161877.03, 1367.68, -65448.68, -74990.39, 493.26, -74729.52, -85887.60, -62150.25, -108386.31, 0.000, 0.000, 0.000, 16:55:31.483
216, -46149.20, 95303.48, 82242.03, 115479.10, 135304.31, 104066.19, 114600.72, 161877.03, 1357.00, -65444.48, -74984.76, 500.19, -74721.56, -85873.73, -62146.21, -108372.09, 0.000, 0.000, 0.000, 16:55:31.483
217, -46151.10, 95302.74, 82247.24, 115492.51, 135318.00, 104076.00, 114594.91, 161884.67, 1357.00, -65444.48, -74984.76, 500.19, -74721.56, -85873.73, -62146.21, -108372.09, 0.000, 0.000, 0.000, 16:55:31.483
218, -46151.10, 95302.74, 82247.24, 115492.51, 135318.00, 104076.00, 114594.91, 161884.67, 1352.53, -65448.32, -74993.23, 497.33, -74726.88, -85869.52, -62155.57, -108381.13, 0.000, 0.000, 0.000, 16:55:31.483
219, -46152.86, 95294.80, 82238.01, 115483.16, 135302.03, 104055.03, 114584.90, 161893.97, 1352.53, -65448.32, -74993.23, 497.33, -74726.88, -85869.52, -62155.57, -108381.13, 0.000, 0.000, 0.000, 16:55:31.483
220, -46152.86, 95294.80, 82238.01, 115483.16, 135302.03, 104055.03, 114584.90, 161893.97, 1336.99, -65446.87, -74986.26, 500.68, -74729.37, -85878.82, -62159.02, -108384.21, 0.000, 0.000, 0.000, 16:55:31.484
221, -46167.06, 95295.23, 82244.60, 115481.27, 135295.53, 104065.54, 114577.32, 161875.00, 1336.99, -65446.87, -74986.26, 500.68, -74729.37, -85878.82, -62159.02, -108384.21, 0.000, 0.000, 0.000, 16:55:31.484
222, -46167.06, 95295.23, 82244.60, 115481.27, 135295.53, 104065.54, 114577.32, 161875.00, 1333.66, -65450.22, -74985.61, 497.17, -74730.53, -85879.65, -62164.98, -108386.53, 0.000, 0.000, 0.000, 16:55:31.484
223, -46185.74, 95297.40, 82244.85, 115478.72, 135287.30, 104050.34, 114576.36, 161886.02, 1333.66, -65450.22, -74985.61, 497.17, -74730.53, -85879.65, -62164.98, -108386.53, 0.294, 0.920, 0.076, 16:55:31.484
224, -46185.74, 95297.40, 82244.85, 115478.72, 135287.30, 104050.34, 114576.36, 161886.02, 1320.92, -65458.29, -74993.07, 490.69, -74732.97, -85895.80, -62163.53, -108386.02, 0.000, 0.000, 0.000, 16:55:31.484
225, -46187.98, 95289.30, 82245.79, 115486.90, 135309.34, 104065.63, 114587.98, 161909.44, 1320.92, -65458.29, -74993.07, 490.69, -74732.97, -85895.80, -62163.53, -108386.02, 0.000, 0.000, 0.000, 16:55:31.484
226, -46187.98, 95289.30, 82245.79, 115486.90, 135309.34, 104065.63, 114587.98, 161909.44, 1314.95, -65443.27, -74984.91, 503.50, -74721.25, -85871.71, -62147.41, -108349.20, 0.000, 0.000, 0.000, 16:55:31.485
227, -46221.28, 95297.13, 82259.40, 115505.12, 135324.31, 104087.47, 114609.23, 161924.23, 1314.95, -65443.27, -74984.91, 503.50, -74721.25, -85871.71, -62147.41, -108349.20, 0.000, 0.000, 0.000, 16:55:31.485
228, -46221.28, 95297.13, 82259.40, 115505.12, 135324.31, 104087.47, 114609.23, 161924.23, 1281.18, -65437.90, -74982.21, 508.01, -74718.48, -85856.78, -62132.98, -108336.27, 0.000, 0.000, 0.000, 16:55:31.485
229, -46242.92, 95290.65, 82259.09, 115500.83, 135328.41, 104089.57, 114629.71, 161953.09, 1281.18, -65437.90, -74982.21, 508.01, -74718.48, -85856.78, -62132.98, -108336.27, 0.000, 0.000, 0.000, 16:55:31.485
230, -46242.92, 95290.65, 82259.09, 115500.83, 135328.41, 104089.57, 114629.71, 161953.09, 1253.84, -65437.14, -74990.73, 501.37, -74728.56, -85871.69, -62131.50, -108344.45, 0.000, 0.000, 0.000, 16:55:31.485
231, -46272.38, 95276.03, 82241.59, 115473.45, 135328.14, 104066.39, 114625.55, 161944.39, 1253.84, -65437.14, -74990.73, 501.37, -74728.56, -85871.69, -62131.50, -108344.45, 0.000, 0.000, 0.000, 16:55:31.486
232, -46272.38, 95276.03, 82241.59, 115473.45, 135328.14, 104066.39, 114625.55, 161944.39, 1227.98, -65460.99, -75019.11, 467.84, -74754.09, -85909.20, -62149.74, -108385.73, 0.000, 0.000, 0.000, 16:55:31.486
233, -46275.39, 95258.93, 82221.91, 115442.11, 135324.03, 104027.92, 114612.73, 161944.23, 1227.98, -65460.99, -75019.11, 467.84, -74754.09, -85909.20, -62149.74, -108385.73, 0.298, 0.922, 0.078, 16:55:31.486
234, -46275.39, 95258.93, 82221.91, 115442.11, 135324.03, 104027.92, 114612.73, 161944.23, 1186.52, -65454.76, -75024.73, 467.71, -74752.10, -85906.80, -62154.79, -108393.66, 0.000, 0.000, 0.000, 16:55:31.486
235, -46284.63, 95273.26, 82230.73, 115457.30, 135317.19, 104037.95, 114619.65, 161944.31, 1186.52, -65454.76, -75024.73, 467.71, -74752.10, -85906.80, -62154.79, -108393.66, 0.000, 0.000, 0.000, 16:55:31.486
236, -46284.63, 95273.26, 82230.73, 115457.30, 135317.19, 104037.95, 114619.65, 161944.31, 1157.28, -65434.89, -75013.70, 484.70, -74745.30, -85890.87, -62154.25, -108373.28, 0.000, 0.000, 0.000, 16:55:31.487
237, -46260.13, 95297.27, 82237.20, 115475.01, 135300.92, 104049.52, 114612.59, 161947.33, 1157.28, -65434.89, -75013.70, 484.70, -74745.30, -85890.87, -62154.25, -108373.28, 0.000, 0.000, 0.000, 16:55:31.487
238, -46260.13, 95297.27, 82237.20, 115475.01, 135300.92, 104049.52, 114612.59, 161947.33, 1141.62, -65415.62, -75001.43, 502.18, -74728.41, -85876.38, -62148.51, -108352.20, 0.000, 0.000, 0.000, 16:55:31.487
239, -46236.79, 95317.11, 82252.49, 115496.11, 135303.44, 104064.29, 114608.77, 161981.98, 1141.62, -65415.62, -75001.43, 502.18, -74728.41, -85876.38, -62148.51, -108352.20, 0.000, 0.000, 0.000, 16:55:31.487
240, -46236.79, 95317.11, 82252.49, 115496.11, 135303.44, 104064.29, 114608.77, 161981.98, 1117.34, -65405.45, -74994.19, 509.80, -74728.48, -85870.59, -62146.16, -108338.39, 0.000, 0.000, 0.000, 16:55:31.487
241, -46210.93, 95311.05, 82251.02, 115487.70, 135292.98, 104056.91, 114598.77, 161972.17, 1117.34, -65405.45, -74994.19, 509.80, -74728.48, -85870.59, -62146.16, -108338.39, 0.000, 0.000, 0.000, 16:55:31.487
242, -46210.93, 95311.05, 82251.02, 115487.70, 135292.98, 104056.91, 114598.77, 161972.17, 1089.94, -65415.04, -74997.70, 499.78, -74742.73, -85888.84, -62150.45, -108338.48, 0.298, 0.922, 0.078, 16:55:31.488
243, -46180.67, 95316.75, 82258.13, 115489.74, 135318.58, 104068.35, 114590.08, 161949.64, 1089.94, -65415.04, -74997.70, 499.78, -74742.73, -85888.84, -62150.45, -108338.48, 0.000, 0.000, 0.000, 16:55:31.488
244, -46180.67, 95316.75, 82258.13, 115489.74, 135318.58, 104068.35, 114590.08, 161949.64, 1039.27, -65408.67, -74991.84, 504.23, -74728.85, -85873.39, -62142.54, -108329.91, 0.000, 0.000, 0.000, 16:55:31.488
245, -46135.27, 95322.52, 82263.27, 115493.59, 135325.09, 104061.90, 114599.24, 161964.42, 1039.27, -65408.67, -74991.84, 504.23, -74728.85, -85873.39, -62142.54, -108329.91, 0.000, 0.000, 0.000, 16:55:31.488
246, -46135.27, 95322.52, 82263.27, 115493.59, 135325.09, 104061.90, 114599.24, 161964.42, 1010.61, -65411.39, -74992.54, 501.64, -74735.13, -85881.55, -62145.45, -108337.72, 0.000, 0.000, 0.000, 16:55:31.489
247, -46089.96, 95310.90, 82252.95, 115486.32, 135309.13, 104035.61, 114587.48, 161975.63, 1010.61, -65411.39, -74992.54, 501.64, -74735.13, -85881.55, -62145.45, -108337.72, 0.000, 0.000, 0.000, 16:55:31.489
248, -46089.96, 95310.90, 82252.95, 115486.32, 135309.13, 104035.61, 114587.48, 161975.63, 976.70, -65414.19, -74995.38, 496.97, -74729.91, -85888.07, -62150.30, -108336.84, 0.000, 0.000, 0.000, 16:55:31.489
249, -45946.02, 95323.08, 82259.63, 115497.54, 135304.66, 104050.01, 114597.44, 162002.95, 976.70, -65414.19, -74995.38, 496.97, -74729.91, -85888.07, -62150.30, -108336.84, 0.000, 0.000, 0.000, 16:55:31.489
250, -45946.02, 95323.08, 82259.63, 115497.54, 135304.66, 104050.01, 114597.44, 162002.95, 957.46, -65402.57, -74982.68, 507.79, -74721.45, -85891.36, -62136.19, -108315.55, 0.000, 0.000, 0.000, 16:55:31.489
251, -45595.95, 95336.04, 82267.34, 115509.79, 135307.22, 104051.63, 114616.86, 162018.84, 957.46, -65402.57, -74982.68, 507.79, -74721.45, -85891.36, -62136.19, -108315.55, 0.000, 0.000, 0.000, 16:55:31.490
252, -45595.95, 95336.04, 82267.34, 115509.79, 135307.22, 104051.63, 114616.86, 162018.84, 911.66, -65406.81, -74985.25, 506.13, -74731.71, -85871.64, -62130.11, -108313.06, 0.308, 0.930, 0.070, 16:55:31.490
253, -45250.95, 95315.44, 82253.08, 115500.11, 135328.00, 104059.46, 114619.88, 162024.86, 911.66, -65406.81, -74985.25, 506.13, -74731.71, -85871.64, -62130.11, -108313.06, 0.000, 0.000, 0.000, 16:55:31.490
254, -45250.95, 95315.44, 82253.08, 115500.11, 135328.00, 104059.46, 114619.88, 162024.86, 884.97, -65421.43, -75001.68, 488.79, -74751.45, -85876.98, -62131.72, -108319.39, 0.000, 0.000, 0.000, 16:55:31.490
255, -44912.72, 95296.93, 82233.90, 115481.27, 135325.55, 104073.07, 114622.31, 162040.27, 884.97, -65421.43, -75001.68, 488.79, -74751.45, -85876.98, -62131.72, -108319.39, 0.000, 0.000, 0.000, 16:55:31.490
0, -44912.72, 95296.93, 82233.90, 115481.27, 135325.55, 104073.07, 114622.31, 162040.27, 875.12, -65440.83, -75019.45, 465.23, -74737.95, -85897.55, -62142.74, -108338.41, 0.000, 0.000, 0.000, 16:55:31.490
1, -44630.20, 95282.87, 82219.99, 115460.84, 135344.33, 104047.79, 114620.99, 162040.47, 875.12, -65440.83, -75019.45, 465.23, -74737.95, -85897.55, -62142.74, -108338.41, 0.000, 0.000, 0.000, 16:55:31.491
2, -44630.20, 95282.87, 82219.99, 115460.84, 135344.33, 104047.79, 114620.99, 162040.47, 844.90, -65440.25, -75025.70, 456.06, -74743.90, -85919.05, -62139.48, -108358.30, 0.000, 0.000, 0.000, 16:55:31.491
3, -44360.14, 95278.55, 82212.95, 115457.91, 135341.06, 104031.52, 114623.09, 162044.80, 844.90, -65440.25, -75025.70, 456.06, -74743.90, -85919.05, -62139.48, -108358.30, 0.000, 0.000, 0.000, 16:55:31.491
4, -44360.14, 95278.55, 82212.95, 115457.91, 135341.06, 104031.52, 114623.09, 162044.80, 864.36, -65439.47, -75031.52, 457.18, -74762.72, -85909.91, -62143.01, -108361.61, 0.000, 0.000, 0.000, 16:55:31.491
5, -44089.29, 95277.17, 82206.12, 115463.79, 135316.77, 104016.23, 114600.20, 162013.33, 864.36, -65439.47, -75031.52, 457.18, -74762.72, -85909.91, -62143.01, -108361.61, 0.000, 0.000, 0.000, 16:55:31.491
6, -44089.29, 95277.17, 82206.12, 115463.79, 135316.77, 104016.23, 114600.20, 162013.33, 889.71, -65432.76, -75021.98, 467.51, -74746.71, -85905.30, -62159.42, -108363.22, 0.306, 0.922, 0.074, 16:55:31.492
7, -43854.64, 95288.84, 82216.06, 115477.65, 135327.92, 104003.02, 114589.95, 162023.47, 889.71, -65432.76, -75021.98, 467.51, -74746.71, -85905.30, -62159.42, -108363.22, 0.000, 0.000, 0.000, 16:55:31.492
8, -43854.64, 95288.84, 82216.06, 115477.65, 135327.92, 104003.02, 114589.95, 162023.47, 899.64, -65424.58, -75008.90, 480.43, -74738.60, -85899.52, -62156.22, -108360.29, 0.000, 0.000, 0.000, 16:55:31.492
9, -43648.84, 95304.35, 82228.38, 115492.66, 135332.50, 104026.29, 114589.41, 162022.56, 899.64, -65424.58, -75008.90, 480.43, -74738.60, -85899.52, -62156.22, -108360.29, 0.000, 0.000, 0.000, 16:55:31.492
10, -43648.84, 95304.35, 82228.38, 115492.66, 135332.50, 104026.29, 114589.41, 162022.56, 899.90, -65415.62, -74995.77, 489.73, -74736.72, -85886.77, -62149.96, -108341.61, 0.000, 0.000, 0.000, 16:55:31.492
11, -43468.57, 95307.52, 82226.79, 115488.20, 135327.66, 104030.27, 114585.90, 162029.36, 899.90, -65415.62, -74995.77, 489.73, -74736.72, -85886.77, -62149.96, -108341.61, 0.000, 0.000, 0.000, 16:55:31.492
12, -43468.57, 95307.52, 82226.79, 115488.20, 135327.66, 104030.27, 114585.90, 162029.36, 893.49, -65417.83, -74992.40, 488.03, -74735.89, -85890.30, -62147.50, -108345.72, 0.000, 0.000, 0.000, 16:55:31.493
13, -43318.62, 95303.88, 82228.24, 115483.93, 135321.84, 104028.55, 114592.85, 162060.33, 893.49, -65417.83, -74992.40, 488.03, -74735.89, -85890.30, -62147.50, -108345.72, 0.000, 0.000, 0.000, 16:55:31.493
14, -43318.62, 95303.88, 82228.24, 115483.93, 135321.84, 104028.55, 114592.85, 162060.33, 891.21, -65428.79, -75005.95, 476.47, -74751.34, -85893.41, -62153.32, -108352.49, 0.000, 0.000, 0.000, 16:55:31.493
15, -43151.05, 95290.84, 82214.74, 115474.70, 135315.95, 104023.92, 114591.34, 162062.88, 891.21, -65428.79, -75005.95, 476.47, -74751.34, -85893.41, -62153.32, -108352.49, 0.000, 0.000, 0.000, 16:55:31.493
16, -43151.05, 95290.84, 82214.74, 115474.70, 135315.95, 104023.92, 114591.34, 162062.88, 903.26, -65423.98, -75005.30, 479.76, -74746.69, -85882.84, -62153.23, -108352.85, 0.308, 0.920, 0.084, 16:55:31.493
17, -43007.57, 95295.67, 82213.70, 115477.60, 135317.55, 104004.77, 114588.07, 162056.44, 903.26, -65423.98, -75005.30, 479.76, -74746.69, -85882.84, -62153.23, -108352.85, 0.000, 0.000, 0.000, 16:55:31.493
18, -43007.57, 95295.67, 82213.70, 115477.60, 135317.55, 104004.77, 114588.07, 162056.44, 902.94, -65427.73, -75012.16, 476.67, -74750.98, -85892.37, -62156.02, -108363.24, 0.000, 0.000, 0.000, 16:55:31.494
19, -42872.66, 95299.25, 82215.34, 115487.55, 135304.56, 104008.23, 114591.94, 162057.70, 902.94, -65427.73, -75012.16, 476.67, -74750.98, -85892.37, -62156.02, -108363.24, 0.000, 0.000, 0.000, 16:55:31.494
20, -42872.66, 95299.25, 82215.34, 115487.55, 135304.56, 104008.23, 114591.94, 162057.70, 909.81, -65405.02, -74994.99, 499.54, -74733.70, -85870.26, -62139.84, -108334.59, 0.000, 0.000, 0.000, 16:55:31.494
21, -42742.79, 95310.63, 82226.79, 115508.36, 135321.08, 104036.68, 114616.84, 162088.14, 909.81, -65405.02, -74994.99, 499.54, -74733.70, -85870.26, -62139.84, -108334.59, 0.000, 0.000, 0.000, 16:55:31.494
22, -42742.79, 95310.63, 82226.79, 115508.36, 135321.08, 104036.68, 114616.84, 162088.14, 913.76, -65403.17, -74996.27, 500.25, -74737.50, -85864.40, -62137.63, -108325.76, 0.000, 0.000, 0.000, 16:55:31.494
23, -42627.91, 95295.74, 82207.52, 115492.89, 135325.08, 104020.95, 114618.40, 162137.47, 913.76, -65403.17, -74996.27, 500.25, -74737.50, -85864.40, -62137.63, -108325.76, 0.000, 0.000, 0.000, 16:55:31.494
24, -42627.91, 95295.74, 82207.52, 115492.89, 135325.08, 104020.95, 114618.40, 162137.47, 906.16, -65427.24, -75017.08, 475.51, -74779.01, -85886.75, -62150.10, -108340.98, 0.000, 0.000, 0.000, 16:55:31.494
25, -42515.32, 95282.31, 82187.79, 115474.27, 135329.02, 104042.63, 114609.46, 162110.38, 906.16, -65427.24, -75017.08, 475.51, -74779.01, -85886.75, -62150.10, -108340.98, 0.000, 0.000, 0.000, 16:55:31.495
26, -42515.32, 95282.31, 82187.79, 115474.27, 135329.02, 104042.63, 114609.46, 162110.38, 904.80, -65443.38, -75027.49, 460.24, -74771.79, -85891.80, -62153.27, -108346.14, 0.310, 0.918, 0.084, 16:55:31.495
27, -42412.81, 95268.36, 82180.73, 115458.76, 135342.28, 104012.97, 114614.91, 162120.69, 904.80, -65443.38, -75027.49, 460.24, -74771.79, -85891.80, -62153.27, -108346.14, 0.000, 0.000, 0.000, 16:55:31.495
28, -42412.81, 95268.36, 82180.73, 115458.76, 135342.28, 104012.97, 114614.91, 162120.69, 894.65, -65458.09, -75033.57, 448.96, -74776.08, -85903.00, -62158.48, -108372.18, 0.000, 0.000, 0.000, 16:55:31.495
29, -42315.83, 95273.23, 82191.07, 115465.64, 135335.78, 104004.67, 114617.64, 162127.70, 894.65, -65458.09, -75033.57, 448.96, -74776.08, -85903.00, -62158.48, -108372.18, 0.000, 0.000, 0.000, 16:55:31.495
30, -42315.83, 95273.23, 82191.07, 115465.64, 135335.78, 104004.67, 114617.64, 162127.70, 916.38, -65433.66, -75011.98, 471.20, -74746.27, -85888.16, -62152.15, -108351.84, 0.000, 0.000, 0.000, 16:55:31.496
31, -42219.11, 95278.40, 82205.55, 115481.09, 135343.81, 104017.98, 114595.49, 162097.75, 916.38, -65433.66, -75011.98, 471.20, -74746.27, -85888.16, -62152.15, -108351.84, 0.000, 0.000, 0.000, 16:55:31.496
32, -42219.11, 95278.40, 82205.55, 115481.09, 135343.81, 104017.98, 114595.49, 162097.75, 920.22, -65428.94, -74999.02, 480.70, -74744.63, -85883.31, -62148.31, -108355.33, 0.000, 0.000, 0.000, 16:55:31.496
33, -42126.91, 95293.38, 82233.88, 115501.79, 135355.98, 104017.66, 114596.07, 162113.20, 920.22, -65428.94, -74999.02, 480.70, -74744.63, -85883.31, -62148.31, -108355.33, 0.000, 0.000, 0.000, 16:55:31.496
34, -42126.91, 95293.38, 82233.88, 115501.79, 135355.98, 104017.66, 114596.07, 162113.20, 936.27, -65418.84, -74986.73, 494.64, -74720.09, -85877.70, -62137.64, -108340.49, 0.000, 0.000, 0.000, 16:55:31.497
35, -42033.86, 95290.52, 82235.06, 115504.47, 135343.25, 103991.64, 114596.88, 162131.22, 936.27, -65418.84, -74986.73, 494.64, -74720.09, -85877.70, -62137.64, -108340.49, 0.298, 0.922, 0.084, 16:55:31.497
36, -42033.86, 95290.52, 82235.06, 115504.47, 135343.25, 103991.64, 114596.88, 162131.22, 936.23, -65416.67, -74984.00, 497.26, -74744.30, -85873.70, -62138.23, -108332.71, 0.000, 0.000, 0.000, 16:55:31.497
37, -41967.72, 95288.23, 82239.80, 115511.82, 135351.03, 104017.28, 114600.34, 162152.80, 936.23, -65416.67, -74984.00, 497.26, -74744.30, -85873.70, -62138.23, -108332.71, 0.000, 0.000, 0.000, 16:55:31.497
38, -41967.72, 95288.23, 82239.80, 115511.82, 135351.03, 104017.28, 114600.34, 162152.80, 944.63, -65418.35, -74990.21, 492.99, -74742.04, -85868.47, -62134.05, -108313.06, 0.000, 0.000, 0.000, 16:55:31.967
39, -41895.75, 95284.61, 82236.34, 115511.94, 135334.80, 104019.09, 114605.30, 162156.94, 944.63, -65418.35, -74990.21, 492.99, -74742.04, -85868.47, -62134.05, -108313.06, 0.000, 0.000, 0.000, 16:55:31.967
40, -41895.75, 95284.61, 82236.34, 115511.94, 135334.80, 104019.09, 114605.30, 162156.94, 944.05, -65427.15, -75004.72, 480.85, -74739.56, -85878.91, -62145.54, -108322.38, 0.000, 0.000, 0.000, 16:55:31.967
41, -41809.16, 95267.96, 82217.72, 115490.66, 135321.45, 103992.23, 114593.08, 162151.91, 944.05, -65427.15, -75004.72, 480.85, -74739.56, -85878.91, -62145.54, -108322.38, 0.000, 0.000, 0.000, 16:55:31.967
42, -41809.16, 95267.96, 82217.72, 115490.66, 135321.45, 103992.23, 114593.08, 162151.91, 936.43, -65431.09, -75008.23, 474.80, -74753.53, -85894.06, -62157.34, -108344.06, 0.000, 0.000, 0.000, 16:55:31.968
43, -41775.99, 95269.66, 82213.24, 115483.19, 135311.91, 103969.91, 114595.49, 162172.42, 936.43, -65431.09, -75008.23, 474.80, -74753.53, -85894.06, -62157.34, -108344.06, 0.000, 0.000, 0.000, 16:55:31.968
44, -41775.99, 95269.66, 82213.24, 115483.19, 135311.91, 103969.91, 114595.49, 162172.42, 911.77, -65433.86, -75005.52, 474.57, -74747.72, -85889.44, -62157.02, -108349.09, 0.000, 0.000, 0.000, 16:55:31.968
45, -41725.52, 95277.50, 82222.41, 115495.02, 135330.42, 103983.75, 114596.80, 162153.39, 911.77, -65433.86, -75005.52, 474.57, -74747.72, -85889.44, -62157.02, -108349.09, 0.294, 0.924, 0.082, 16:55:31.968
46, -41725.52, 95277.50, 82222.41, 115495.02, 135330.42, 103983.75, 114596.80, 162153.39, 907.35, -65423.82, -75000.38, 484.34, -74753.22, -85876.27, -62146.72, -108330.16, 0.000, 0.000, 0.000, 16:55:31.968
47, -41665.62, 95277.39, 82223.66, 115504.87, 135338.22, 103995.84, 114603.70, 162152.28, 907.35, -65423.82, -75000.38, 484.34, -74753.22, -85876.27, -62146.72, -108330.16, 0.000, 0.000, 0.000, 16:55:31.968
48, -41665.62, 95277.39, 82223.66, 115504.87, 135338.22, 103995.84, 114603.70, 162152.28, 924.54, -65419.02, -75000.70, 487.78, -74748.84, -85872.54, -62140.26, -108320.57, 0.000, 0.000, 0.000, 16:55:31.969
49, -41587.90, 95268.41, 82219.26, 115508.38, 135343.05, 104005.41, 114611.59, 162185.42, 924.54, -65419.02, -75000.70, 487.78, -74748.84, -85872.54, -62140.26, -108320.57, 0.000, 0.000, 0.000, 16:55:31.969
50, -41587.90, 95268.41, 82219.26, 115508.38, 135343.05, 104005.41, 114611.59, 162185.42, 931.46, -65422.75, -75008.05, 482.24, -74744.55, -85879.40, -62145.40, -108329.83, 0.000, 0.000, 0.000, 16:55:31.969
51, -41553.03, 95258.13, 82205.47, 115494.05, 135343.00, 103989.81, 114610.84, 162179.16, 931.46, -65422.75, -75008.05, 482.24, -74744.55, -85879.40, -62145.40, -108329.83, 0.000, 0.000, 0.000, 16:55:31.969
52, -41553.03, 95258.13, 82205.47, 115494.05, 135343.00, 103989.81, 114610.84, 162179.16, 917.65, -65428.07, -75013.48, 473.81, -74758.34, -85886.46, -62153.25, -108346.37, 0.000, 0.000, 0.000, 16:55:31.969
53, -41516.91, 95259.76, 82205.13, 115486.72, 135335.09, 103983.24, 114615.23, 162203.19, 917.65, -65428.07, -75013.48, 473.81, -74758.34, -85886.46, -62153.25, -108346.37, 0.000, 0.000, 0.000, 16:55:31.969
54, -41516.91, 95259.76, 82205.13, 115486.72, 135335.09, 103983.24, 114615.23, 162203.19, 905.60, -65432.81, -75007.89, 472.11, -74754.60, -85892.74, -62149.45, -108358.88, 0.000, 0.000, 0.000, 16:55:31.970
55, -41493.91, 95254.91, 82213.09, 115480.41, 135357.08, 103977.56, 114609.05, 162192.81, 905.60, -65432.81, -75007.89, 472.11, -74754.60, -85892.74, -62149.45, -108358.88, 0.294, 0.918, 0.078, 16:55:31.970
56, -41493.91, 95254.91, 82213.09, 115480.41, 135357.08, 103977.56, 114609.05, 162192.81, 925.09, -65444.45, -75011.83, 462.32, -74747.67, -85894.06, -62149.40, -108361.66, 0.000, 0.000, 0.000, 16:55:31.970
57, -41412.26, 95247.55, 82210.00, 115475.81, 135352.09, 103957.78, 114589.41, 162181.64, 925.09, -65444.45, -75011.83, 462.32, -74747.67, -85894.06, -62149.40, -108361.66, 0.000, 0.000, 0.000, 16:55:31.970
58, -41412.26, 95247.55, 82210.00, 115475.81, 135352.09, 103957.78, 114589.41, 162181.64, 948.76, -65437.01, -75006.35, 468.87, -74738.69, -85887.07, -62151.77, -108365.81, 0.000, 0.000, 0.000, 16:55:31.970
59, -41399.96, 95252.34, 82221.16, 115489.91, 135360.14, 103959.99, 114599.63, 162187.73, 948.76, -65437.01, -75006.35, 468.87, -74738.69, -85887.07, -62151.77, -108365.81, 0.000, 0.000, 0.000, 16:55:31.970
60, -41399.96, 95252.34, 82221.16, 115489.91, 135360.14, 103959.99, 114599.63, 162187.73, 924.22, -65434.19, -75007.38, 470.53, -74758.47, -85886.17, -62156.62, -108359.82, 0.000, 0.000, 0.000, 16:55:31.971
61, -41380.52, 95240.38, 82207.43, 115480.93, 135336.20, 103943.79, 114579.71, 162179.02, 924.22, -65434.19, -75007.38, 470.53, -74758.47, -85886.17, -62156.62, -108359.82, 0.000, 0.000, 0.000, 16:55:31.971
62, -41380.52, 95240.38, 82207.43, 115480.93, 135336.20, 103943.79, 114579.71, 162179.02, 935.29, -65435.60, -75004.47, 471.80, -74744.37, -85895.72, -62162.10, -108360.16, 0.000, 0.000, 0.000, 16:55:31.971
63, -41342.21, 95258.41, 82219.16, 115498.77, 135343.94, 103956.15, 114581.41, 162177.91, 935.29, -65435.60, -75004.47, 471.80, -74744.37, -85895.72, -62162.10, -108360.16, 0.000, 0.000, 0.000, 16:55:31.971
64, -41342.21, 95258.41, 82219.16, 115498.77, 135343.94, 103956.15, 114581.41, 162177.91, 954.06, -65420.34, -74982.97, 489.48, -74725.88, -85875.76, -62151.53, -108341.63, 0.000, 0.000, 0.000, 16:55:31.971
65, -41317.82, 95264.98, 82224.17, 115509.41, 135336.41, 103960.62, 114591.29, 162203.52, 954.06, -65420.34, -74982.97, 489.48, -74725.88, -85875.76, -62151.53, -108341.63, 0.294, 0.922, 0.076, 16:55:31.971
66, -41317.82, 95264.98, 82224.17, 115509.41, 135336.41, 103960.62, 114591.29, 162203.52, 966.27, -65428.65, -74992.91, 481.32, -74744.05, -85882.02, -62159.91, -108347.71, 0.000, 0.000, 0.000, 16:55:31.972
67, -41287.74, 95243.40, 82204.21, 115491.84, 135311.13, 103941.71, 114578.44, 162197.81, 966.27, -65428.65, -74992.91, 481.32, -74744.05, -85882.02, -62159.91, -108347.71, 0.000, 0.000, 0.000, 16:55:31.972
68, -41287.74, 95243.40, 82204.21, 115491.84, 135311.13, 103941.71, 114578.44, 162197.81, 976.61, -65440.43, -75007.78, 469.36, -74758.54, -85891.70, -62170.37, -108360.76, 0.000, 0.000, 0.000, 16:55:31.972
69, -41270.73, 95241.85, 82204.57, 115488.11, 135330.39, 103933.77, 114582.05, 162228.78, 976.61, -65440.43, -75007.78, 469.36, -74758.54, -85891.70, -62170.37, -108360.76, 0.000, 0.000, 0.000, 16:55:31.972
70, -41270.73, 95241.85, 82204.57, 115488.11, 135330.39, 103933.77, 114582.05, 162228.78, 981.69, -65444.52, -75009.70, 465.74, -74752.48, -85894.22, -62163.98, -108361.56, 0.000, 0.000, 0.000, 16:55:31.972
71, -41241.65, 95240.71, 82205.40, 115493.02, 135342.41, 103960.35, 114587.35, 162219.50, 981.69, -65444.52, -75009.70, 465.74, -74752.48, -85894.22, -62163.98, -108361.56, 0.000, 0.000, 0.000, 16:55:31.972
72, -41241.65, 95240.71, 82205.40, 115493.02, 135342.41, 103960.35, 114587.35, 162219.50, 984.39, -65425.66, -74993.41, 482.53, -74748.70, -85879.24, -62150.07, -108340.94, 0.000, 0.000, 0.000, 16:55:31.973
73, -41233.76, 95250.68, 82216.66, 115503.04, 135346.30, 103960.11, 114601.52, 162222.94, 984.39, -65425.66, -74993.41, 482.53, -74748.70, -85879.24, -62150.07, -108340.94, 0.000, 0.000, 0.000, 16:55:31.973
74, -41233.76, 95250.68, 82216.66, 115503.04, 135346.30, 103960.11, 114601.52, 162222.94, 976.95, -65442.20, -75005.92, 467.15, -74764.44, -85887.80, -62159.37, -108361.63, 0.000, 0.000, 0.000, 16:55:31.973
75, -41234.00, 95241.67, 82219.86, 115503.41, 135363.17, 103944.55, 114608.41, 162243.63, 976.95, -65442.20, -75005.92, 467.15, -74764.44, -85887.80, -62159.37, -108361.63, 0.302, 0.924, 0.074, 16:55:31.973
76, -41234.00, 95241.67, 82219.86, 115503.41, 135363.17, 103944.55, 114608.41, 162243.63, 987.23, -65431.94, -74999.82, 474.10, -74731.18, -85880.65, -62144.91, -108359.64, 0.000, 0.000, 0.000, 16:55:31.973
77, -41216.19, 95237.74, 82213.89, 115500.27, 135346.53, 103934.36, 114603.36, 162251.69, 987.23, -65431.94, -74999.82, 474.10, -74731.18, -85880.65, -62144.91, -108359.64, 0.000, 0.000, 0.000, 16:55:31.973
78, -41216.19, 95237.74, 82213.89, 115500.27, 135346.53, 103934.36, 114603.36, 162251.69, 984.97, -65437.61, -75005.30, 470.06, -74759.95, -85887.91, -62156.42, -108370.06, 0.000, 0.000, 0.000, 16:55:31.974
80, -41216.19, 95237.74, 82213.89, 115500.27, 135346.53, 103934.36, 114603.36, 162251.69, 971.63, -65438.37, -74998.51, 473.72, -74730.53, -85889.77, -62142.70, -108365.23, 0.000, 0.000, 0.000, 16:55:31.974
81, -41230.52, 95246.13, 82231.38, 115508.16, 135374.97, 103932.48, 114597.45, 162248.00, 971.63, -65438.37, -74998.51, 473.72, -74730.53, -85889.77, -62142.70, -108365.23, 0.000, 0.000, 0.000, 16:55:31.974
82, -41230.52, 95246.13, 82231.38, 115508.16, 135374.97, 103932.48, 114597.45, 162248.00, 965.17, -65433.21, -74986.84, 482.04, -74749.55, -85889.13, -62137.73, -108364.98, 0.000, 0.000, 0.000, 16:55:31.974
83, -41215.41, 95247.09, 82237.56, 115509.66, 135353.39, 103920.21, 114590.17, 162240.84, 965.17, -65433.21, -74986.84, 482.04, -74749.55, -85889.13, -62137.73, -108364.98, 0.000, 0.000, 0.000, 16:55:31.974
84, -41215.41, 95247.09, 82237.56, 115509.66, 135353.39, 103920.21, 114590.17, 162240.84, 968.84, -65431.58, -74984.80, 482.15, -74733.08, -85879.80, -62151.95, -108369.86, 0.000, 0.000, 0.000, 16:55:31.974
85, -41214.78, 95253.86, 82236.18, 115509.12, 135348.86, 103918.77, 114582.86, 162243.84, 968.84, -65431.58, -74984.80, 482.15, -74733.08, -85879.80, -62151.95, -108369.86, 0.302, 0.924, 0.084, 16:55:31.974
86, -41214.78, 95253.86, 82236.18, 115509.12, 135348.86, 103918.77, 114582.86, 162243.84, 962.69, -65430.30, -74988.40, 480.47, -74739.65, -85873.39, -62160.36, -108376.16, 0.000, 0.000, 0.000, 16:55:31.975
87, -41210.02, 95245.49, 82231.82, 115510.46, 135342.45, 103923.60, 114575.66, 162221.58, 962.69, -65430.30, -74988.40, 480.47, -74739.65, -85873.39, -62160.36, -108376.16, 0.000, 0.000, 0.000, 16:55:31.975
88, -41210.02, 95245.49, 82231.82, 115510.46, 135342.45, 103923.60, 114575.66, 162221.58, 939.04, -65421.59, -74977.88, 491.34, -74738.51, -85861.67, -62164.20, -108371.18, 0.000, 0.000, 0.000, 16:55:31.975
89, -41233.54, 95254.70, 82237.98, 115513.23, 135347.88, 103916.30, 114580.38, 162239.59, 939.04, -65421.59, -74977.88, 491.34, -74738.51, -85861.67, -62164.20, -108371.18, 0.000, 0.000, 0.000, 16:55:31.975
90, -41233.54, 95254.70, 82237.98, 115513.23, 135347.88, 103916.30, 114580.38, 162239.59, 938.51, -65428.92, -74984.78, 482.19, -74746.42, -85884.61, -62151.79, -108374.27, 0.000, 0.000, 0.000, 16:55:31.975
91, -41223.97, 95250.19, 82239.80, 115509.03, 135351.44, 103914.91, 114589.30, 162269.33, 938.51, -65428.92, -74984.78, 482.19, -74746.42, -85884.61, -62151.79, -108374.27, 0.000, 0.000, 0.000, 16:55:31.975
92, -41223.97, 95250.19, 82239.80, 115509.03, 135351.44, 103914.91, 114589.30, 162269.33, 949.77, -65423.49, -74980.89, 486.75, -74743.07, -85861.09, -62137.58, -108355.02, 0.000, 0.000, 0.000, 16:55:31.976
93, -41221.24, 95248.55, 82243.11, 115515.42, 135376.69, 103940.52, 114596.32, 162271.22, 949.77, -65423.49, -74980.89, 486.75, -74743.07, -85861.09, -62137.58, -108355.02, 0.000, 0.000, 0.000, 16:55:31.976
94, -41221.24, 95248.55, 82243.11, 115515.42, 135376.69, 103940.52, 114596.32, 162271.22, 937.59, -65437.99, -74997.07, 472.45, -74749.87, -85876.45, -62142.83, -108357.63, 0.308, 0.922, 0.074, 16:55:31.976
95, -41238.23, 95230.61, 82223.99, 115503.33, 135345.50, 103923.80, 114587.69, 162283.06, 937.59, -65437.99, -74997.07, 472.45, -74749.87, -85876.45, -62142.83, -108357.63, 0.000, 0.000, 0.000, 16:55:31.976
96, -41238.23, 95230.61, 82223.99, 115503.33, 135345.50, 103923.80, 114587.69, 162283.06, 917.49, -65439.54, -75003.51, 468.07, -74747.07, -85865.66, -62152.24, -108363.76, 0.000, 0.000, 0.000, 16:55:31.976
97, -41256.45, 95230.12, 82223.93, 115509.16, 135353.83, 103923.02, 114600.77, 162299.36, 917.49, -65439.54, -75003.51, 468.07, -74747.07, -85865.66, -62152.24, -108363.76, 0.000, 0.000, 0.000, 16:55:31.976
98, -41256.45, 95230.12, 82223.93, 115509.16, 135353.83, 103923.02, 114600.77, 162299.36, 926.03, -65448.97, -75010.02, 462.37, -74751.05, -85880.74, -62142.03, -108373.03, 0.000, 0.000, 0.000, 16:55:31.977
99, -41238.12, 95218.27, 82210.88, 115491.59, 135358.14, 103894.95, 114595.52, 162299.45, 926.03, -65448.97, -75010.02, 462.37, -74751.05, -85880.74, -62142.03, -108373.03, 0.000, 0.000, 0.000, 16:55:31.977
100, -41238.12, 95218.27, 82210.88, 115491.59, 135358.14, 103894.95, 114595.52, 162299.45, 940.45, -65451.16, -75011.22, 461.59, -74755.12, -85890.98, -62144.66, -108388.10, 0.000, 0.000, 0.000, 16:55:31.977
101, -41243.59, 95235.26, 82229.61, 115505.12, 135375.81, 103902.37, 114608.99, 162303.14, 940.45, -65451.16, -75011.22, 461.59, -74755.12, -85890.98, -62144.66, -108388.10, 0.000, 0.000, 0.000, 16:55:31.977
102, -41243.59, 95235.26, 82229.61, 115505.12, 135375.81, 103902.37, 114608.99, 162303.14, 912.47, -65433.81, -74994.15, 479.04, -74754.60, -85874.64, -62133.60, -108377.08, 0.000, 0.000, 0.000, 16:55:31.977
103, -41272.83, 95243.41, 82240.96, 115513.97, 135374.19, 103908.70, 114609.98, 162315.77, 912.47, -65433.81, -74994.15, 479.04, -74754.60, -85874.64, -62133.60, -108377.08, 0.000, 0.000, 0.000, 16:55:31.977
104, -41272.83, 95243.41, 82240.96, 115513.97, 135374.19, 103908.70, 114609.98, 162315.77, 925.54, -65434.77, -74996.23, 479.42, -74744.66, -85875.69, -62135.84, -108366.88, 0.304, 0.928, 0.072, 16:55:31.978
105, -41417.87, 95241.02, 82237.09, 115516.43, 135366.41, 103923.41, 114590.04, 162300.02, 925.54, -65434.77, -74996.23, 479.42, -74744.66, -85875.69, -62135.84, -108366.88, 0.000, 0.000, 0.000, 16:55:31.978
106, -41417.87, 95241.02, 82237.09, 115516.43, 135366.41, 103923.41, 114590.04, 162300.02, 940.78, -65428.83, -74985.00, 487.89, -74750.24, -85877.10, -62141.36, -108362.93, 0.000, 0.000, 0.000, 16:55:31.978
107, -41711.77, 95259.24, 82245.07, 115520.95, 135361.95, 103905.48, 114584.74, 162320.69, 940.78, -65428.83, -74985.00, 487.89, -74750.24, -85877.10, -62141.36, -108362.93, 0.000, 0.000, 0.000, 16:55:31.978
108, -41711.77, 95259.24, 82245.07, 115520.95, 135361.95, 103905.48, 114584.74, 162320.69, 937.72, -65432.29, -74985.59, 485.48, -74744.66, -85872.70, -62151.50, -108370.17, 0.000, 0.000, 0.000, 16:55:31.978
109, -41984.82, 95262.39, 82248.07, 115526.98, 135357.95, 103912.01, 114575.44, 162318.86, 937.72, -65432.29, -74985.59, 485.48, -74744.66, -85872.70, -62151.50, -108370.17, 0.000, 0.000, 0.000, 16:55:31.979
110, -41984.82, 95262.39, 82248.07, 115526.98, 135357.95, 103912.01, 114575.44, 162318.86, 942.46, -65419.24, -74975.75, 497.75, -74743.78, -85854.66, -62151.21, -108356.45, 0.000, 0.000, 0.000, 16:55:31.979
111, -42250.07, 95260.94, 82244.96, 115531.47, 135344.08, 103909.26, 114582.88, 162315.30, 942.46, -65419.24, -74975.75, 497.75, -74743.78, -85854.66, -62151.21, -108356.45, 0.000, 0.000, 0.000, 16:55:31.979
112, -42250.07, 95260.94, 82244.96, 115531.47, 135344.08, 103909.26, 114582.88, 162315.30, 936.27, -65420.36, -74982.05, 493.79, -74754.87, -85858.61, -62153.88, -108367.76, 0.000, 0.000, 0.000, 16:55:31.979
113, -42494.02, 95264.47, 82250.46, 115529.37, 135359.50, 103899.80, 114583.33, 162317.09, 936.27, -65420.36, -74982.05, 493.79, -74754.87, -85858.61, -62153.88, -108367.76, 0.000, 0.000, 0.000, 16:55:31.979
114, -42494.02, 95264.47, 82250.46, 115529.37, 135359.50, 103899.80, 114583.33, 162317.09, 941.41, -65410.16, -74973.20, 502.82, -74733.01, -85856.89, -62139.28, -108365.39, 0.302, 0.924, 0.068, 16:55:31.980
115, -42724.57, 95258.02, 82243.95, 115526.62, 135326.23, 103893.92, 114585.95, 162315.53, 941.41, -65410.16, -74973.20, 502.82, -74733.01, -85856.89, -62139.28, -108365.39, 0.000, 0.000, 0.000, 16:55:31.980
116, -42724.57, 95258.02, 82243.95, 115526.62, 135326.23, 103893.92, 114585.95, 162315.53, 944.47, -65428.98, -74996.34, 486.04, -74780.77, -85872.47, -62153.09, -108379.16, 0.000, 0.000, 0.000, 16:55:31.980
117, -42941.32, 95246.44, 82238.05, 115516.41, 135342.92, 103872.02, 114589.41, 162342.13, 944.47, -65428.98, -74996.34, 486.04, -74780.77, -85872.47, -62153.09, -108379.16, 0.000, 0.000, 0.000, 16:55:31.980
118, -42941.32, 95246.44, 82238.05, 115516.41, 135342.92, 103872.02, 114589.41, 162342.13, 931.44, -65430.44, -74989.95, 487.89, -74760.52, -85883.47, -62146.88, -108371.40, 0.000, 0.000, 0.000, 16:55:31.980
119, -43140.50, 95243.08, 82244.05, 115524.63, 135367.14, 103891.13, 114606.42, 162369.38, 931.44, -65430.44, -74989.95, 487.89, -74760.52, -85883.47, -62146.88, -108371.40, 0.000, 0.000, 0.000, 16:55:31.980
120, -43140.50, 95243.08, 82244.05, 115524.63, 135367.14, 103891.13, 114606.42, 162369.38, 939.04, -65431.24, -74996.45, 483.20, -74778.85, -85870.86, -62142.41, -108362.51, 0.000, 0.000, 0.000, 16:55:31.981
121, -43318.21, 95230.97, 82234.16, 115514.77, 135358.97, 103889.95, 114600.70, 162372.98, 939.04, -65431.24, -74996.45, 483.20, -74778.85, -85870.86, -62142.41, -108362.51, 0.000, 0.000, 0.000, 16:55:31.981
122, -43318.21, 95230.97, 82234.16, 115514.77, 135358.97, 103889.95, 114600.70, 162372.98, 942.06, -65441.46, -75003.71, 473.23, -74788.40, -85864.27, -62154.52, -108355.64, 0.000, 0.000, 0.000, 16:55:31.981
123, -43488.47, 95223.34, 82225.88, 115510.19, 135295.23, 103922.20, 114589.95, 162343.80, 942.06, -65441.46, -75003.71, 473.23, -74788.40, -85864.27, -62154.52, -108355.64, 0.000, 0.000, 0.000, 16:55:31.981
124, -43488.47, 95223.34, 82225.88, 115510.19, 135295.23, 103922.20, 114589.95, 162343.80, 941.66, -65446.82, -74999.80, 471.64, -74808.38, -85880.67, -62156.64, -108371.49, 0.304, 0.924, 0.072, 16:55:31.981
125, -43656.84, 95210.52, 82234.21, 115508.78, 135358.03, 103886.75, 114592.90, 162344.11, 941.66, -65446.82, -74999.80, 471.64, -74808.38, -85880.67, -62156.64, -108371.49, 0.000, 0.000, 0.000, 16:55:31.982
126, -43656.84, 95210.52, 82234.21, 115508.78, 135358.03, 103886.75, 114592.90, 162344.11, 920.71, -65445.46, -74993.90, 475.56, -74775.91, -85873.59, -62155.98, -108380.05, 0.000, 0.000, 0.000, 16:55:31.982
127, -43790.87, 95215.03, 82262.46, 115512.13, 135401.95, 103877.85, 114574.55, 162351.44, 920.71, -65445.46, -74993.90, 475.56, -74775.91, -85873.59, -62155.98, -108380.05, 0.000, 0.000, 0.000, 16:55:31.982
128, -43790.87, 95215.03, 82262.46, 115512.13, 135401.95, 103877.85, 114574.55, 162351.44, 944.38, -65442.73, -74978.16, 488.85, -74736.72, -85888.85, -62141.58, -108382.69, 0.000, 0.000, 0.000, 16:55:31.982
129, -43632.04, 95216.04, 82278.60, 115507.44, 135383.58, 103847.95, 114556.66, 162387.47, 944.38, -65442.73, -74978.16, 488.85, -74736.72, -85888.85, -62141.58, -108382.69, 0.000, 0.000, 0.000, 16:55:31.982
130, -43632.04, 95216.04, 82278.60, 115507.44, 135383.58, 103847.95, 114556.66, 162387.47, 968.19, -65428.83, -74956.17, 514.87, -74691.93, -85873.34, -62135.57, -108368.98, 0.000, 0.000, 0.000, 16:55:31.982
131, -43358.52, 95241.56, 82319.84, 115539.09, 135378.80, 103872.42, 114532.57, 162325.36, 968.19, -65428.83, -74956.17, 514.87, -74691.93, -85873.34, -62135.57, -108368.98, 0.000, 0.000, 0.000, 16:55:31.983
133, -43109.90, 95243.80, 82323.71, 115542.89, 135314.42, 103864.13, 114512.50, 162321.53, 968.19, -65428.83, -74956.17, 514.87, -74691.93, -85873.34, -62135.57, -108368.98, 0.000, 0.000, 0.000, 16:55:31.983
